"2cP4 - RawData"
"Wavelength nm.","T%"
200.00,0.003
201.00,0.001
202.00,-0.002
203.00,0.004
204.00,0.000
205.00,0.001
206.00,0.003
207.00,0.001
208.00,0.003
209.00,0.000
210.00,0.003
211.00,-0.001
212.00,0.004
213.00,0.002
214.00,0.003
215.00,-0.001
216.00,-0.000
217.00,0.000
218.00,-0.000
219.00,0.004
220.00,0.004
221.00,-0.002
222.00,0.000
223.00,0.006
224.00,0.002
225.00,0.000
226.00,0.001
227.00,0.003
228.00,0.002
229.00,-0.001
230.00,-0.001
231.00,0.000
232.00,0.001
233.00,0.000
234.00,0.001
235.00,-0.000
236.00,0.002
237.00,-0.001
238.00,0.001
239.00,0.000
240.00,-0.000
241.00,0.001
242.00,0.001
243.00,0.002
244.00,0.002
245.00,0.001
246.00,-0.000
247.00,0.001
248.00,-0.001
249.00,0.001
250.00,0.001
251.00,-0.001
252.00,0.001
253.00,0.002
254.00,0.000
255.00,0.001
256.00,-0.000
257.00,0.001
258.00,-0.001
259.00,0.001
260.00,-0.000
261.00,0.001
262.00,0.001
263.00,0.002
264.00,-0.000
265.00,-0.001
266.00,0.002
267.00,0.002
268.00,0.001
269.00,0.001
270.00,0.000
271.00,0.001
272.00,-0.000
273.00,0.001
274.00,0.000
275.00,0.001
276.00,0.001
277.00,-0.001
278.00,0.000
279.00,0.000
280.00,0.001
281.00,-0.001
282.00,-0.000
283.00,-0.001
284.00,-0.000
285.00,-0.001
286.00,-0.001
287.00,-0.001
288.00,0.000
289.00,0.000
290.00,0.000
291.00,-0.001
292.00,0.001
293.00,-0.001
294.00,-0.001
295.00,0.000
296.00,-0.000
297.00,-0.000
298.00,0.001
299.00,0.002
300.00,0.003
301.00,0.004
302.00,0.005
303.00,0.009
304.00,0.013
305.00,0.019
306.00,0.031
307.00,0.047
308.00,0.072
309.00,0.111
310.00,0.154
311.00,0.206
312.00,0.287
313.00,0.383
314.00,0.502
315.00,0.654
316.00,0.835
317.00,1.057
318.00,1.309
319.00,1.610
320.00,1.943
321.00,2.336
322.00,2.775
323.00,3.281
324.00,3.798
325.00,4.332
326.00,4.865
327.00,5.504
328.00,6.175
329.00,6.720
330.00,7.505
331.00,8.189
332.00,8.907
333.00,9.710
334.00,10.388
335.00,11.134
336.00,11.873
337.00,12.608
338.00,13.328
339.00,13.976
340.00,14.625
341.00,15.325
342.00,15.948
343.00,16.494
344.00,17.088
345.00,17.675
346.00,18.159
347.00,18.664
348.00,19.170
349.00,19.610
350.00,20.008
351.00,20.397
352.00,20.741
353.00,21.112
354.00,21.473
355.00,21.744
356.00,22.021
357.00,22.257
358.00,22.493
359.00,22.806
360.00,23.012
361.00,23.168
362.00,23.403
363.00,23.600
364.00,23.653
365.00,23.775
366.00,23.955
367.00,24.061
368.00,24.115
369.00,24.191
370.00,24.258
371.00,24.317
372.00,24.261
373.00,24.294
374.00,24.268
375.00,24.313
376.00,24.301
377.00,24.294
378.00,24.227
379.00,24.160
380.00,24.144
381.00,24.155
382.00,24.195
383.00,24.206
384.00,24.247
385.00,24.322
386.00,24.397
387.00,24.390
388.00,24.491
389.00,24.443
390.00,24.539
391.00,24.602
392.00,24.596
393.00,24.605
394.00,24.665
395.00,24.726
396.00,24.704
397.00,24.745
398.00,24.748
399.00,24.749
400.00,24.781
401.00,24.773
402.00,24.782
403.00,24.832
404.00,24.828
405.00,24.808
406.00,24.795
407.00,24.751
408.00,24.802
409.00,24.732
410.00,24.724
411.00,24.703
412.00,24.687
413.00,24.714
414.00,24.724
415.00,24.710
416.00,24.742
417.00,24.737
418.00,24.778
419.00,24.836
420.00,24.844
421.00,24.958
422.00,24.973
423.00,25.018
424.00,25.066
425.00,25.067
426.00,25.114
427.00,25.201
428.00,25.239
429.00,25.262
430.00,25.356
431.00,25.408
432.00,25.441
433.00,25.461
434.00,25.557
435.00,25.590
436.00,25.684
437.00,25.726
438.00,25.854
439.00,25.911
440.00,25.983
441.00,26.085
442.00,26.153
443.00,26.252
444.00,26.331
445.00,26.437
446.00,26.505
447.00,26.619
448.00,26.748
449.00,26.860
450.00,26.935
451.00,27.013
452.00,27.147
453.00,27.284
454.00,27.380
455.00,27.478
456.00,27.580
457.00,27.721
458.00,27.788
459.00,27.946
460.00,28.087
461.00,28.219
462.00,28.327
463.00,28.490
464.00,28.586
465.00,28.689
466.00,28.856
467.00,28.937
468.00,29.061
469.00,29.147
470.00,29.246
471.00,29.365
472.00,29.478
473.00,29.579
474.00,29.691
475.00,29.815
476.00,29.935
477.00,30.055
478.00,30.193
479.00,30.282
480.00,30.446
481.00,30.580
482.00,30.769
483.00,30.923
484.00,31.080
485.00,31.226
486.00,31.341
487.00,31.484
488.00,31.632
489.00,31.766
490.00,31.878
491.00,31.992
492.00,32.200
493.00,32.331
494.00,32.367
495.00,32.533
496.00,32.638
497.00,32.768
498.00,32.868
499.00,33.027
500.00,33.154
501.00,33.250
502.00,33.375
503.00,33.514
504.00,33.612
505.00,33.717
506.00,33.859
507.00,33.923
508.00,34.041
509.00,34.221
510.00,34.354
511.00,34.368
512.00,34.572
513.00,34.693
514.00,34.771
515.00,34.896
516.00,35.044
517.00,35.065
518.00,35.201
519.00,35.278
520.00,35.332
521.00,35.413
522.00,35.551
523.00,35.528
524.00,35.656
525.00,35.780
526.00,35.834
527.00,35.887
528.00,35.964
529.00,36.068
530.00,36.221
531.00,36.333
532.00,36.437
533.00,36.543
534.00,36.523
535.00,36.672
536.00,36.729
537.00,36.840
538.00,36.848
539.00,36.922
540.00,37.019
541.00,37.072
542.00,37.120
543.00,37.199
544.00,37.305
545.00,37.361
546.00,37.374
547.00,37.521
548.00,37.573
549.00,37.559
550.00,37.685
551.00,37.812
552.00,37.841
553.00,37.861
554.00,37.941
555.00,37.911
556.00,37.988
557.00,38.095
558.00,38.166
559.00,38.188
560.00,38.229
561.00,38.332
562.00,38.338
563.00,38.367
564.00,38.431
565.00,38.485
566.00,38.508
567.00,38.506
568.00,38.570
569.00,38.637
570.00,38.662
571.00,38.668
572.00,38.712
573.00,38.735
574.00,38.779
575.00,38.790
576.00,38.788
577.00,38.887
578.00,39.005
579.00,38.978
580.00,38.970
581.00,39.220
582.00,39.273
583.00,39.268
584.00,39.388
585.00,39.426
586.00,39.469
587.00,39.596
588.00,39.567
589.00,39.542
590.00,39.641
591.00,39.703
592.00,39.715
593.00,39.789
594.00,39.878
595.00,39.864
596.00,39.939
597.00,39.959
598.00,40.049
599.00,40.036
600.00,40.074
601.00,40.168
602.00,40.150
603.00,40.161
604.00,40.211
605.00,40.295
606.00,40.271
607.00,40.315
608.00,40.447
609.00,40.507
610.00,40.418
611.00,40.523
612.00,40.539
613.00,40.631
614.00,40.672
615.00,40.737
616.00,40.885
617.00,40.763
618.00,40.789
619.00,40.918
620.00,40.873
621.00,40.971
622.00,41.069
623.00,41.083
624.00,41.170
625.00,41.249
626.00,41.294
627.00,41.418
628.00,41.365
629.00,41.407
630.00,41.519
631.00,41.566
632.00,41.614
633.00,41.815
634.00,41.848
635.00,41.902
636.00,41.975
637.00,41.951
638.00,41.958
639.00,42.138
640.00,42.141
641.00,42.195
642.00,42.316
643.00,42.330
644.00,42.412
645.00,42.426
646.00,42.613
647.00,42.633
648.00,42.685
649.00,42.778
650.00,42.783
651.00,42.808
652.00,42.918
653.00,42.966
654.00,42.980
655.00,43.197
656.00,43.466
657.00,43.414
658.00,43.522
659.00,43.548
660.00,43.588
661.00,43.539
662.00,43.611
663.00,43.826
664.00,44.034
665.00,44.160
666.00,44.122
667.00,44.211
668.00,44.298
669.00,44.476
670.00,44.615
671.00,44.529
672.00,44.609
673.00,44.675
674.00,44.775
675.00,44.880
676.00,45.063
677.00,45.137
678.00,45.091
679.00,45.240
680.00,45.310
681.00,45.509
682.00,45.485
683.00,45.449
684.00,45.676
685.00,45.646
686.00,45.494
687.00,45.867
688.00,45.926
689.00,45.935
690.00,46.055
691.00,46.261
692.00,46.042
693.00,46.143
694.00,46.395
695.00,46.610
696.00,46.657
697.00,46.496
698.00,46.626
699.00,46.814
700.00,46.732
701.00,46.800
702.00,46.924
703.00,47.117
704.00,47.168
705.00,47.072
706.00,47.235
707.00,47.220
708.00,47.101
709.00,47.411
710.00,47.819
711.00,47.429
712.00,47.496
713.00,47.686
714.00,47.806
715.00,47.744
716.00,47.765
717.00,47.952
718.00,48.113
719.00,47.976
720.00,48.013
721.00,52.580
722.00,52.588
723.00,52.563
724.00,52.582
725.00,52.658
726.00,52.681
727.00,52.615
728.00,52.641
729.00,52.624
730.00,52.646
731.00,52.671
732.00,52.704
733.00,52.788
734.00,52.775
735.00,52.837
736.00,52.774
737.00,52.920
738.00,52.887
739.00,52.914
740.00,53.002
741.00,52.951
742.00,53.003
743.00,52.922
744.00,52.921
745.00,52.976
746.00,52.977
747.00,52.992
748.00,52.955
749.00,52.919
750.00,52.970
751.00,53.007
752.00,52.940
753.00,52.925
754.00,52.918
755.00,52.881
756.00,52.938
757.00,52.939
758.00,52.883
759.00,52.997
760.00,52.987
761.00,52.983
762.00,52.977
763.00,52.981
764.00,52.969
765.00,52.940
766.00,53.047
767.00,53.069
768.00,53.037
769.00,52.918
770.00,53.156
771.00,53.122
772.00,53.036
773.00,53.178
774.00,53.037
775.00,53.085
776.00,52.984
777.00,53.056
778.00,53.089
779.00,53.023
780.00,53.038
781.00,53.049
782.00,53.126
783.00,53.065
784.00,53.023
785.00,53.114
786.00,53.032
787.00,53.039
788.00,53.046
789.00,52.965
790.00,53.050
791.00,53.066
792.00,53.005
793.00,52.996
794.00,52.852
795.00,52.880
796.00,52.963
797.00,52.811
798.00,52.845
799.00,52.912
800.00,52.841
801.00,52.871
802.00,52.820
803.00,52.743
804.00,52.768
805.00,52.837
806.00,52.761
807.00,52.720
808.00,52.768
809.00,52.673
810.00,52.661
811.00,52.665
812.00,52.648
813.00,52.683
814.00,52.720
815.00,52.601
816.00,52.656
817.00,52.561
818.00,52.551
819.00,52.547
820.00,52.535
821.00,52.520
822.00,52.568
823.00,52.391
824.00,52.470
825.00,52.486
826.00,52.448
827.00,52.448
828.00,52.427
829.00,52.398
830.00,52.379
831.00,54.561
832.00,54.542
833.00,54.523
834.00,54.484
835.00,54.468
836.00,54.436
837.00,54.457
838.00,54.423
839.00,54.433
840.00,54.379
841.00,54.331
842.00,54.203
843.00,54.290
844.00,54.207
845.00,54.234
846.00,54.295
847.00,54.218
848.00,54.213
849.00,54.152
850.00,54.139
851.00,54.096
852.00,54.075
853.00,53.962
854.00,54.024
855.00,53.951
856.00,53.979
857.00,53.896
858.00,53.882
859.00,53.831
860.00,53.859
861.00,53.811
862.00,53.811
863.00,53.796
864.00,53.767
865.00,53.807
866.00,53.772
867.00,53.784
868.00,53.732
869.00,53.725
870.00,53.708
871.00,53.748
872.00,53.670
873.00,53.699
874.00,53.638
875.00,53.674
876.00,53.639
877.00,53.646
878.00,53.641
879.00,53.595
880.00,53.578
881.00,53.559
882.00,53.570
883.00,53.524
884.00,53.476
885.00,53.470
886.00,53.455
887.00,53.443
888.00,53.413
889.00,53.414
890.00,53.378
891.00,53.373
892.00,53.355
893.00,53.313
894.00,53.300
895.00,53.263
896.00,53.270
897.00,53.265
898.00,53.226
899.00,53.220
900.00,53.194
901.00,53.204
902.00,53.217
903.00,53.171
904.00,53.141
905.00,53.142
906.00,53.122
907.00,53.112
908.00,53.104
909.00,53.057
910.00,53.025
911.00,53.093
912.00,53.037
913.00,52.994
914.00,52.972
915.00,52.920
916.00,52.898
917.00,52.878
918.00,52.891
919.00,52.823
920.00,52.845
921.00,52.828
922.00,52.815
923.00,52.757
924.00,52.771
925.00,52.717
926.00,52.726
927.00,52.697
928.00,52.717
929.00,52.681
930.00,52.656
931.00,52.647
932.00,52.612
933.00,52.610
934.00,52.600
935.00,52.574
936.00,52.544
937.00,52.548
938.00,52.519
939.00,52.477
940.00,52.600
941.00,52.472
942.00,52.428
943.00,52.420
944.00,52.373
945.00,52.412
946.00,52.374
947.00,52.361
948.00,52.320
949.00,52.306
950.00,52.262
951.00,52.252
952.00,52.242
953.00,52.209
954.00,52.168
955.00,52.208
956.00,52.141
957.00,52.103
958.00,52.103
959.00,52.075
960.00,52.050
961.00,52.032
962.00,52.044
963.00,51.996
964.00,51.997
965.00,51.970
966.00,51.965
967.00,51.946
968.00,51.949
969.00,51.957
970.00,51.951
971.00,51.951
972.00,51.916
973.00,51.957
974.00,51.963
975.00,51.943
976.00,51.939
977.00,51.930
978.00,51.966
979.00,51.915
980.00,51.958
981.00,51.935
982.00,51.936
983.00,51.907
984.00,51.912
985.00,51.919
986.00,51.885
987.00,51.910
988.00,51.875
989.00,51.877
990.00,51.853
991.00,51.851
992.00,51.862
993.00,51.828
994.00,51.821
995.00,51.806
996.00,51.802
997.00,51.763
998.00,51.769
999.00,51.764
1000.00,51.712
1001.00,51.714
1002.00,51.711
1003.00,51.721
1004.00,51.682
1005.00,51.651
1006.00,51.685
1007.00,51.652
1008.00,51.647
1009.00,51.604
1010.00,51.610
1011.00,51.594
1012.00,51.568
1013.00,51.573
1014.00,51.544
1015.00,51.579
1016.00,51.590
1017.00,51.535
1018.00,51.502
1019.00,51.474
1020.00,51.469
1021.00,51.440
1022.00,51.447
1023.00,51.388
1024.00,51.398
1025.00,51.391
1026.00,51.382
1027.00,51.345
1028.00,51.356
1029.00,51.323
1030.00,51.301
1031.00,51.317
1032.00,51.265
1033.00,51.258
1034.00,51.233
1035.00,51.193
1036.00,51.174
1037.00,51.141
1038.00,51.146
1039.00,51.117
1040.00,51.107
1041.00,51.081
1042.00,51.079
1043.00,51.054
1044.00,51.068
1045.00,51.048
1046.00,51.031
1047.00,51.049
1048.00,51.061
1049.00,51.073
1050.00,51.096
1051.00,51.116
1052.00,51.140
1053.00,51.138
1054.00,51.126
1055.00,51.161
1056.00,51.163
1057.00,51.145
1058.00,51.116
1059.00,51.143
1060.00,51.133
1061.00,51.121
1062.00,51.119
1063.00,51.107
1064.00,51.107
1065.00,51.091
1066.00,51.068
1067.00,51.071
1068.00,51.086
1069.00,51.065
1070.00,51.037
1071.00,51.021
1072.00,51.039
1073.00,51.004
1074.00,51.024
1075.00,51.010
1076.00,51.015
1077.00,50.988
1078.00,50.973
1079.00,50.968
1080.00,50.968
1081.00,50.939
1082.00,50.933
1083.00,50.938
1084.00,50.922
1085.00,50.924
1086.00,50.908
1087.00,50.888
1088.00,50.867
1089.00,50.852
1090.00,50.869
1091.00,50.857
1092.00,50.836
1093.00,50.824
1094.00,50.827
1095.00,50.806
1096.00,50.806
1097.00,50.810
1098.00,50.784
1099.00,50.775
1100.00,50.765
1101.00,50.760
1102.00,50.755
1103.00,50.751
1104.00,50.757
1105.00,50.738
1106.00,50.730
1107.00,50.736
1108.00,50.711
1109.00,50.695
1110.00,50.689
1111.00,50.683
1112.00,50.663
1113.00,50.661
1114.00,50.645
1115.00,50.657
1116.00,50.656
1117.00,50.641
1118.00,50.635
1119.00,50.621
1120.00,50.630
1121.00,50.619
1122.00,50.605
1123.00,50.618
1124.00,50.570
1125.00,50.564
1126.00,50.565
1127.00,50.570
1128.00,50.537
1129.00,50.532
1130.00,50.525
1131.00,50.504
1132.00,50.521
1133.00,50.534
1134.00,50.522
1135.00,50.512
1136.00,50.532
1137.00,50.511
1138.00,50.504
1139.00,50.492
1140.00,50.491
1141.00,50.480
1142.00,50.464
1143.00,50.466
1144.00,50.443
1145.00,50.446
1146.00,50.453
1147.00,50.446
1148.00,50.456
1149.00,50.447
1150.00,50.441
1151.00,50.441
1152.00,50.423
1153.00,50.407
1154.00,50.406
1155.00,50.399
1156.00,50.397
1157.00,50.404
1158.00,50.404
1159.00,50.394
1160.00,50.400
1161.00,50.403
1162.00,50.397
1163.00,50.407
1164.00,50.390
1165.00,50.405
1166.00,50.392
1167.00,50.379
1168.00,50.406
1169.00,50.390
1170.00,50.384
1171.00,50.356
1172.00,50.364
1173.00,50.367
1174.00,50.373
1175.00,50.370
1176.00,50.361
1177.00,50.345
1178.00,50.344
1179.00,50.367
1180.00,50.342
1181.00,50.361
1182.00,50.372
1183.00,50.368
1184.00,50.376
1185.00,50.352
1186.00,50.329
1187.00,50.335
1188.00,50.329
1189.00,50.334
1190.00,50.319
1191.00,50.299
1192.00,50.329
1193.00,50.328
1194.00,50.311
1195.00,50.300
1196.00,50.337
1197.00,50.317
1198.00,50.313
1199.00,50.307
1200.00,50.308
1201.00,50.323
1202.00,50.308
1203.00,50.310
1204.00,50.298
1205.00,50.315
1206.00,50.311
1207.00,50.317
1208.00,50.283
1209.00,50.295
1210.00,50.300
1211.00,50.291
1212.00,50.324
1213.00,50.277
1214.00,50.303
1215.00,50.283
1216.00,50.282
1217.00,50.296
1218.00,50.269
1219.00,50.278
1220.00,50.264
1221.00,50.281
1222.00,50.272
1223.00,50.298
1224.00,50.292
1225.00,50.276
1226.00,50.299
1227.00,50.284
1228.00,50.313
1229.00,50.329
1230.00,50.324
1231.00,50.322
1232.00,50.322
1233.00,50.331
1234.00,50.342
1235.00,50.325
1236.00,50.321
1237.00,50.338
1238.00,50.330
1239.00,50.342
1240.00,50.337
1241.00,50.318
1242.00,50.356
1243.00,50.347
1244.00,50.329
1245.00,50.377
1246.00,50.363
1247.00,50.338
1248.00,50.328
1249.00,50.346
1250.00,50.362
1251.00,50.360
1252.00,50.362
1253.00,50.348
1254.00,50.375
1255.00,50.366
1256.00,50.346
1257.00,50.328
1258.00,50.367
1259.00,50.373
1260.00,50.386
1261.00,50.396
1262.00,50.367
1263.00,50.357
1264.00,50.376
1265.00,50.378
1266.00,50.392
1267.00,50.406
1268.00,50.405
1269.00,50.414
1270.00,50.434
1271.00,50.420
1272.00,50.425
1273.00,50.440
1274.00,50.427
1275.00,50.435
1276.00,50.433
1277.00,50.431
1278.00,50.450
1279.00,50.440
1280.00,50.450
1281.00,50.465
1282.00,50.477
1283.00,50.478
1284.00,50.481
1285.00,50.461
1286.00,50.473
1287.00,50.471
1288.00,50.460
1289.00,50.464
1290.00,50.488
1291.00,50.483
1292.00,50.493
1293.00,50.475
1294.00,50.496
1295.00,50.512
1296.00,50.503
1297.00,50.519
1298.00,50.525
1299.00,50.514
1300.00,50.527
1301.00,50.516
1302.00,50.530
1303.00,50.539
1304.00,50.531
1305.00,50.582
1306.00,50.547
1307.00,50.540
1308.00,50.546
1309.00,50.559
1310.00,50.552
1311.00,50.558
1312.00,50.566
1313.00,50.587
1314.00,50.619
1315.00,50.616
1316.00,50.617
1317.00,50.634
1318.00,50.626
1319.00,50.610
1320.00,50.623
1321.00,50.792
1322.00,50.797
1323.00,50.774
1324.00,50.762
1325.00,50.754
1326.00,50.748
1327.00,50.786
1328.00,50.793
1329.00,50.705
1330.00,50.789
1331.00,50.767
1332.00,50.752
1333.00,50.777
1334.00,50.858
1335.00,50.802
1336.00,50.840
1337.00,50.866
1338.00,50.932
1339.00,50.980
1340.00,51.020
1341.00,51.093
1342.00,51.159
1343.00,51.200
1344.00,51.264
1345.00,51.301
1346.00,51.343
1347.00,51.383
1348.00,51.408
1349.00,51.435
1350.00,51.445
1351.00,51.439
1352.00,51.452
1353.00,51.473
1354.00,51.446
1355.00,51.417
1356.00,51.483
1357.00,51.457
1358.00,51.474
1359.00,51.478
1360.00,51.531
1361.00,51.471
1362.00,51.382
1363.00,51.569
1364.00,51.542
1365.00,51.519
1366.00,51.561
1367.00,51.485
1368.00,51.456
1369.00,51.504
1370.00,51.498
1371.00,51.474
1372.00,51.459
1373.00,51.467
1374.00,51.471
1375.00,51.465
1376.00,51.443
1377.00,51.490
1378.00,51.540
1379.00,51.561
1380.00,51.536
1381.00,51.441
1382.00,51.490
1383.00,51.458
1384.00,51.448
1385.00,51.477
1386.00,51.485
1387.00,51.423
1388.00,51.462
1389.00,51.460
1390.00,51.466
1391.00,51.438
1392.00,51.446
1393.00,51.545
1394.00,51.449
1395.00,51.373
1396.00,51.411
1397.00,51.479
1398.00,51.487
1399.00,51.472
1400.00,51.473
1401.00,51.395
1402.00,51.516
1403.00,51.431
1404.00,51.475
1405.00,51.448
1406.00,51.524
1407.00,51.531
1408.00,51.501
1409.00,51.479
1410.00,51.535
1411.00,51.514
1412.00,51.548
1413.00,51.436
1414.00,51.527
1415.00,51.579
1416.00,51.573
1417.00,51.569
1418.00,51.592
1419.00,51.591
1420.00,51.603
1421.00,51.653
1422.00,51.633
1423.00,51.636
1424.00,51.657
1425.00,51.671
1426.00,51.681
1427.00,51.698
1428.00,51.681
1429.00,51.716
1430.00,51.704
1431.00,51.730
1432.00,51.750
1433.00,51.752
1434.00,51.751
1435.00,51.788
1436.00,51.807
1437.00,51.805
1438.00,51.839
1439.00,51.860
1440.00,51.885
1441.00,51.871
1442.00,51.862
1443.00,51.898
1444.00,51.944
1445.00,51.923
1446.00,51.930
1447.00,51.946
1448.00,51.993
1449.00,52.000
1450.00,51.990
1451.00,52.033
1452.00,52.044
1453.00,52.042
1454.00,52.074
1455.00,52.073
1456.00,52.104
1457.00,52.112
1458.00,52.111
1459.00,52.148
1460.00,52.156
1461.00,52.161
1462.00,52.199
1463.00,52.199
1464.00,52.205
1465.00,52.227
1466.00,52.218
1467.00,52.245
1468.00,52.289
1469.00,52.285
1470.00,52.292
1471.00,52.332
1472.00,52.327
1473.00,52.340
1474.00,52.345
1475.00,52.348
1476.00,52.366
1477.00,52.348
1478.00,52.383
1479.00,52.412
1480.00,52.400
1481.00,52.414
1482.00,52.453
1483.00,52.451
1484.00,52.472
1485.00,52.465
1486.00,52.458
1487.00,52.502
1488.00,52.508
1489.00,52.520
1490.00,52.534
1491.00,52.541
1492.00,52.559
1493.00,52.543
1494.00,52.567
1495.00,52.574
1496.00,52.577
1497.00,52.572
1498.00,52.600
1499.00,52.609
1500.00,52.634
1501.00, 
1502.00, 
1503.00, 
1504.00, 
1505.00, 
1506.00, 
1507.00, 
1508.00, 
1509.00, 
1510.00, 
1511.00, 
1512.00, 
1513.00, 
1514.00, 
1515.00, 
1516.00, 
1517.00, 
1518.00, 
1519.00, 
1520.00, 
1521.00, 
1522.00, 
1523.00, 
1524.00, 
1525.00, 
1526.00, 
1527.00, 
1528.00, 
1529.00, 
1530.00, 
1531.00, 
1532.00, 
1533.00, 
1534.00, 
1535.00, 
1536.00, 
1537.00, 
1538.00, 
1539.00, 
1540.00, 
1541.00, 
1542.00, 
1543.00, 
1544.00, 
1545.00, 
1546.00, 
1547.00, 
1548.00, 
1549.00, 
1550.00, 
1551.00, 
1552.00, 
1553.00, 
1554.00, 
1555.00, 
1556.00, 
1557.00, 
1558.00, 
1559.00, 
1560.00, 
1561.00, 
1562.00, 
1563.00, 
1564.00, 
1565.00, 
1566.00, 
1567.00, 
1568.00, 
1569.00, 
1570.00, 
1571.00, 
1572.00, 
1573.00, 
1574.00, 
1575.00, 
1576.00, 
1577.00, 
1578.00, 
1579.00, 
1580.00, 
1581.00, 
1582.00, 
1583.00, 
1584.00, 
1585.00, 
1586.00, 
1587.00, 
1588.00, 
1589.00, 
1590.00, 
1591.00, 
1592.00, 
1593.00, 
1594.00, 
1595.00, 
1596.00, 
1597.00, 
1598.00, 
1599.00, 
1600.00, 
1601.00, 
1602.00, 
1603.00, 
1604.00, 
1605.00, 
1606.00, 
1607.00, 
1608.00, 
1609.00, 
1610.00, 
1611.00, 
1612.00, 
1613.00, 
1614.00, 
1615.00, 
1616.00, 
1617.00, 
1618.00, 
1619.00, 
1620.00, 
1621.00, 
1622.00, 
1623.00, 
1624.00, 
1625.00, 
1626.00, 
1627.00, 
1628.00, 
1629.00, 
1630.00, 
1631.00, 
1632.00, 
1633.00, 
1634.00, 
1635.00, 
1636.00, 
1637.00, 
1638.00, 
1639.00, 
1640.00, 
1641.00, 
1642.00, 
1643.00, 
1644.00, 
1645.00, 
1646.00, 
1647.00, 
1648.00, 
1649.00, 
1650.00, 
1651.00, 
1652.00, 
1653.00, 
1654.00, 
1655.00, 
1656.00, 
1657.00, 
1658.00, 
1659.00, 
1660.00, 
1661.00, 
1662.00, 
1663.00, 
1664.00, 
1665.00, 
1666.00, 
1667.00, 
1668.00, 
1669.00, 
1670.00, 
1671.00, 
1672.00, 
1673.00, 
1674.00, 
1675.00, 
1676.00, 
1677.00, 
1678.00, 
1679.00, 
1680.00, 
1681.00, 
1682.00, 
1683.00, 
1684.00, 
1685.00, 
1686.00, 
1687.00, 
1688.00, 
1689.00, 
1690.00, 
1691.00, 
1692.00, 
1693.00, 
1694.00, 
1695.00, 
1696.00, 
1697.00, 
1698.00, 
1699.00, 
1700.00, 
1701.00, 
1702.00, 
1703.00, 
1704.00, 
1705.00, 
1706.00, 
1707.00, 
1708.00, 
1709.00, 
1710.00, 
1711.00, 
1712.00, 
1713.00, 
1714.00, 
1715.00, 
1716.00, 
1717.00, 
1718.00, 
1719.00, 
1720.00, 
1721.00, 
1722.00, 
1723.00, 
1724.00, 
1725.00, 
1726.00, 
1727.00, 
1728.00, 
1729.00, 
1730.00, 
1731.00, 
1732.00, 
1733.00, 
1734.00, 
1735.00, 
1736.00, 
1737.00, 
1738.00, 
1739.00, 
1740.00, 
1741.00, 
1742.00, 
1743.00, 
1744.00, 
1745.00, 
1746.00, 
1747.00, 
1748.00, 
1749.00, 
1750.00, 
1751.00, 
1752.00, 
1753.00, 
1754.00, 
1755.00, 
1756.00, 
1757.00, 
1758.00, 
1759.00, 
1760.00, 
1761.00, 
1762.00, 
1763.00, 
1764.00, 
1765.00, 
1766.00, 
1767.00, 
1768.00, 
1769.00, 
1770.00, 
1771.00, 
1772.00, 
1773.00, 
1774.00, 
1775.00, 
1776.00, 
1777.00, 
1778.00, 
1779.00, 
1780.00, 
1781.00, 
1782.00, 
1783.00, 
1784.00, 
1785.00, 
1786.00, 
1787.00, 
1788.00, 
1789.00, 
1790.00, 
1791.00, 
1792.00, 
1793.00, 
1794.00, 
1795.00, 
1796.00, 
1797.00, 
1798.00, 
1799.00, 
1800.00, 
1801.00, 
1802.00, 
1803.00, 
1804.00, 
1805.00, 
1806.00, 
1807.00, 
1808.00, 
1809.00, 
1810.00, 
1811.00, 
1812.00, 
1813.00, 
1814.00, 
1815.00, 
1816.00, 
1817.00, 
1818.00, 
1819.00, 
1820.00, 
1821.00, 
1822.00, 
1823.00, 
1824.00, 
1825.00, 
1826.00, 
1827.00, 
1828.00, 
1829.00, 
1830.00, 
1831.00, 
1832.00, 
1833.00, 
1834.00, 
1835.00, 
1836.00, 
1837.00, 
1838.00, 
1839.00, 
1840.00, 
1841.00, 
1842.00, 
1843.00, 
1844.00, 
1845.00, 
1846.00, 
1847.00, 
1848.00, 
1849.00, 
1850.00, 
1851.00, 
1852.00, 
1853.00, 
1854.00, 
1855.00, 
1856.00, 
1857.00, 
1858.00, 
1859.00, 
1860.00, 
1861.00, 
1862.00, 
1863.00, 
1864.00, 
1865.00, 
1866.00, 
1867.00, 
1868.00, 
1869.00, 
1870.00, 
1871.00, 
1872.00, 
1873.00, 
1874.00, 
1875.00, 
1876.00, 
1877.00, 
1878.00, 
1879.00, 
1880.00, 
1881.00, 
1882.00, 
1883.00, 
1884.00, 
1885.00, 
1886.00, 
1887.00, 
1888.00, 
1889.00, 
1890.00, 
1891.00, 
1892.00, 
1893.00, 
1894.00, 
1895.00, 
1896.00, 
1897.00, 
1898.00, 
1899.00, 
1900.00, 
1901.00, 
1902.00, 
1903.00, 
1904.00, 
1905.00, 
1906.00, 
1907.00, 
1908.00, 
1909.00, 
1910.00, 
1911.00, 
1912.00, 
1913.00, 
1914.00, 
1915.00, 
1916.00, 
1917.00, 
1918.00, 
1919.00, 
1920.00, 
1921.00, 
1922.00, 
1923.00, 
1924.00, 
1925.00, 
1926.00, 
1927.00, 
1928.00, 
1929.00, 
1930.00, 
1931.00, 
1932.00, 
1933.00, 
1934.00, 
1935.00, 
1936.00, 
1937.00, 
1938.00, 
1939.00, 
1940.00, 
1941.00, 
1942.00, 
1943.00, 
1944.00, 
1945.00, 
1946.00, 
1947.00, 
1948.00, 
1949.00, 
1950.00, 
1951.00, 
1952.00, 
1953.00, 
1954.00, 
1955.00, 
1956.00, 
1957.00, 
1958.00, 
1959.00, 
1960.00, 
1961.00, 
1962.00, 
1963.00, 
1964.00, 
1965.00, 
1966.00, 
1967.00, 
1968.00, 
1969.00, 
1970.00, 
1971.00, 
1972.00, 
1973.00, 
1974.00, 
1975.00, 
1976.00, 
1977.00, 
1978.00, 
1979.00, 
1980.00, 
1981.00, 
1982.00, 
1983.00, 
1984.00, 
1985.00, 
1986.00, 
1987.00, 
1988.00, 
1989.00, 
1990.00, 
1991.00, 
1992.00, 
1993.00, 
1994.00, 
1995.00, 
1996.00, 
1997.00, 
1998.00, 
1999.00, 
2000.00, 
2001.00, 
2002.00, 
2003.00, 
2004.00, 
2005.00, 
2006.00, 
2007.00, 
2008.00, 
2009.00, 
2010.00, 
2011.00, 
2012.00, 
2013.00, 
2014.00, 
2015.00, 
2016.00, 
2017.00, 
2018.00, 
2019.00, 
2020.00, 
2021.00, 
2022.00, 
2023.00, 
2024.00, 
2025.00, 
2026.00, 
2027.00, 
2028.00, 
2029.00, 
2030.00, 
2031.00, 
2032.00, 
2033.00, 
2034.00, 
2035.00, 
2036.00, 
2037.00, 
2038.00, 
2039.00, 
2040.00, 
2041.00, 
2042.00, 
2043.00, 
2044.00, 
2045.00, 
2046.00, 
2047.00, 
2048.00, 
2049.00, 
2050.00, 
2051.00, 
2052.00, 
2053.00, 
2054.00, 
2055.00, 
2056.00, 
2057.00, 
2058.00, 
2059.00, 
2060.00, 
2061.00, 
2062.00, 
2063.00, 
2064.00, 
2065.00, 
2066.00, 
2067.00, 
2068.00, 
2069.00, 
2070.00, 
2071.00, 
2072.00, 
2073.00, 
2074.00, 
2075.00, 
2076.00, 
2077.00, 
2078.00, 
2079.00, 
2080.00, 
2081.00, 
2082.00, 
2083.00, 
2084.00, 
2085.00, 
2086.00, 
2087.00, 
2088.00, 
2089.00, 
2090.00, 
2091.00, 
2092.00, 
2093.00, 
2094.00, 
2095.00, 
2096.00, 
2097.00, 
2098.00, 
2099.00, 
2100.00, 
2101.00, 
2102.00, 
2103.00, 
2104.00, 
2105.00, 
2106.00, 
2107.00, 
2108.00, 
2109.00, 
2110.00, 
2111.00, 
2112.00, 
2113.00, 
2114.00, 
2115.00, 
2116.00, 
2117.00, 
2118.00, 
2119.00, 
2120.00, 
2121.00, 
2122.00, 
2123.00, 
2124.00, 
2125.00, 
2126.00, 
2127.00, 
2128.00, 
2129.00, 
2130.00, 
2131.00, 
2132.00, 
2133.00, 
2134.00, 
2135.00, 
2136.00, 
2137.00, 
2138.00, 
2139.00, 
2140.00, 
2141.00, 
2142.00, 
2143.00, 
2144.00, 
2145.00, 
2146.00, 
2147.00, 
2148.00, 
2149.00, 
2150.00, 
2151.00, 
2152.00, 
2153.00, 
2154.00, 
2155.00, 
2156.00, 
2157.00, 
2158.00, 
2159.00, 
2160.00, 
2161.00, 
2162.00, 
2163.00, 
2164.00, 
2165.00, 
2166.00, 
2167.00, 
2168.00, 
2169.00, 
2170.00, 
2171.00, 
2172.00, 
2173.00, 
2174.00, 
2175.00, 
2176.00, 
2177.00, 
2178.00, 
2179.00, 
2180.00, 
2181.00, 
2182.00, 
2183.00, 
2184.00, 
2185.00, 
2186.00, 
2187.00, 
2188.00, 
2189.00, 
2190.00, 
2191.00, 
2192.00, 
2193.00, 
2194.00, 
2195.00, 
2196.00, 
2197.00, 
2198.00, 
2199.00, 
2200.00, 
2201.00, 
2202.00, 
2203.00, 
2204.00, 
2205.00, 
2206.00, 
2207.00, 
2208.00, 
2209.00, 
2210.00, 
2211.00, 
2212.00, 
2213.00, 
2214.00, 
2215.00, 
2216.00, 
2217.00, 
2218.00, 
2219.00, 
2220.00, 
2221.00, 
2222.00, 
2223.00, 
2224.00, 
2225.00, 
2226.00, 
2227.00, 
2228.00, 
2229.00, 
2230.00, 
2231.00, 
2232.00, 
2233.00, 
2234.00, 
2235.00, 
2236.00, 
2237.00, 
2238.00, 
2239.00, 
2240.00, 
2241.00, 
2242.00, 
2243.00, 
2244.00, 
2245.00, 
2246.00, 
2247.00, 
2248.00, 
2249.00, 
2250.00, 
2251.00, 
2252.00, 
2253.00, 
2254.00, 
2255.00, 
2256.00, 
2257.00, 
2258.00, 
2259.00, 
2260.00, 
2261.00, 
2262.00, 
2263.00, 
2264.00, 
2265.00, 
2266.00, 
2267.00, 
2268.00, 
2269.00, 
2270.00, 
2271.00, 
2272.00, 
2273.00, 
2274.00, 
2275.00, 
2276.00, 
2277.00, 
2278.00, 
2279.00, 
2280.00, 
2281.00, 
2282.00, 
2283.00, 
2284.00, 
2285.00, 
2286.00, 
2287.00, 
2288.00, 
2289.00, 
2290.00, 
2291.00, 
2292.00, 
2293.00, 
2294.00, 
2295.00, 
2296.00, 
2297.00, 
2298.00, 
2299.00, 
2300.00, 
2301.00, 
2302.00, 
2303.00, 
2304.00, 
2305.00, 
2306.00, 
2307.00, 
2308.00, 
2309.00, 
2310.00, 
2311.00, 
2312.00, 
2313.00, 
2314.00, 
2315.00, 
2316.00, 
2317.00, 
2318.00, 
2319.00, 
2320.00, 
2321.00, 
2322.00, 
2323.00, 
2324.00, 
2325.00, 
2326.00, 
2327.00, 
2328.00, 
2329.00, 
2330.00, 
2331.00, 
2332.00, 
2333.00, 
2334.00, 
2335.00, 
2336.00, 
2337.00, 
2338.00, 
2339.00, 
2340.00, 
2341.00, 
2342.00, 
2343.00, 
2344.00, 
2345.00, 
2346.00, 
2347.00, 
2348.00, 
2349.00, 
2350.00, 
2351.00, 
2352.00, 
2353.00, 
2354.00, 
2355.00, 
2356.00, 
2357.00, 
2358.00, 
2359.00, 
2360.00, 
2361.00, 
2362.00, 
2363.00, 
2364.00, 
2365.00, 
2366.00, 
2367.00, 
2368.00, 
2369.00, 
2370.00, 
2371.00, 
2372.00, 
2373.00, 
2374.00, 
2375.00, 
2376.00, 
2377.00, 
2378.00, 
2379.00, 
2380.00, 
2381.00, 
2382.00, 
2383.00, 
2384.00, 
2385.00, 
2386.00, 
2387.00, 
2388.00, 
2389.00, 
2390.00, 
2391.00, 
2392.00, 
2393.00, 
2394.00, 
2395.00, 
2396.00, 
2397.00, 
2398.00, 
2399.00, 
2400.00, 
2401.00, 
2402.00, 
2403.00, 
2404.00, 
2405.00, 
2406.00, 
2407.00, 
2408.00, 
2409.00, 
2410.00, 
2411.00, 
2412.00, 
2413.00, 
2414.00, 
2415.00, 
2416.00, 
2417.00, 
2418.00, 
2419.00, 
2420.00, 
2421.00, 
2422.00, 
2423.00, 
2424.00, 
2425.00, 
2426.00, 
2427.00, 
2428.00, 
2429.00, 
2430.00, 
2431.00, 
2432.00, 
2433.00, 
2434.00, 
2435.00, 
2436.00, 
2437.00, 
2438.00, 
2439.00, 
2440.00, 
2441.00, 
2442.00, 
2443.00, 
2444.00, 
2445.00, 
2446.00, 
2447.00, 
2448.00, 
2449.00, 
2450.00, 
2451.00, 
2452.00, 
2453.00, 
2454.00, 
2455.00, 
2456.00, 
2457.00, 
2458.00, 
2459.00, 
2460.00, 
2461.00, 
2462.00, 
2463.00, 
2464.00, 
2465.00, 
2466.00, 
2467.00, 
2468.00, 
2469.00, 
2470.00, 
2471.00, 
2472.00, 
2473.00, 
2474.00, 
2475.00, 
2476.00, 
2477.00, 
2478.00, 
2479.00, 
2480.00, 
2481.00, 
2482.00, 
2483.00, 
2484.00, 
2485.00, 
2486.00, 
2487.00, 
2488.00, 
2489.00, 
2490.00, 
2491.00, 
2492.00, 
2493.00, 
2494.00, 
2495.00, 
2496.00, 
2497.00, 
2498.00, 
2499.00, 
2500.00, 
2501.00, 
2502.00, 
2503.00, 
2504.00, 
2505.00, 
2506.00, 
2507.00, 
2508.00, 
2509.00, 
2510.00, 
2511.00, 
2512.00, 
2513.00, 
2514.00, 
2515.00, 
2516.00, 
2517.00, 
2518.00, 
2519.00, 
2520.00, 
2521.00, 
2522.00, 
2523.00, 
2524.00, 
2525.00, 
2526.00, 
2527.00, 
2528.00, 
2529.00, 
2530.00, 
2531.00, 
2532.00, 
2533.00, 
2534.00, 
2535.00, 
2536.00, 
2537.00, 
2538.00, 
2539.00, 
2540.00, 
2541.00, 
2542.00, 
2543.00, 
2544.00, 
2545.00, 
2546.00, 
2547.00, 
2548.00, 
2549.00, 
2550.00, 
2551.00, 
2552.00, 
2553.00, 
2554.00, 
2555.00, 
2556.00, 
2557.00, 
2558.00, 
2559.00, 
2560.00, 
2561.00, 
2562.00, 
2563.00, 
2564.00, 
2565.00, 
2566.00, 
2567.00, 
2568.00, 
2569.00, 
2570.00, 
2571.00, 
2572.00, 
2573.00, 
2574.00, 
2575.00, 
2576.00, 
2577.00, 
2578.00, 
2579.00, 
2580.00, 
2581.00, 
2582.00, 
2583.00, 
2584.00, 
2585.00, 
2586.00, 
2587.00, 
2588.00, 
2589.00, 
2590.00, 
2591.00, 
2592.00, 
2593.00, 
2594.00, 
2595.00, 
2596.00, 
2597.00, 
2598.00, 
2599.00, 
2600.00, 
