"2bP2 - RawData"
"Wavelength nm.","T%"
200.00,0.002
201.00,0.000
202.00,0.001
203.00,0.001
204.00,0.002
205.00,0.001
206.00,0.002
207.00,0.001
208.00,0.002
209.00,0.004
210.00,0.003
211.00,0.001
212.00,-0.001
213.00,-0.001
214.00,0.000
215.00,0.000
216.00,0.000
217.00,-0.001
218.00,0.005
219.00,0.000
220.00,0.002
221.00,0.002
222.00,0.002
223.00,0.000
224.00,-0.000
225.00,0.001
226.00,-0.001
227.00,0.001
228.00,-0.002
229.00,0.002
230.00,-0.001
231.00,0.001
232.00,0.001
233.00,0.001
234.00,-0.001
235.00,0.001
236.00,-0.000
237.00,0.003
238.00,0.000
239.00,-0.000
240.00,-0.000
241.00,0.001
242.00,0.002
243.00,0.001
244.00,0.001
245.00,0.000
246.00,0.001
247.00,-0.002
248.00,-0.001
249.00,-0.000
250.00,0.000
251.00,-0.000
252.00,0.001
253.00,-0.001
254.00,-0.001
255.00,0.002
256.00,0.000
257.00,0.000
258.00,-0.001
259.00,-0.000
260.00,-0.001
261.00,-0.001
262.00,0.001
263.00,0.000
264.00,0.002
265.00,0.003
266.00,0.001
267.00,0.000
268.00,0.000
269.00,0.000
270.00,0.001
271.00,0.000
272.00,0.001
273.00,-0.000
274.00,0.000
275.00,-0.001
276.00,0.000
277.00,-0.000
278.00,0.000
279.00,-0.000
280.00,0.001
281.00,-0.001
282.00,-0.000
283.00,-0.001
284.00,-0.000
285.00,0.002
286.00,0.002
287.00,-0.000
288.00,0.001
289.00,0.002
290.00,0.001
291.00,0.000
292.00,0.000
293.00,0.001
294.00,-0.000
295.00,0.000
296.00,-0.000
297.00,0.001
298.00,0.001
299.00,0.001
300.00,0.005
301.00,0.004
302.00,0.005
303.00,0.009
304.00,0.013
305.00,0.022
306.00,0.035
307.00,0.050
308.00,0.074
309.00,0.114
310.00,0.156
311.00,0.212
312.00,0.283
313.00,0.386
314.00,0.500
315.00,0.647
316.00,0.824
317.00,1.044
318.00,1.280
319.00,1.544
320.00,1.853
321.00,2.225
322.00,2.624
323.00,3.062
324.00,3.555
325.00,4.037
326.00,4.527
327.00,5.088
328.00,5.683
329.00,6.241
330.00,6.872
331.00,7.482
332.00,8.108
333.00,8.765
334.00,9.397
335.00,10.040
336.00,10.668
337.00,11.293
338.00,11.932
339.00,12.513
340.00,13.094
341.00,13.631
342.00,14.180
343.00,14.622
344.00,15.154
345.00,15.699
346.00,16.085
347.00,16.499
348.00,16.908
349.00,17.257
350.00,17.611
351.00,17.931
352.00,18.207
353.00,18.456
354.00,18.761
355.00,19.007
356.00,19.250
357.00,19.440
358.00,19.650
359.00,19.872
360.00,20.022
361.00,20.115
362.00,20.299
363.00,20.437
364.00,20.512
365.00,20.628
366.00,20.681
367.00,20.753
368.00,20.788
369.00,20.831
370.00,20.876
371.00,20.865
372.00,20.880
373.00,20.868
374.00,20.879
375.00,20.844
376.00,20.809
377.00,20.727
378.00,20.679
379.00,20.559
380.00,20.574
381.00,20.566
382.00,20.572
383.00,20.525
384.00,20.569
385.00,20.602
386.00,20.606
387.00,20.604
388.00,20.662
389.00,20.653
390.00,20.658
391.00,20.702
392.00,20.696
393.00,20.675
394.00,20.699
395.00,20.721
396.00,20.713
397.00,20.718
398.00,20.714
399.00,20.712
400.00,20.703
401.00,20.700
402.00,20.696
403.00,20.675
404.00,20.749
405.00,20.669
406.00,20.635
407.00,20.611
408.00,20.588
409.00,20.531
410.00,20.491
411.00,20.491
412.00,20.447
413.00,20.446
414.00,20.462
415.00,20.459
416.00,20.487
417.00,20.485
418.00,20.512
419.00,20.586
420.00,20.635
421.00,20.653
422.00,20.667
423.00,20.718
424.00,20.753
425.00,20.766
426.00,20.760
427.00,20.856
428.00,20.901
429.00,20.933
430.00,20.969
431.00,21.038
432.00,21.084
433.00,21.095
434.00,21.191
435.00,21.240
436.00,21.320
437.00,21.384
438.00,21.443
439.00,21.514
440.00,21.599
441.00,21.681
442.00,21.729
443.00,21.817
444.00,21.913
445.00,21.994
446.00,22.095
447.00,22.196
448.00,22.291
449.00,22.401
450.00,22.527
451.00,22.594
452.00,22.687
453.00,22.815
454.00,22.915
455.00,23.027
456.00,23.153
457.00,23.270
458.00,23.345
459.00,23.480
460.00,23.635
461.00,23.798
462.00,23.842
463.00,23.978
464.00,24.148
465.00,24.250
466.00,24.379
467.00,24.511
468.00,24.560
469.00,24.702
470.00,24.878
471.00,24.846
472.00,25.084
473.00,25.183
474.00,25.315
475.00,25.450
476.00,25.568
477.00,25.684
478.00,25.798
479.00,25.961
480.00,26.060
481.00,26.228
482.00,26.433
483.00,26.503
484.00,26.672
485.00,26.850
486.00,27.030
487.00,27.174
488.00,27.285
489.00,27.464
490.00,27.626
491.00,27.724
492.00,28.002
493.00,28.104
494.00,28.135
495.00,28.301
496.00,28.436
497.00,28.533
498.00,28.692
499.00,28.838
500.00,28.972
501.00,29.093
502.00,29.243
503.00,29.366
504.00,29.433
505.00,29.577
506.00,29.729
507.00,29.842
508.00,29.945
509.00,30.124
510.00,30.202
511.00,30.295
512.00,30.475
513.00,30.654
514.00,30.751
515.00,30.896
516.00,30.980
517.00,31.121
518.00,31.208
519.00,31.310
520.00,31.357
521.00,31.450
522.00,31.496
523.00,31.573
524.00,31.713
525.00,31.851
526.00,31.939
527.00,32.021
528.00,32.130
529.00,32.315
530.00,32.413
531.00,32.557
532.00,32.611
533.00,32.735
534.00,32.813
535.00,32.866
536.00,32.953
537.00,33.058
538.00,33.130
539.00,33.174
540.00,33.268
541.00,33.317
542.00,33.396
543.00,33.472
544.00,33.598
545.00,33.645
546.00,33.669
547.00,33.808
548.00,33.880
549.00,33.939
550.00,34.032
551.00,34.162
552.00,34.223
553.00,34.251
554.00,34.310
555.00,34.335
556.00,34.412
557.00,34.477
558.00,34.484
559.00,34.605
560.00,34.663
561.00,34.737
562.00,34.826
563.00,34.838
564.00,34.910
565.00,34.920
566.00,34.954
567.00,35.012
568.00,35.030
569.00,35.120
570.00,35.139
571.00,35.184
572.00,35.237
573.00,35.233
574.00,35.274
575.00,35.271
576.00,35.314
577.00,35.384
578.00,35.460
579.00,35.525
580.00,35.507
581.00,35.714
582.00,35.815
583.00,35.724
584.00,35.815
585.00,35.990
586.00,36.056
587.00,36.102
588.00,36.131
589.00,36.087
590.00,36.212
591.00,36.262
592.00,36.227
593.00,36.260
594.00,36.400
595.00,36.474
596.00,36.532
597.00,36.557
598.00,36.682
599.00,36.610
600.00,36.645
601.00,36.708
602.00,36.787
603.00,36.776
604.00,36.841
605.00,36.897
606.00,36.895
607.00,36.951
608.00,37.117
609.00,37.211
610.00,36.994
611.00,37.041
612.00,37.203
613.00,37.314
614.00,37.338
615.00,37.379
616.00,37.523
617.00,37.512
618.00,37.514
619.00,37.631
620.00,37.654
621.00,37.719
622.00,37.796
623.00,37.876
624.00,37.943
625.00,37.973
626.00,38.032
627.00,38.170
628.00,38.149
629.00,38.234
630.00,38.279
631.00,38.324
632.00,38.448
633.00,38.551
634.00,38.615
635.00,38.719
636.00,38.821
637.00,38.814
638.00,38.911
639.00,39.056
640.00,39.046
641.00,39.091
642.00,39.186
643.00,39.285
644.00,39.351
645.00,39.424
646.00,39.601
647.00,39.660
648.00,39.701
649.00,39.743
650.00,39.840
651.00,39.998
652.00,40.087
653.00,40.179
654.00,40.135
655.00,40.415
656.00,40.644
657.00,40.448
658.00,40.583
659.00,40.739
660.00,40.811
661.00,40.857
662.00,40.912
663.00,41.040
664.00,41.273
665.00,41.525
666.00,41.618
667.00,41.497
668.00,41.520
669.00,41.761
670.00,42.017
671.00,41.923
672.00,42.020
673.00,42.055
674.00,42.179
675.00,42.345
676.00,42.552
677.00,42.697
678.00,42.526
679.00,42.755
680.00,42.760
681.00,42.934
682.00,42.999
683.00,43.059
684.00,43.315
685.00,43.298
686.00,43.213
687.00,43.223
688.00,43.535
689.00,43.668
690.00,43.898
691.00,44.165
692.00,43.852
693.00,43.996
694.00,44.105
695.00,44.197
696.00,44.381
697.00,44.272
698.00,44.296
699.00,44.879
700.00,45.181
701.00,44.827
702.00,45.023
703.00,45.175
704.00,45.152
705.00,45.158
706.00,45.180
707.00,45.297
708.00,45.260
709.00,45.692
710.00,46.099
711.00,45.580
712.00,45.764
713.00,45.929
714.00,46.019
715.00,45.956
716.00,46.001
717.00,46.283
718.00,46.327
719.00,46.284
720.00,46.416
721.00,50.782
722.00,50.812
723.00,50.963
724.00,50.882
725.00,50.981
726.00,51.001
727.00,51.061
728.00,51.118
729.00,51.139
730.00,51.155
731.00,51.146
732.00,51.200
733.00,51.261
734.00,51.347
735.00,51.407
736.00,51.348
737.00,51.483
738.00,51.532
739.00,51.589
740.00,51.606
741.00,51.708
742.00,51.724
743.00,51.760
744.00,51.736
745.00,51.658
746.00,51.811
747.00,51.832
748.00,51.804
749.00,51.843
750.00,51.758
751.00,51.718
752.00,51.824
753.00,51.851
754.00,51.919
755.00,51.898
756.00,51.979
757.00,51.936
758.00,52.001
759.00,52.031
760.00,52.019
761.00,52.115
762.00,51.983
763.00,52.118
764.00,52.134
765.00,52.124
766.00,52.186
767.00,52.210
768.00,52.127
769.00,52.170
770.00,52.195
771.00,52.204
772.00,52.232
773.00,52.200
774.00,52.206
775.00,52.315
776.00,52.284
777.00,52.351
778.00,52.349
779.00,52.455
780.00,52.343
781.00,52.408
782.00,52.448
783.00,52.350
784.00,52.435
785.00,52.316
786.00,52.387
787.00,52.405
788.00,52.380
789.00,52.414
790.00,52.365
791.00,52.409
792.00,52.445
793.00,52.376
794.00,52.360
795.00,52.303
796.00,52.405
797.00,52.319
798.00,52.368
799.00,52.355
800.00,52.301
801.00,52.397
802.00,52.256
803.00,52.310
804.00,52.258
805.00,52.313
806.00,52.266
807.00,52.229
808.00,52.375
809.00,52.253
810.00,52.325
811.00,52.326
812.00,52.307
813.00,52.254
814.00,52.247
815.00,52.158
816.00,52.233
817.00,52.199
818.00,52.075
819.00,52.218
820.00,52.131
821.00,52.162
822.00,52.142
823.00,52.108
824.00,52.145
825.00,52.089
826.00,52.070
827.00,52.113
828.00,52.074
829.00,52.104
830.00,52.098
831.00,54.480
832.00,54.502
833.00,54.431
834.00,54.476
835.00,54.424
836.00,54.477
837.00,54.439
838.00,54.415
839.00,54.445
840.00,54.338
841.00,54.367
842.00,54.361
843.00,54.338
844.00,54.316
845.00,54.249
846.00,54.321
847.00,54.260
848.00,54.251
849.00,54.205
850.00,54.177
851.00,54.134
852.00,54.114
853.00,54.122
854.00,54.056
855.00,54.042
856.00,54.029
857.00,54.008
858.00,54.007
859.00,53.982
860.00,53.960
861.00,53.968
862.00,53.914
863.00,53.927
864.00,53.893
865.00,53.900
866.00,53.901
867.00,53.894
868.00,53.866
869.00,53.867
870.00,53.840
871.00,53.856
872.00,53.844
873.00,53.816
874.00,53.818
875.00,53.793
876.00,53.836
877.00,53.795
878.00,53.811
879.00,53.765
880.00,53.771
881.00,53.752
882.00,53.741
883.00,53.732
884.00,53.692
885.00,53.680
886.00,53.663
887.00,53.657
888.00,53.614
889.00,53.618
890.00,53.610
891.00,53.589
892.00,53.573
893.00,53.526
894.00,53.541
895.00,53.515
896.00,53.474
897.00,53.472
898.00,53.442
899.00,53.446
900.00,53.440
901.00,53.445
902.00,53.451
903.00,53.418
904.00,53.402
905.00,53.409
906.00,53.409
907.00,53.373
908.00,53.330
909.00,53.318
910.00,53.266
911.00,53.282
912.00,53.246
913.00,53.208
914.00,53.181
915.00,53.174
916.00,53.172
917.00,53.149
918.00,53.150
919.00,53.090
920.00,53.086
921.00,53.121
922.00,53.061
923.00,52.973
924.00,53.071
925.00,52.981
926.00,53.013
927.00,52.980
928.00,52.966
929.00,52.969
930.00,52.930
931.00,52.945
932.00,52.879
933.00,52.890
934.00,52.850
935.00,52.841
936.00,52.819
937.00,52.803
938.00,52.718
939.00,52.778
940.00,52.757
941.00,52.755
942.00,52.733
943.00,52.742
944.00,52.674
945.00,52.680
946.00,52.674
947.00,52.618
948.00,52.621
949.00,52.609
950.00,52.588
951.00,52.557
952.00,52.521
953.00,52.494
954.00,52.485
955.00,52.434
956.00,52.431
957.00,52.383
958.00,52.402
959.00,52.360
960.00,52.349
961.00,52.350
962.00,52.337
963.00,52.265
964.00,52.315
965.00,52.302
966.00,52.273
967.00,52.263
968.00,52.239
969.00,52.269
970.00,52.253
971.00,52.263
972.00,52.233
973.00,52.272
974.00,52.282
975.00,52.251
976.00,52.277
977.00,52.252
978.00,52.297
979.00,52.247
980.00,52.264
981.00,52.259
982.00,52.226
983.00,52.241
984.00,52.212
985.00,52.304
986.00,52.201
987.00,52.238
988.00,52.188
989.00,52.184
990.00,52.179
991.00,52.157
992.00,52.182
993.00,52.139
994.00,52.114
995.00,52.118
996.00,52.105
997.00,52.099
998.00,52.088
999.00,52.097
1000.00,52.056
1001.00,52.055
1002.00,52.024
1003.00,52.023
1004.00,51.999
1005.00,51.968
1006.00,52.012
1007.00,51.971
1008.00,51.962
1009.00,51.936
1010.00,51.929
1011.00,51.919
1012.00,51.894
1013.00,51.896
1014.00,51.871
1015.00,51.888
1016.00,51.836
1017.00,51.849
1018.00,51.814
1019.00,51.789
1020.00,51.786
1021.00,51.754
1022.00,51.776
1023.00,51.712
1024.00,51.710
1025.00,51.746
1026.00,51.694
1027.00,51.675
1028.00,51.675
1029.00,51.659
1030.00,51.632
1031.00,51.650
1032.00,51.585
1033.00,51.602
1034.00,51.573
1035.00,51.532
1036.00,51.527
1037.00,51.512
1038.00,51.496
1039.00,51.467
1040.00,51.449
1041.00,51.433
1042.00,51.423
1043.00,51.399
1044.00,51.422
1045.00,51.411
1046.00,51.392
1047.00,51.409
1048.00,51.407
1049.00,51.412
1050.00,51.420
1051.00,51.455
1052.00,51.451
1053.00,51.457
1054.00,51.451
1055.00,51.478
1056.00,51.484
1057.00,51.474
1058.00,51.476
1059.00,51.477
1060.00,51.501
1061.00,51.509
1062.00,51.464
1063.00,51.477
1064.00,51.473
1065.00,51.452
1066.00,51.441
1067.00,51.435
1068.00,51.443
1069.00,51.412
1070.00,51.396
1071.00,51.376
1072.00,51.407
1073.00,51.371
1074.00,51.375
1075.00,51.359
1076.00,51.355
1077.00,51.342
1078.00,51.315
1079.00,51.301
1080.00,51.317
1081.00,51.298
1082.00,51.286
1083.00,51.291
1084.00,51.279
1085.00,51.294
1086.00,51.281
1087.00,51.265
1088.00,51.254
1089.00,51.253
1090.00,51.232
1091.00,51.239
1092.00,51.234
1093.00,51.205
1094.00,51.196
1095.00,51.208
1096.00,51.158
1097.00,51.167
1098.00,51.151
1099.00,51.157
1100.00,51.146
1101.00,51.124
1102.00,51.134
1103.00,51.128
1104.00,51.120
1105.00,51.148
1106.00,51.077
1107.00,51.071
1108.00,51.077
1109.00,51.060
1110.00,51.077
1111.00,51.050
1112.00,51.031
1113.00,51.031
1114.00,51.023
1115.00,51.024
1116.00,51.025
1117.00,51.006
1118.00,50.993
1119.00,50.994
1120.00,50.964
1121.00,50.984
1122.00,50.972
1123.00,50.941
1124.00,50.957
1125.00,50.963
1126.00,50.937
1127.00,50.929
1128.00,50.910
1129.00,50.909
1130.00,50.898
1131.00,50.891
1132.00,50.895
1133.00,50.901
1134.00,50.878
1135.00,50.891
1136.00,50.868
1137.00,50.862
1138.00,50.866
1139.00,50.856
1140.00,50.862
1141.00,50.890
1142.00,50.836
1143.00,50.854
1144.00,50.824
1145.00,50.823
1146.00,50.826
1147.00,50.809
1148.00,50.801
1149.00,50.820
1150.00,50.810
1151.00,50.816
1152.00,50.813
1153.00,50.800
1154.00,50.791
1155.00,50.796
1156.00,50.770
1157.00,50.793
1158.00,50.776
1159.00,50.763
1160.00,50.766
1161.00,50.770
1162.00,50.771
1163.00,50.765
1164.00,50.756
1165.00,50.767
1166.00,50.772
1167.00,50.751
1168.00,50.774
1169.00,50.747
1170.00,50.740
1171.00,50.719
1172.00,50.728
1173.00,50.739
1174.00,50.740
1175.00,50.728
1176.00,50.740
1177.00,50.735
1178.00,50.721
1179.00,50.739
1180.00,50.721
1181.00,50.734
1182.00,50.727
1183.00,50.714
1184.00,50.715
1185.00,50.728
1186.00,50.713
1187.00,50.725
1188.00,50.718
1189.00,50.706
1190.00,50.708
1191.00,50.698
1192.00,50.708
1193.00,50.704
1194.00,50.702
1195.00,50.691
1196.00,50.724
1197.00,50.711
1198.00,50.709
1199.00,50.693
1200.00,50.701
1201.00,50.733
1202.00,50.687
1203.00,50.682
1204.00,50.683
1205.00,50.695
1206.00,50.679
1207.00,50.691
1208.00,50.673
1209.00,50.691
1210.00,50.696
1211.00,50.680
1212.00,50.706
1213.00,50.659
1214.00,50.680
1215.00,50.680
1216.00,50.669
1217.00,50.685
1218.00,50.658
1219.00,50.671
1220.00,50.666
1221.00,50.673
1222.00,50.659
1223.00,50.696
1224.00,50.679
1225.00,50.664
1226.00,50.671
1227.00,50.657
1228.00,50.674
1229.00,50.679
1230.00,50.682
1231.00,50.689
1232.00,50.715
1233.00,50.692
1234.00,50.702
1235.00,50.697
1236.00,50.699
1237.00,50.707
1238.00,50.695
1239.00,50.707
1240.00,50.702
1241.00,50.699
1242.00,50.723
1243.00,50.732
1244.00,50.706
1245.00,50.749
1246.00,50.746
1247.00,50.718
1248.00,50.719
1249.00,50.722
1250.00,50.732
1251.00,50.723
1252.00,50.721
1253.00,50.715
1254.00,50.754
1255.00,50.731
1256.00,50.711
1257.00,50.714
1258.00,50.742
1259.00,50.745
1260.00,50.754
1261.00,50.763
1262.00,50.783
1263.00,50.767
1264.00,50.764
1265.00,50.764
1266.00,50.763
1267.00,50.783
1268.00,50.776
1269.00,50.774
1270.00,50.802
1271.00,50.801
1272.00,50.802
1273.00,50.830
1274.00,50.817
1275.00,50.830
1276.00,50.819
1277.00,50.815
1278.00,50.834
1279.00,50.821
1280.00,50.814
1281.00,50.837
1282.00,50.837
1283.00,50.833
1284.00,50.843
1285.00,50.819
1286.00,50.856
1287.00,50.854
1288.00,50.839
1289.00,50.831
1290.00,50.861
1291.00,50.882
1292.00,50.886
1293.00,50.888
1294.00,50.912
1295.00,50.894
1296.00,50.887
1297.00,50.910
1298.00,50.945
1299.00,50.894
1300.00,50.911
1301.00,50.904
1302.00,50.916
1303.00,50.930
1304.00,50.905
1305.00,50.941
1306.00,50.955
1307.00,50.939
1308.00,50.950
1309.00,50.956
1310.00,50.941
1311.00,50.935
1312.00,50.951
1313.00,50.967
1314.00,50.986
1315.00,50.993
1316.00,50.990
1317.00,51.022
1318.00,51.002
1319.00,51.005
1320.00,51.018
1321.00,51.171
1322.00,51.174
1323.00,51.151
1324.00,51.141
1325.00,51.145
1326.00,51.156
1327.00,51.150
1328.00,51.161
1329.00,51.137
1330.00,51.145
1331.00,51.140
1332.00,51.135
1333.00,51.151
1334.00,51.176
1335.00,51.186
1336.00,51.218
1337.00,51.234
1338.00,51.307
1339.00,51.355
1340.00,51.394
1341.00,51.473
1342.00,51.535
1343.00,51.568
1344.00,51.629
1345.00,51.674
1346.00,51.697
1347.00,51.751
1348.00,51.765
1349.00,51.785
1350.00,51.785
1351.00,51.805
1352.00,51.816
1353.00,51.864
1354.00,51.867
1355.00,51.787
1356.00,51.885
1357.00,51.840
1358.00,51.835
1359.00,51.823
1360.00,51.815
1361.00,51.965
1362.00,51.764
1363.00,51.926
1364.00,52.040
1365.00,51.834
1366.00,51.865
1367.00,51.853
1368.00,51.723
1369.00,51.859
1370.00,51.826
1371.00,51.668
1372.00,51.802
1373.00,51.855
1374.00,51.834
1375.00,51.808
1376.00,51.794
1377.00,51.813
1378.00,51.776
1379.00,51.795
1380.00,51.832
1381.00,51.861
1382.00,51.822
1383.00,51.820
1384.00,51.790
1385.00,51.827
1386.00,51.895
1387.00,51.782
1388.00,51.825
1389.00,51.762
1390.00,51.819
1391.00,51.933
1392.00,51.726
1393.00,51.617
1394.00,51.765
1395.00,51.842
1396.00,51.845
1397.00,51.666
1398.00,51.777
1399.00,51.822
1400.00,51.834
1401.00,51.717
1402.00,51.800
1403.00,51.844
1404.00,51.734
1405.00,51.837
1406.00,51.851
1407.00,51.845
1408.00,51.875
1409.00,51.632
1410.00,51.889
1411.00,51.856
1412.00,51.881
1413.00,51.859
1414.00,51.885
1415.00,51.897
1416.00,51.915
1417.00,51.926
1418.00,51.914
1419.00,51.933
1420.00,51.937
1421.00,51.965
1422.00,51.963
1423.00,51.993
1424.00,51.999
1425.00,52.018
1426.00,52.004
1427.00,52.041
1428.00,52.022
1429.00,52.049
1430.00,52.061
1431.00,52.066
1432.00,52.089
1433.00,52.104
1434.00,52.095
1435.00,52.151
1436.00,52.132
1437.00,52.140
1438.00,52.165
1439.00,52.175
1440.00,52.197
1441.00,52.215
1442.00,52.224
1443.00,52.247
1444.00,52.270
1445.00,52.268
1446.00,52.298
1447.00,52.321
1448.00,52.374
1449.00,52.358
1450.00,52.359
1451.00,52.370
1452.00,52.386
1453.00,52.387
1454.00,52.411
1455.00,52.425
1456.00,52.435
1457.00,52.456
1458.00,52.459
1459.00,52.481
1460.00,52.516
1461.00,52.502
1462.00,52.551
1463.00,52.527
1464.00,52.534
1465.00,52.561
1466.00,52.554
1467.00,52.582
1468.00,52.651
1469.00,52.608
1470.00,52.627
1471.00,52.661
1472.00,52.639
1473.00,52.652
1474.00,52.690
1475.00,52.698
1476.00,52.721
1477.00,52.684
1478.00,52.697
1479.00,52.736
1480.00,52.718
1481.00,52.737
1482.00,52.776
1483.00,52.771
1484.00,52.796
1485.00,52.784
1486.00,52.799
1487.00,52.821
1488.00,52.837
1489.00,52.818
1490.00,52.840
1491.00,52.856
1492.00,52.872
1493.00,52.878
1494.00,52.934
1495.00,52.910
1496.00,52.916
1497.00,52.897
1498.00,52.940
1499.00,52.943
1500.00,52.949
1501.00, 
1502.00, 
1503.00, 
1504.00, 
1505.00, 
1506.00, 
1507.00, 
1508.00, 
1509.00, 
1510.00, 
1511.00, 
1512.00, 
1513.00, 
1514.00, 
1515.00, 
1516.00, 
1517.00, 
1518.00, 
1519.00, 
1520.00, 
1521.00, 
1522.00, 
1523.00, 
1524.00, 
1525.00, 
1526.00, 
1527.00, 
1528.00, 
1529.00, 
1530.00, 
1531.00, 
1532.00, 
1533.00, 
1534.00, 
1535.00, 
1536.00, 
1537.00, 
1538.00, 
1539.00, 
1540.00, 
1541.00, 
1542.00, 
1543.00, 
1544.00, 
1545.00, 
1546.00, 
1547.00, 
1548.00, 
1549.00, 
1550.00, 
1551.00, 
1552.00, 
1553.00, 
1554.00, 
1555.00, 
1556.00, 
1557.00, 
1558.00, 
1559.00, 
1560.00, 
1561.00, 
1562.00, 
1563.00, 
1564.00, 
1565.00, 
1566.00, 
1567.00, 
1568.00, 
1569.00, 
1570.00, 
1571.00, 
1572.00, 
1573.00, 
1574.00, 
1575.00, 
1576.00, 
1577.00, 
1578.00, 
1579.00, 
1580.00, 
1581.00, 
1582.00, 
1583.00, 
1584.00, 
1585.00, 
1586.00, 
1587.00, 
1588.00, 
1589.00, 
1590.00, 
1591.00, 
1592.00, 
1593.00, 
1594.00, 
1595.00, 
1596.00, 
1597.00, 
1598.00, 
1599.00, 
1600.00, 
1601.00, 
1602.00, 
1603.00, 
1604.00, 
1605.00, 
1606.00, 
1607.00, 
1608.00, 
1609.00, 
1610.00, 
1611.00, 
1612.00, 
1613.00, 
1614.00, 
1615.00, 
1616.00, 
1617.00, 
1618.00, 
1619.00, 
1620.00, 
1621.00, 
1622.00, 
1623.00, 
1624.00, 
1625.00, 
1626.00, 
1627.00, 
1628.00, 
1629.00, 
1630.00, 
1631.00, 
1632.00, 
1633.00, 
1634.00, 
1635.00, 
1636.00, 
1637.00, 
1638.00, 
1639.00, 
1640.00, 
1641.00, 
1642.00, 
1643.00, 
1644.00, 
1645.00, 
1646.00, 
1647.00, 
1648.00, 
1649.00, 
1650.00, 
1651.00, 
1652.00, 
1653.00, 
1654.00, 
1655.00, 
1656.00, 
1657.00, 
1658.00, 
1659.00, 
1660.00, 
1661.00, 
1662.00, 
1663.00, 
1664.00, 
1665.00, 
1666.00, 
1667.00, 
1668.00, 
1669.00, 
1670.00, 
1671.00, 
1672.00, 
1673.00, 
1674.00, 
1675.00, 
1676.00, 
1677.00, 
1678.00, 
1679.00, 
1680.00, 
1681.00, 
1682.00, 
1683.00, 
1684.00, 
1685.00, 
1686.00, 
1687.00, 
1688.00, 
1689.00, 
1690.00, 
1691.00, 
1692.00, 
1693.00, 
1694.00, 
1695.00, 
1696.00, 
1697.00, 
1698.00, 
1699.00, 
1700.00, 
1701.00, 
1702.00, 
1703.00, 
1704.00, 
1705.00, 
1706.00, 
1707.00, 
1708.00, 
1709.00, 
1710.00, 
1711.00, 
1712.00, 
1713.00, 
1714.00, 
1715.00, 
1716.00, 
1717.00, 
1718.00, 
1719.00, 
1720.00, 
1721.00, 
1722.00, 
1723.00, 
1724.00, 
1725.00, 
1726.00, 
1727.00, 
1728.00, 
1729.00, 
1730.00, 
1731.00, 
1732.00, 
1733.00, 
1734.00, 
1735.00, 
1736.00, 
1737.00, 
1738.00, 
1739.00, 
1740.00, 
1741.00, 
1742.00, 
1743.00, 
1744.00, 
1745.00, 
1746.00, 
1747.00, 
1748.00, 
1749.00, 
1750.00, 
1751.00, 
1752.00, 
1753.00, 
1754.00, 
1755.00, 
1756.00, 
1757.00, 
1758.00, 
1759.00, 
1760.00, 
1761.00, 
1762.00, 
1763.00, 
1764.00, 
1765.00, 
1766.00, 
1767.00, 
1768.00, 
1769.00, 
1770.00, 
1771.00, 
1772.00, 
1773.00, 
1774.00, 
1775.00, 
1776.00, 
1777.00, 
1778.00, 
1779.00, 
1780.00, 
1781.00, 
1782.00, 
1783.00, 
1784.00, 
1785.00, 
1786.00, 
1787.00, 
1788.00, 
1789.00, 
1790.00, 
1791.00, 
1792.00, 
1793.00, 
1794.00, 
1795.00, 
1796.00, 
1797.00, 
1798.00, 
1799.00, 
1800.00, 
1801.00, 
1802.00, 
1803.00, 
1804.00, 
1805.00, 
1806.00, 
1807.00, 
1808.00, 
1809.00, 
1810.00, 
1811.00, 
1812.00, 
1813.00, 
1814.00, 
1815.00, 
1816.00, 
1817.00, 
1818.00, 
1819.00, 
1820.00, 
1821.00, 
1822.00, 
1823.00, 
1824.00, 
1825.00, 
1826.00, 
1827.00, 
1828.00, 
1829.00, 
1830.00, 
1831.00, 
1832.00, 
1833.00, 
1834.00, 
1835.00, 
1836.00, 
1837.00, 
1838.00, 
1839.00, 
1840.00, 
1841.00, 
1842.00, 
1843.00, 
1844.00, 
1845.00, 
1846.00, 
1847.00, 
1848.00, 
1849.00, 
1850.00, 
1851.00, 
1852.00, 
1853.00, 
1854.00, 
1855.00, 
1856.00, 
1857.00, 
1858.00, 
1859.00, 
1860.00, 
1861.00, 
1862.00, 
1863.00, 
1864.00, 
1865.00, 
1866.00, 
1867.00, 
1868.00, 
1869.00, 
1870.00, 
1871.00, 
1872.00, 
1873.00, 
1874.00, 
1875.00, 
1876.00, 
1877.00, 
1878.00, 
1879.00, 
1880.00, 
1881.00, 
1882.00, 
1883.00, 
1884.00, 
1885.00, 
1886.00, 
1887.00, 
1888.00, 
1889.00, 
1890.00, 
1891.00, 
1892.00, 
1893.00, 
1894.00, 
1895.00, 
1896.00, 
1897.00, 
1898.00, 
1899.00, 
1900.00, 
1901.00, 
1902.00, 
1903.00, 
1904.00, 
1905.00, 
1906.00, 
1907.00, 
1908.00, 
1909.00, 
1910.00, 
1911.00, 
1912.00, 
1913.00, 
1914.00, 
1915.00, 
1916.00, 
1917.00, 
1918.00, 
1919.00, 
1920.00, 
1921.00, 
1922.00, 
1923.00, 
1924.00, 
1925.00, 
1926.00, 
1927.00, 
1928.00, 
1929.00, 
1930.00, 
1931.00, 
1932.00, 
1933.00, 
1934.00, 
1935.00, 
1936.00, 
1937.00, 
1938.00, 
1939.00, 
1940.00, 
1941.00, 
1942.00, 
1943.00, 
1944.00, 
1945.00, 
1946.00, 
1947.00, 
1948.00, 
1949.00, 
1950.00, 
1951.00, 
1952.00, 
1953.00, 
1954.00, 
1955.00, 
1956.00, 
1957.00, 
1958.00, 
1959.00, 
1960.00, 
1961.00, 
1962.00, 
1963.00, 
1964.00, 
1965.00, 
1966.00, 
1967.00, 
1968.00, 
1969.00, 
1970.00, 
1971.00, 
1972.00, 
1973.00, 
1974.00, 
1975.00, 
1976.00, 
1977.00, 
1978.00, 
1979.00, 
1980.00, 
1981.00, 
1982.00, 
1983.00, 
1984.00, 
1985.00, 
1986.00, 
1987.00, 
1988.00, 
1989.00, 
1990.00, 
1991.00, 
1992.00, 
1993.00, 
1994.00, 
1995.00, 
1996.00, 
1997.00, 
1998.00, 
1999.00, 
2000.00, 
2001.00, 
2002.00, 
2003.00, 
2004.00, 
2005.00, 
2006.00, 
2007.00, 
2008.00, 
2009.00, 
2010.00, 
2011.00, 
2012.00, 
2013.00, 
2014.00, 
2015.00, 
2016.00, 
2017.00, 
2018.00, 
2019.00, 
2020.00, 
2021.00, 
2022.00, 
2023.00, 
2024.00, 
2025.00, 
2026.00, 
2027.00, 
2028.00, 
2029.00, 
2030.00, 
2031.00, 
2032.00, 
2033.00, 
2034.00, 
2035.00, 
2036.00, 
2037.00, 
2038.00, 
2039.00, 
2040.00, 
2041.00, 
2042.00, 
2043.00, 
2044.00, 
2045.00, 
2046.00, 
2047.00, 
2048.00, 
2049.00, 
2050.00, 
2051.00, 
2052.00, 
2053.00, 
2054.00, 
2055.00, 
2056.00, 
2057.00, 
2058.00, 
2059.00, 
2060.00, 
2061.00, 
2062.00, 
2063.00, 
2064.00, 
2065.00, 
2066.00, 
2067.00, 
2068.00, 
2069.00, 
2070.00, 
2071.00, 
2072.00, 
2073.00, 
2074.00, 
2075.00, 
2076.00, 
2077.00, 
2078.00, 
2079.00, 
2080.00, 
2081.00, 
2082.00, 
2083.00, 
2084.00, 
2085.00, 
2086.00, 
2087.00, 
2088.00, 
2089.00, 
2090.00, 
2091.00, 
2092.00, 
2093.00, 
2094.00, 
2095.00, 
2096.00, 
2097.00, 
2098.00, 
2099.00, 
2100.00, 
2101.00, 
2102.00, 
2103.00, 
2104.00, 
2105.00, 
2106.00, 
2107.00, 
2108.00, 
2109.00, 
2110.00, 
2111.00, 
2112.00, 
2113.00, 
2114.00, 
2115.00, 
2116.00, 
2117.00, 
2118.00, 
2119.00, 
2120.00, 
2121.00, 
2122.00, 
2123.00, 
2124.00, 
2125.00, 
2126.00, 
2127.00, 
2128.00, 
2129.00, 
2130.00, 
2131.00, 
2132.00, 
2133.00, 
2134.00, 
2135.00, 
2136.00, 
2137.00, 
2138.00, 
2139.00, 
2140.00, 
2141.00, 
2142.00, 
2143.00, 
2144.00, 
2145.00, 
2146.00, 
2147.00, 
2148.00, 
2149.00, 
2150.00, 
2151.00, 
2152.00, 
2153.00, 
2154.00, 
2155.00, 
2156.00, 
2157.00, 
2158.00, 
2159.00, 
2160.00, 
2161.00, 
2162.00, 
2163.00, 
2164.00, 
2165.00, 
2166.00, 
2167.00, 
2168.00, 
2169.00, 
2170.00, 
2171.00, 
2172.00, 
2173.00, 
2174.00, 
2175.00, 
2176.00, 
2177.00, 
2178.00, 
2179.00, 
2180.00, 
2181.00, 
2182.00, 
2183.00, 
2184.00, 
2185.00, 
2186.00, 
2187.00, 
2188.00, 
2189.00, 
2190.00, 
2191.00, 
2192.00, 
2193.00, 
2194.00, 
2195.00, 
2196.00, 
2197.00, 
2198.00, 
2199.00, 
2200.00, 
2201.00, 
2202.00, 
2203.00, 
2204.00, 
2205.00, 
2206.00, 
2207.00, 
2208.00, 
2209.00, 
2210.00, 
2211.00, 
2212.00, 
2213.00, 
2214.00, 
2215.00, 
2216.00, 
2217.00, 
2218.00, 
2219.00, 
2220.00, 
2221.00, 
2222.00, 
2223.00, 
2224.00, 
2225.00, 
2226.00, 
2227.00, 
2228.00, 
2229.00, 
2230.00, 
2231.00, 
2232.00, 
2233.00, 
2234.00, 
2235.00, 
2236.00, 
2237.00, 
2238.00, 
2239.00, 
2240.00, 
2241.00, 
2242.00, 
2243.00, 
2244.00, 
2245.00, 
2246.00, 
2247.00, 
2248.00, 
2249.00, 
2250.00, 
2251.00, 
2252.00, 
2253.00, 
2254.00, 
2255.00, 
2256.00, 
2257.00, 
2258.00, 
2259.00, 
2260.00, 
2261.00, 
2262.00, 
2263.00, 
2264.00, 
2265.00, 
2266.00, 
2267.00, 
2268.00, 
2269.00, 
2270.00, 
2271.00, 
2272.00, 
2273.00, 
2274.00, 
2275.00, 
2276.00, 
2277.00, 
2278.00, 
2279.00, 
2280.00, 
2281.00, 
2282.00, 
2283.00, 
2284.00, 
2285.00, 
2286.00, 
2287.00, 
2288.00, 
2289.00, 
2290.00, 
2291.00, 
2292.00, 
2293.00, 
2294.00, 
2295.00, 
2296.00, 
2297.00, 
2298.00, 
2299.00, 
2300.00, 
2301.00, 
2302.00, 
2303.00, 
2304.00, 
2305.00, 
2306.00, 
2307.00, 
2308.00, 
2309.00, 
2310.00, 
2311.00, 
2312.00, 
2313.00, 
2314.00, 
2315.00, 
2316.00, 
2317.00, 
2318.00, 
2319.00, 
2320.00, 
2321.00, 
2322.00, 
2323.00, 
2324.00, 
2325.00, 
2326.00, 
2327.00, 
2328.00, 
2329.00, 
2330.00, 
2331.00, 
2332.00, 
2333.00, 
2334.00, 
2335.00, 
2336.00, 
2337.00, 
2338.00, 
2339.00, 
2340.00, 
2341.00, 
2342.00, 
2343.00, 
2344.00, 
2345.00, 
2346.00, 
2347.00, 
2348.00, 
2349.00, 
2350.00, 
2351.00, 
2352.00, 
2353.00, 
2354.00, 
2355.00, 
2356.00, 
2357.00, 
2358.00, 
2359.00, 
2360.00, 
2361.00, 
2362.00, 
2363.00, 
2364.00, 
2365.00, 
2366.00, 
2367.00, 
2368.00, 
2369.00, 
2370.00, 
2371.00, 
2372.00, 
2373.00, 
2374.00, 
2375.00, 
2376.00, 
2377.00, 
2378.00, 
2379.00, 
2380.00, 
2381.00, 
2382.00, 
2383.00, 
2384.00, 
2385.00, 
2386.00, 
2387.00, 
2388.00, 
2389.00, 
2390.00, 
2391.00, 
2392.00, 
2393.00, 
2394.00, 
2395.00, 
2396.00, 
2397.00, 
2398.00, 
2399.00, 
2400.00, 
2401.00, 
2402.00, 
2403.00, 
2404.00, 
2405.00, 
2406.00, 
2407.00, 
2408.00, 
2409.00, 
2410.00, 
2411.00, 
2412.00, 
2413.00, 
2414.00, 
2415.00, 
2416.00, 
2417.00, 
2418.00, 
2419.00, 
2420.00, 
2421.00, 
2422.00, 
2423.00, 
2424.00, 
2425.00, 
2426.00, 
2427.00, 
2428.00, 
2429.00, 
2430.00, 
2431.00, 
2432.00, 
2433.00, 
2434.00, 
2435.00, 
2436.00, 
2437.00, 
2438.00, 
2439.00, 
2440.00, 
2441.00, 
2442.00, 
2443.00, 
2444.00, 
2445.00, 
2446.00, 
2447.00, 
2448.00, 
2449.00, 
2450.00, 
2451.00, 
2452.00, 
2453.00, 
2454.00, 
2455.00, 
2456.00, 
2457.00, 
2458.00, 
2459.00, 
2460.00, 
2461.00, 
2462.00, 
2463.00, 
2464.00, 
2465.00, 
2466.00, 
2467.00, 
2468.00, 
2469.00, 
2470.00, 
2471.00, 
2472.00, 
2473.00, 
2474.00, 
2475.00, 
2476.00, 
2477.00, 
2478.00, 
2479.00, 
2480.00, 
2481.00, 
2482.00, 
2483.00, 
2484.00, 
2485.00, 
2486.00, 
2487.00, 
2488.00, 
2489.00, 
2490.00, 
2491.00, 
2492.00, 
2493.00, 
2494.00, 
2495.00, 
2496.00, 
2497.00, 
2498.00, 
2499.00, 
2500.00, 
2501.00, 
2502.00, 
2503.00, 
2504.00, 
2505.00, 
2506.00, 
2507.00, 
2508.00, 
2509.00, 
2510.00, 
2511.00, 
2512.00, 
2513.00, 
2514.00, 
2515.00, 
2516.00, 
2517.00, 
2518.00, 
2519.00, 
2520.00, 
2521.00, 
2522.00, 
2523.00, 
2524.00, 
2525.00, 
2526.00, 
2527.00, 
2528.00, 
2529.00, 
2530.00, 
2531.00, 
2532.00, 
2533.00, 
2534.00, 
2535.00, 
2536.00, 
2537.00, 
2538.00, 
2539.00, 
2540.00, 
2541.00, 
2542.00, 
2543.00, 
2544.00, 
2545.00, 
2546.00, 
2547.00, 
2548.00, 
2549.00, 
2550.00, 
2551.00, 
2552.00, 
2553.00, 
2554.00, 
2555.00, 
2556.00, 
2557.00, 
2558.00, 
2559.00, 
2560.00, 
2561.00, 
2562.00, 
2563.00, 
2564.00, 
2565.00, 
2566.00, 
2567.00, 
2568.00, 
2569.00, 
2570.00, 
2571.00, 
2572.00, 
2573.00, 
2574.00, 
2575.00, 
2576.00, 
2577.00, 
2578.00, 
2579.00, 
2580.00, 
2581.00, 
2582.00, 
2583.00, 
2584.00, 
2585.00, 
2586.00, 
2587.00, 
2588.00, 
2589.00, 
2590.00, 
2591.00, 
2592.00, 
2593.00, 
2594.00, 
2595.00, 
2596.00, 
2597.00, 
2598.00, 
2599.00, 
2600.00, 
