"1cP1 - RawData"
"Wavelength nm.","T%"
200.00,0.002
201.00,0.000
202.00,0.001
203.00,-0.000
204.00,-0.000
205.00,-0.001
206.00,0.001
207.00,0.002
208.00,-0.002
209.00,0.002
210.00,-0.000
211.00,-0.003
212.00,0.000
213.00,0.002
214.00,0.000
215.00,0.001
216.00,-0.001
217.00,0.000
218.00,0.001
219.00,-0.000
220.00,0.003
221.00,-0.002
222.00,-0.000
223.00,0.001
224.00,0.004
225.00,0.001
226.00,0.002
227.00,-0.001
228.00,0.003
229.00,0.001
230.00,0.001
231.00,0.001
232.00,0.001
233.00,-0.001
234.00,-0.001
235.00,-0.000
236.00,-0.002
237.00,0.002
238.00,0.001
239.00,0.000
240.00,-0.000
241.00,0.001
242.00,0.003
243.00,0.000
244.00,0.002
245.00,0.001
246.00,0.001
247.00,-0.001
248.00,0.001
249.00,0.001
250.00,-0.001
251.00,0.001
252.00,-0.000
253.00,0.000
254.00,-0.001
255.00,0.001
256.00,0.000
257.00,-0.000
258.00,0.001
259.00,-0.001
260.00,0.001
261.00,-0.001
262.00,-0.002
263.00,0.001
264.00,0.001
265.00,-0.001
266.00,-0.001
267.00,-0.002
268.00,-0.001
269.00,-0.001
270.00,0.002
271.00,-0.000
272.00,-0.000
273.00,0.001
274.00,0.000
275.00,-0.000
276.00,0.000
277.00,0.001
278.00,-0.000
279.00,0.000
280.00,0.002
281.00,-0.001
282.00,0.000
283.00,0.000
284.00,0.000
285.00,-0.001
286.00,-0.001
287.00,0.003
288.00,-0.000
289.00,-0.001
290.00,-0.000
291.00,-0.001
292.00,-0.001
293.00,-0.000
294.00,0.002
295.00,0.001
296.00,-0.000
297.00,0.002
298.00,-0.000
299.00,0.000
300.00,-0.001
301.00,-0.000
302.00,0.002
303.00,0.002
304.00,-0.001
305.00,0.001
306.00,0.001
307.00,0.003
308.00,0.006
309.00,0.008
310.00,0.012
311.00,0.018
312.00,0.025
313.00,0.043
314.00,0.064
315.00,0.092
316.00,0.133
317.00,0.184
318.00,0.258
319.00,0.343
320.00,0.451
321.00,0.584
322.00,0.742
323.00,0.941
324.00,1.160
325.00,1.395
326.00,1.645
327.00,1.951
328.00,2.294
329.00,2.640
330.00,3.010
331.00,3.391
332.00,3.805
333.00,4.249
334.00,4.674
335.00,5.147
336.00,5.590
337.00,6.068
338.00,6.513
339.00,6.962
340.00,7.389
341.00,7.845
342.00,8.250
343.00,8.652
344.00,9.106
345.00,9.446
346.00,9.777
347.00,10.098
348.00,10.407
349.00,10.683
350.00,10.977
351.00,11.248
352.00,11.461
353.00,11.674
354.00,11.898
355.00,12.088
356.00,12.290
357.00,12.407
358.00,12.587
359.00,12.724
360.00,12.876
361.00,12.938
362.00,13.055
363.00,13.140
364.00,13.156
365.00,13.204
366.00,13.279
367.00,13.302
368.00,13.298
369.00,13.321
370.00,13.368
371.00,13.315
372.00,13.272
373.00,13.274
374.00,13.253
375.00,13.149
376.00,13.125
377.00,13.040
378.00,12.954
379.00,12.865
380.00,12.806
381.00,12.778
382.00,12.758
383.00,12.741
384.00,12.763
385.00,12.776
386.00,12.760
387.00,12.796
388.00,12.818
389.00,12.833
390.00,12.799
391.00,12.805
392.00,12.804
393.00,12.802
394.00,12.814
395.00,12.808
396.00,12.769
397.00,12.779
398.00,12.760
399.00,12.776
400.00,12.748
401.00,12.716
402.00,12.743
403.00,12.737
404.00,12.697
405.00,12.666
406.00,12.663
407.00,12.620
408.00,12.591
409.00,12.559
410.00,12.490
411.00,12.489
412.00,12.485
413.00,12.495
414.00,12.456
415.00,12.444
416.00,12.477
417.00,12.450
418.00,12.452
419.00,12.514
420.00,12.539
421.00,12.506
422.00,12.499
423.00,12.531
424.00,12.544
425.00,12.579
426.00,12.590
427.00,12.638
428.00,12.652
429.00,12.684
430.00,12.737
431.00,12.793
432.00,12.790
433.00,12.846
434.00,12.865
435.00,12.948
436.00,12.996
437.00,13.036
438.00,13.090
439.00,13.161
440.00,13.211
441.00,13.280
442.00,13.347
443.00,13.408
444.00,13.498
445.00,13.550
446.00,13.628
447.00,13.704
448.00,13.814
449.00,13.901
450.00,13.985
451.00,14.062
452.00,14.141
453.00,14.262
454.00,14.355
455.00,14.455
456.00,14.560
457.00,14.668
458.00,14.762
459.00,14.851
460.00,15.002
461.00,15.112
462.00,15.199
463.00,15.341
464.00,15.446
465.00,15.567
466.00,15.717
467.00,15.860
468.00,15.879
469.00,16.063
470.00,16.161
471.00,16.231
472.00,16.363
473.00,16.457
474.00,16.567
475.00,16.694
476.00,16.792
477.00,16.940
478.00,17.049
479.00,17.220
480.00,17.377
481.00,17.473
482.00,17.624
483.00,17.730
484.00,17.906
485.00,18.068
486.00,18.203
487.00,18.382
488.00,18.512
489.00,18.675
490.00,18.816
491.00,18.961
492.00,19.096
493.00,19.318
494.00,19.481
495.00,19.533
496.00,19.653
497.00,19.765
498.00,19.943
499.00,20.091
500.00,20.216
501.00,20.318
502.00,20.526
503.00,20.640
504.00,20.717
505.00,20.896
506.00,21.007
507.00,21.105
508.00,21.235
509.00,21.432
510.00,21.552
511.00,21.667
512.00,21.840
513.00,21.982
514.00,22.097
515.00,22.217
516.00,22.350
517.00,22.453
518.00,22.590
519.00,22.665
520.00,22.789
521.00,22.907
522.00,23.012
523.00,23.032
524.00,23.178
525.00,23.342
526.00,23.446
527.00,23.543
528.00,23.614
529.00,23.820
530.00,23.940
531.00,24.023
532.00,24.151
533.00,24.264
534.00,24.388
535.00,24.487
536.00,24.532
537.00,24.674
538.00,24.723
539.00,24.826
540.00,24.925
541.00,25.025
542.00,25.078
543.00,25.135
544.00,25.268
545.00,25.333
546.00,25.399
547.00,25.503
548.00,25.626
549.00,25.690
550.00,25.752
551.00,25.894
552.00,25.961
553.00,26.026
554.00,26.102
555.00,26.140
556.00,26.239
557.00,26.299
558.00,26.384
559.00,26.483
560.00,26.543
561.00,26.624
562.00,26.689
563.00,26.674
564.00,26.788
565.00,26.881
566.00,26.825
567.00,26.887
568.00,26.975
569.00,27.009
570.00,27.106
571.00,27.137
572.00,27.212
573.00,27.217
574.00,27.258
575.00,27.282
576.00,27.309
577.00,27.373
578.00,27.437
579.00,27.565
580.00,27.614
581.00,27.698
582.00,27.735
583.00,27.803
584.00,27.855
585.00,27.965
586.00,28.010
587.00,28.092
588.00,28.141
589.00,28.100
590.00,28.215
591.00,28.281
592.00,28.236
593.00,28.334
594.00,28.345
595.00,28.403
596.00,28.529
597.00,28.595
598.00,28.683
599.00,28.703
600.00,28.862
601.00,28.897
602.00,28.911
603.00,28.928
604.00,28.959
605.00,29.072
606.00,29.054
607.00,29.164
608.00,29.185
609.00,29.256
610.00,29.525
611.00,29.450
612.00,29.446
613.00,29.459
614.00,29.568
615.00,29.681
616.00,29.738
617.00,29.758
618.00,29.805
619.00,29.881
620.00,29.882
621.00,29.994
622.00,30.090
623.00,30.076
624.00,30.162
625.00,30.431
626.00,30.469
627.00,30.520
628.00,30.577
629.00,30.601
630.00,30.678
631.00,30.793
632.00,30.919
633.00,30.998
634.00,31.116
635.00,31.165
636.00,31.335
637.00,31.364
638.00,31.431
639.00,31.511
640.00,31.630
641.00,31.681
642.00,31.837
643.00,31.939
644.00,32.004
645.00,32.103
646.00,32.282
647.00,32.397
648.00,32.479
649.00,32.559
650.00,32.626
651.00,32.819
652.00,32.895
653.00,32.918
654.00,33.061
655.00,33.279
656.00,33.551
657.00,33.543
658.00,33.742
659.00,33.794
660.00,33.892
661.00,33.912
662.00,34.028
663.00,34.171
664.00,34.424
665.00,34.603
666.00,34.642
667.00,34.706
668.00,34.845
669.00,35.072
670.00,35.298
671.00,35.130
672.00,35.374
673.00,35.577
674.00,35.624
675.00,35.822
676.00,36.095
677.00,36.171
678.00,36.046
679.00,36.351
680.00,36.413
681.00,36.727
682.00,36.741
683.00,36.688
684.00,36.809
685.00,37.106
686.00,37.200
687.00,37.443
688.00,37.563
689.00,37.605
690.00,37.874
691.00,38.184
692.00,38.028
693.00,38.084
694.00,38.329
695.00,38.621
696.00,38.690
697.00,38.695
698.00,38.764
699.00,39.074
700.00,39.199
701.00,39.209
702.00,39.478
703.00,39.705
704.00,39.785
705.00,39.728
706.00,39.885
707.00,40.049
708.00,40.022
709.00,40.412
710.00,40.820
711.00,40.409
712.00,40.496
713.00,40.787
714.00,40.906
715.00,40.873
716.00,40.963
717.00,41.183
718.00,41.339
719.00,41.362
720.00,41.541
721.00,45.811
722.00,45.905
723.00,45.965
724.00,46.103
725.00,46.064
726.00,46.240
727.00,46.242
728.00,46.326
729.00,46.397
730.00,46.571
731.00,46.625
732.00,46.644
733.00,46.800
734.00,46.819
735.00,46.930
736.00,46.944
737.00,47.107
738.00,47.219
739.00,47.232
740.00,47.291
741.00,47.391
742.00,47.486
743.00,47.540
744.00,47.585
745.00,47.584
746.00,47.617
747.00,47.696
748.00,47.721
749.00,47.773
750.00,47.847
751.00,47.870
752.00,48.022
753.00,48.014
754.00,48.029
755.00,48.068
756.00,48.098
757.00,48.249
758.00,48.200
759.00,48.296
760.00,48.354
761.00,48.422
762.00,48.419
763.00,48.535
764.00,48.518
765.00,48.561
766.00,48.591
767.00,48.701
768.00,48.742
769.00,48.765
770.00,48.882
771.00,48.842
772.00,48.802
773.00,48.952
774.00,48.979
775.00,49.058
776.00,48.947
777.00,49.036
778.00,49.105
779.00,49.179
780.00,49.112
781.00,49.171
782.00,49.208
783.00,49.221
784.00,49.253
785.00,49.219
786.00,49.264
787.00,49.352
788.00,49.310
789.00,49.301
790.00,49.327
791.00,49.400
792.00,49.337
793.00,49.381
794.00,49.327
795.00,49.332
796.00,49.365
797.00,49.346
798.00,49.390
799.00,49.329
800.00,49.391
801.00,49.420
802.00,49.392
803.00,49.431
804.00,49.417
805.00,49.475
806.00,49.497
807.00,49.411
808.00,49.489
809.00,49.489
810.00,49.453
811.00,49.443
812.00,49.479
813.00,49.462
814.00,49.501
815.00,49.488
816.00,49.486
817.00,49.434
818.00,49.458
819.00,49.521
820.00,49.418
821.00,49.521
822.00,49.496
823.00,49.468
824.00,49.416
825.00,49.428
826.00,49.408
827.00,49.533
828.00,49.575
829.00,49.455
830.00,49.431
831.00,51.841
832.00,51.852
833.00,51.818
834.00,51.825
835.00,51.810
836.00,51.812
837.00,51.820
838.00,51.784
839.00,51.765
840.00,51.765
841.00,51.804
842.00,51.788
843.00,51.772
844.00,51.751
845.00,51.690
846.00,51.743
847.00,51.733
848.00,51.699
849.00,51.656
850.00,51.660
851.00,51.578
852.00,51.631
853.00,51.595
854.00,51.594
855.00,51.511
856.00,51.538
857.00,51.556
858.00,51.486
859.00,51.468
860.00,51.496
861.00,51.520
862.00,51.459
863.00,51.496
864.00,51.449
865.00,51.490
866.00,51.417
867.00,51.441
868.00,51.435
869.00,51.434
870.00,51.449
871.00,51.427
872.00,51.439
873.00,51.399
874.00,51.449
875.00,51.378
876.00,51.411
877.00,51.367
878.00,51.402
879.00,51.369
880.00,51.357
881.00,51.368
882.00,51.405
883.00,51.351
884.00,51.336
885.00,51.321
886.00,51.272
887.00,51.439
888.00,51.259
889.00,51.248
890.00,51.243
891.00,51.196
892.00,51.187
893.00,51.175
894.00,51.204
895.00,51.165
896.00,51.155
897.00,51.140
898.00,51.123
899.00,51.105
900.00,51.087
901.00,51.097
902.00,51.097
903.00,51.056
904.00,51.058
905.00,51.035
906.00,51.048
907.00,51.015
908.00,50.987
909.00,51.004
910.00,50.950
911.00,50.969
912.00,50.948
913.00,50.899
914.00,50.919
915.00,50.901
916.00,50.888
917.00,50.870
918.00,50.858
919.00,50.815
920.00,50.790
921.00,50.813
922.00,50.803
923.00,50.789
924.00,50.746
925.00,50.733
926.00,50.726
927.00,50.725
928.00,50.680
929.00,50.681
930.00,50.643
931.00,50.642
932.00,50.589
933.00,50.621
934.00,50.581
935.00,50.574
936.00,50.551
937.00,50.549
938.00,50.520
939.00,50.528
940.00,50.479
941.00,50.503
942.00,50.460
943.00,50.435
944.00,50.407
945.00,50.424
946.00,50.414
947.00,50.350
948.00,50.360
949.00,50.349
950.00,50.341
951.00,50.281
952.00,50.282
953.00,50.225
954.00,50.238
955.00,50.205
956.00,50.201
957.00,50.218
958.00,50.193
959.00,50.112
960.00,50.122
961.00,50.128
962.00,50.117
963.00,50.072
964.00,50.047
965.00,50.029
966.00,50.027
967.00,50.039
968.00,50.010
969.00,50.049
970.00,50.022
971.00,50.043
972.00,50.007
973.00,50.030
974.00,50.053
975.00,50.023
976.00,50.032
977.00,50.026
978.00,50.068
979.00,50.022
980.00,50.034
981.00,50.047
982.00,50.009
983.00,50.029
984.00,49.989
985.00,50.024
986.00,49.990
987.00,50.007
988.00,49.973
989.00,49.969
990.00,49.965
991.00,49.950
992.00,49.961
993.00,49.930
994.00,49.921
995.00,49.910
996.00,49.894
997.00,49.885
998.00,49.858
999.00,49.889
1000.00,49.831
1001.00,49.825
1002.00,49.835
1003.00,49.813
1004.00,49.807
1005.00,49.758
1006.00,49.793
1007.00,49.773
1008.00,49.761
1009.00,49.727
1010.00,49.724
1011.00,49.721
1012.00,49.693
1013.00,49.720
1014.00,49.680
1015.00,49.703
1016.00,49.657
1017.00,49.648
1018.00,49.689
1019.00,49.599
1020.00,49.616
1021.00,49.586
1022.00,49.595
1023.00,49.534
1024.00,49.547
1025.00,49.514
1026.00,49.503
1027.00,49.479
1028.00,49.463
1029.00,49.460
1030.00,49.426
1031.00,49.442
1032.00,49.399
1033.00,49.397
1034.00,49.381
1035.00,49.362
1036.00,49.344
1037.00,49.335
1038.00,49.323
1039.00,49.280
1040.00,49.289
1041.00,49.243
1042.00,49.234
1043.00,49.224
1044.00,49.255
1045.00,49.232
1046.00,49.231
1047.00,49.250
1048.00,49.272
1049.00,49.279
1050.00,49.264
1051.00,49.318
1052.00,49.286
1053.00,49.303
1054.00,49.313
1055.00,49.347
1056.00,49.347
1057.00,49.343
1058.00,49.328
1059.00,49.332
1060.00,49.354
1061.00,49.306
1062.00,49.310
1063.00,49.313
1064.00,49.308
1065.00,49.286
1066.00,49.290
1067.00,49.298
1068.00,49.323
1069.00,49.250
1070.00,49.254
1071.00,49.242
1072.00,49.260
1073.00,49.246
1074.00,49.251
1075.00,49.219
1076.00,49.235
1077.00,49.212
1078.00,49.197
1079.00,49.207
1080.00,49.194
1081.00,49.185
1082.00,49.180
1083.00,49.166
1084.00,49.170
1085.00,49.169
1086.00,49.144
1087.00,49.148
1088.00,49.128
1089.00,49.121
1090.00,49.119
1091.00,49.123
1092.00,49.108
1093.00,49.109
1094.00,49.084
1095.00,49.073
1096.00,49.044
1097.00,49.054
1098.00,49.048
1099.00,49.032
1100.00,49.023
1101.00,49.026
1102.00,49.008
1103.00,49.025
1104.00,49.012
1105.00,48.983
1106.00,48.985
1107.00,48.976
1108.00,48.960
1109.00,48.966
1110.00,48.943
1111.00,48.947
1112.00,48.935
1113.00,48.927
1114.00,48.935
1115.00,48.941
1116.00,48.911
1117.00,48.915
1118.00,48.901
1119.00,48.896
1120.00,48.890
1121.00,48.888
1122.00,48.873
1123.00,48.887
1124.00,48.875
1125.00,48.904
1126.00,48.857
1127.00,48.847
1128.00,48.824
1129.00,48.819
1130.00,48.795
1131.00,48.817
1132.00,48.823
1133.00,48.815
1134.00,48.799
1135.00,48.780
1136.00,48.791
1137.00,48.816
1138.00,48.780
1139.00,48.802
1140.00,48.782
1141.00,48.780
1142.00,48.770
1143.00,48.806
1144.00,48.769
1145.00,48.785
1146.00,48.773
1147.00,48.773
1148.00,48.774
1149.00,48.786
1150.00,48.794
1151.00,48.780
1152.00,48.760
1153.00,48.761
1154.00,48.736
1155.00,48.742
1156.00,48.737
1157.00,48.745
1158.00,48.736
1159.00,48.739
1160.00,48.722
1161.00,48.738
1162.00,48.728
1163.00,48.712
1164.00,48.733
1165.00,48.718
1166.00,48.726
1167.00,48.708
1168.00,48.710
1169.00,48.699
1170.00,48.714
1171.00,48.673
1172.00,48.702
1173.00,48.697
1174.00,48.691
1175.00,48.704
1176.00,48.696
1177.00,48.683
1178.00,48.694
1179.00,48.702
1180.00,48.688
1181.00,48.710
1182.00,48.672
1183.00,48.690
1184.00,48.682
1185.00,48.702
1186.00,48.717
1187.00,48.696
1188.00,48.691
1189.00,48.697
1190.00,48.690
1191.00,48.686
1192.00,48.711
1193.00,48.680
1194.00,48.692
1195.00,48.660
1196.00,48.695
1197.00,48.712
1198.00,48.682
1199.00,48.692
1200.00,48.707
1201.00,48.709
1202.00,48.692
1203.00,48.696
1204.00,48.681
1205.00,48.700
1206.00,48.688
1207.00,48.675
1208.00,48.675
1209.00,48.676
1210.00,48.686
1211.00,48.685
1212.00,48.699
1213.00,48.676
1214.00,48.704
1215.00,48.675
1216.00,48.708
1217.00,48.700
1218.00,48.684
1219.00,48.728
1220.00,48.687
1221.00,48.709
1222.00,48.702
1223.00,48.715
1224.00,48.708
1225.00,48.696
1226.00,48.692
1227.00,48.700
1228.00,48.720
1229.00,48.711
1230.00,48.751
1231.00,48.727
1232.00,48.757
1233.00,48.764
1234.00,48.746
1235.00,48.759
1236.00,48.745
1237.00,48.759
1238.00,48.757
1239.00,48.768
1240.00,48.735
1241.00,48.754
1242.00,48.766
1243.00,48.775
1244.00,48.782
1245.00,48.802
1246.00,48.806
1247.00,48.803
1248.00,48.781
1249.00,48.807
1250.00,48.815
1251.00,48.781
1252.00,48.801
1253.00,48.795
1254.00,48.838
1255.00,48.823
1256.00,48.813
1257.00,48.809
1258.00,48.858
1259.00,48.843
1260.00,48.880
1261.00,48.865
1262.00,48.844
1263.00,48.857
1264.00,48.857
1265.00,48.858
1266.00,48.855
1267.00,48.866
1268.00,48.870
1269.00,48.883
1270.00,48.896
1271.00,48.906
1272.00,48.901
1273.00,48.915
1274.00,48.924
1275.00,48.932
1276.00,48.919
1277.00,48.938
1278.00,48.945
1279.00,48.958
1280.00,48.954
1281.00,48.970
1282.00,48.977
1283.00,48.959
1284.00,48.969
1285.00,48.963
1286.00,48.981
1287.00,48.985
1288.00,49.000
1289.00,48.992
1290.00,49.032
1291.00,49.015
1292.00,49.016
1293.00,49.034
1294.00,49.051
1295.00,49.044
1296.00,49.051
1297.00,49.054
1298.00,49.094
1299.00,49.065
1300.00,49.081
1301.00,49.066
1302.00,49.104
1303.00,49.098
1304.00,49.086
1305.00,49.110
1306.00,49.097
1307.00,49.116
1308.00,49.114
1309.00,49.138
1310.00,49.129
1311.00,49.124
1312.00,49.139
1313.00,49.162
1314.00,49.151
1315.00,49.183
1316.00,49.191
1317.00,49.219
1318.00,49.213
1319.00,49.213
1320.00,49.215
1321.00,49.419
1322.00,49.388
1323.00,49.375
1324.00,49.376
1325.00,49.375
1326.00,49.389
1327.00,49.374
1328.00,49.367
1329.00,49.361
1330.00,49.368
1331.00,49.353
1332.00,49.372
1333.00,49.390
1334.00,49.397
1335.00,49.433
1336.00,49.486
1337.00,49.498
1338.00,49.559
1339.00,49.600
1340.00,49.661
1341.00,49.727
1342.00,49.789
1343.00,49.823
1344.00,49.872
1345.00,49.920
1346.00,49.972
1347.00,49.970
1348.00,49.997
1349.00,50.054
1350.00,50.049
1351.00,50.086
1352.00,50.095
1353.00,50.070
1354.00,50.100
1355.00,50.045
1356.00,50.118
1357.00,50.110
1358.00,50.166
1359.00,50.124
1360.00,50.124
1361.00,49.697
1362.00,50.102
1363.00,50.237
1364.00,50.239
1365.00,50.142
1366.00,50.237
1367.00,50.142
1368.00,50.118
1369.00,50.197
1370.00,50.143
1371.00,50.103
1372.00,50.135
1373.00,50.170
1374.00,50.196
1375.00,50.155
1376.00,50.152
1377.00,50.141
1378.00,50.192
1379.00,50.183
1380.00,50.172
1381.00,50.148
1382.00,50.076
1383.00,50.182
1384.00,50.113
1385.00,50.123
1386.00,50.154
1387.00,50.137
1388.00,50.059
1389.00,50.140
1390.00,50.173
1391.00,50.130
1392.00,50.128
1393.00,50.160
1394.00,50.130
1395.00,50.132
1396.00,50.051
1397.00,50.168
1398.00,49.711
1399.00,50.156
1400.00,50.091
1401.00,50.152
1402.00,50.248
1403.00,50.201
1404.00,50.245
1405.00,50.208
1406.00,50.232
1407.00,50.221
1408.00,50.227
1409.00,50.206
1410.00,50.268
1411.00,50.125
1412.00,50.445
1413.00,50.541
1414.00,50.209
1415.00,50.259
1416.00,50.278
1417.00,50.322
1418.00,50.272
1419.00,50.306
1420.00,50.321
1421.00,50.393
1422.00,50.370
1423.00,50.389
1424.00,50.385
1425.00,50.416
1426.00,50.431
1427.00,50.439
1428.00,50.434
1429.00,50.439
1430.00,50.432
1431.00,50.475
1432.00,50.478
1433.00,50.513
1434.00,50.504
1435.00,50.573
1436.00,50.596
1437.00,50.580
1438.00,50.596
1439.00,50.629
1440.00,50.649
1441.00,50.671
1442.00,50.692
1443.00,50.766
1444.00,50.797
1445.00,50.711
1446.00,50.764
1447.00,50.795
1448.00,50.846
1449.00,50.813
1450.00,50.840
1451.00,50.843
1452.00,50.871
1453.00,50.866
1454.00,50.902
1455.00,50.915
1456.00,50.931
1457.00,50.923
1458.00,50.956
1459.00,50.981
1460.00,51.023
1461.00,51.014
1462.00,51.067
1463.00,51.061
1464.00,51.083
1465.00,51.088
1466.00,51.089
1467.00,51.117
1468.00,51.183
1469.00,51.157
1470.00,51.179
1471.00,51.182
1472.00,51.193
1473.00,51.224
1474.00,51.243
1475.00,51.269
1476.00,51.272
1477.00,51.255
1478.00,51.296
1479.00,51.317
1480.00,51.316
1481.00,51.327
1482.00,51.368
1483.00,51.369
1484.00,51.384
1485.00,51.380
1486.00,51.414
1487.00,51.436
1488.00,51.456
1489.00,51.442
1490.00,51.472
1491.00,51.467
1492.00,51.518
1493.00,51.486
1494.00,51.534
1495.00,51.519
1496.00,51.542
1497.00,51.525
1498.00,51.541
1499.00,51.577
1500.00,51.592
1501.00, 
1502.00, 
1503.00, 
1504.00, 
1505.00, 
1506.00, 
1507.00, 
1508.00, 
1509.00, 
1510.00, 
1511.00, 
1512.00, 
1513.00, 
1514.00, 
1515.00, 
1516.00, 
1517.00, 
1518.00, 
1519.00, 
1520.00, 
1521.00, 
1522.00, 
1523.00, 
1524.00, 
1525.00, 
1526.00, 
1527.00, 
1528.00, 
1529.00, 
1530.00, 
1531.00, 
1532.00, 
1533.00, 
1534.00, 
1535.00, 
1536.00, 
1537.00, 
1538.00, 
1539.00, 
1540.00, 
1541.00, 
1542.00, 
1543.00, 
1544.00, 
1545.00, 
1546.00, 
1547.00, 
1548.00, 
1549.00, 
1550.00, 
1551.00, 
1552.00, 
1553.00, 
1554.00, 
1555.00, 
1556.00, 
1557.00, 
1558.00, 
1559.00, 
1560.00, 
1561.00, 
1562.00, 
1563.00, 
1564.00, 
1565.00, 
1566.00, 
1567.00, 
1568.00, 
1569.00, 
1570.00, 
1571.00, 
1572.00, 
1573.00, 
1574.00, 
1575.00, 
1576.00, 
1577.00, 
1578.00, 
1579.00, 
1580.00, 
1581.00, 
1582.00, 
1583.00, 
1584.00, 
1585.00, 
1586.00, 
1587.00, 
1588.00, 
1589.00, 
1590.00, 
1591.00, 
1592.00, 
1593.00, 
1594.00, 
1595.00, 
1596.00, 
1597.00, 
1598.00, 
1599.00, 
1600.00, 
1601.00, 
1602.00, 
1603.00, 
1604.00, 
1605.00, 
1606.00, 
1607.00, 
1608.00, 
1609.00, 
1610.00, 
1611.00, 
1612.00, 
1613.00, 
1614.00, 
1615.00, 
1616.00, 
1617.00, 
1618.00, 
1619.00, 
1620.00, 
1621.00, 
1622.00, 
1623.00, 
1624.00, 
1625.00, 
1626.00, 
1627.00, 
1628.00, 
1629.00, 
1630.00, 
1631.00, 
1632.00, 
1633.00, 
1634.00, 
1635.00, 
1636.00, 
1637.00, 
1638.00, 
1639.00, 
1640.00, 
1641.00, 
1642.00, 
1643.00, 
1644.00, 
1645.00, 
1646.00, 
1647.00, 
1648.00, 
1649.00, 
1650.00, 
1651.00, 
1652.00, 
1653.00, 
1654.00, 
1655.00, 
1656.00, 
1657.00, 
1658.00, 
1659.00, 
1660.00, 
1661.00, 
1662.00, 
1663.00, 
1664.00, 
1665.00, 
1666.00, 
1667.00, 
1668.00, 
1669.00, 
1670.00, 
1671.00, 
1672.00, 
1673.00, 
1674.00, 
1675.00, 
1676.00, 
1677.00, 
1678.00, 
1679.00, 
1680.00, 
1681.00, 
1682.00, 
1683.00, 
1684.00, 
1685.00, 
1686.00, 
1687.00, 
1688.00, 
1689.00, 
1690.00, 
1691.00, 
1692.00, 
1693.00, 
1694.00, 
1695.00, 
1696.00, 
1697.00, 
1698.00, 
1699.00, 
1700.00, 
1701.00, 
1702.00, 
1703.00, 
1704.00, 
1705.00, 
1706.00, 
1707.00, 
1708.00, 
1709.00, 
1710.00, 
1711.00, 
1712.00, 
1713.00, 
1714.00, 
1715.00, 
1716.00, 
1717.00, 
1718.00, 
1719.00, 
1720.00, 
1721.00, 
1722.00, 
1723.00, 
1724.00, 
1725.00, 
1726.00, 
1727.00, 
1728.00, 
1729.00, 
1730.00, 
1731.00, 
1732.00, 
1733.00, 
1734.00, 
1735.00, 
1736.00, 
1737.00, 
1738.00, 
1739.00, 
1740.00, 
1741.00, 
1742.00, 
1743.00, 
1744.00, 
1745.00, 
1746.00, 
1747.00, 
1748.00, 
1749.00, 
1750.00, 
1751.00, 
1752.00, 
1753.00, 
1754.00, 
1755.00, 
1756.00, 
1757.00, 
1758.00, 
1759.00, 
1760.00, 
1761.00, 
1762.00, 
1763.00, 
1764.00, 
1765.00, 
1766.00, 
1767.00, 
1768.00, 
1769.00, 
1770.00, 
1771.00, 
1772.00, 
1773.00, 
1774.00, 
1775.00, 
1776.00, 
1777.00, 
1778.00, 
1779.00, 
1780.00, 
1781.00, 
1782.00, 
1783.00, 
1784.00, 
1785.00, 
1786.00, 
1787.00, 
1788.00, 
1789.00, 
1790.00, 
1791.00, 
1792.00, 
1793.00, 
1794.00, 
1795.00, 
1796.00, 
1797.00, 
1798.00, 
1799.00, 
1800.00, 
1801.00, 
1802.00, 
1803.00, 
1804.00, 
1805.00, 
1806.00, 
1807.00, 
1808.00, 
1809.00, 
1810.00, 
1811.00, 
1812.00, 
1813.00, 
1814.00, 
1815.00, 
1816.00, 
1817.00, 
1818.00, 
1819.00, 
1820.00, 
1821.00, 
1822.00, 
1823.00, 
1824.00, 
1825.00, 
1826.00, 
1827.00, 
1828.00, 
1829.00, 
1830.00, 
1831.00, 
1832.00, 
1833.00, 
1834.00, 
1835.00, 
1836.00, 
1837.00, 
1838.00, 
1839.00, 
1840.00, 
1841.00, 
1842.00, 
1843.00, 
1844.00, 
1845.00, 
1846.00, 
1847.00, 
1848.00, 
1849.00, 
1850.00, 
1851.00, 
1852.00, 
1853.00, 
1854.00, 
1855.00, 
1856.00, 
1857.00, 
1858.00, 
1859.00, 
1860.00, 
1861.00, 
1862.00, 
1863.00, 
1864.00, 
1865.00, 
1866.00, 
1867.00, 
1868.00, 
1869.00, 
1870.00, 
1871.00, 
1872.00, 
1873.00, 
1874.00, 
1875.00, 
1876.00, 
1877.00, 
1878.00, 
1879.00, 
1880.00, 
1881.00, 
1882.00, 
1883.00, 
1884.00, 
1885.00, 
1886.00, 
1887.00, 
1888.00, 
1889.00, 
1890.00, 
1891.00, 
1892.00, 
1893.00, 
1894.00, 
1895.00, 
1896.00, 
1897.00, 
1898.00, 
1899.00, 
1900.00, 
1901.00, 
1902.00, 
1903.00, 
1904.00, 
1905.00, 
1906.00, 
1907.00, 
1908.00, 
1909.00, 
1910.00, 
1911.00, 
1912.00, 
1913.00, 
1914.00, 
1915.00, 
1916.00, 
1917.00, 
1918.00, 
1919.00, 
1920.00, 
1921.00, 
1922.00, 
1923.00, 
1924.00, 
1925.00, 
1926.00, 
1927.00, 
1928.00, 
1929.00, 
1930.00, 
1931.00, 
1932.00, 
1933.00, 
1934.00, 
1935.00, 
1936.00, 
1937.00, 
1938.00, 
1939.00, 
1940.00, 
1941.00, 
1942.00, 
1943.00, 
1944.00, 
1945.00, 
1946.00, 
1947.00, 
1948.00, 
1949.00, 
1950.00, 
1951.00, 
1952.00, 
1953.00, 
1954.00, 
1955.00, 
1956.00, 
1957.00, 
1958.00, 
1959.00, 
1960.00, 
1961.00, 
1962.00, 
1963.00, 
1964.00, 
1965.00, 
1966.00, 
1967.00, 
1968.00, 
1969.00, 
1970.00, 
1971.00, 
1972.00, 
1973.00, 
1974.00, 
1975.00, 
1976.00, 
1977.00, 
1978.00, 
1979.00, 
1980.00, 
1981.00, 
1982.00, 
1983.00, 
1984.00, 
1985.00, 
1986.00, 
1987.00, 
1988.00, 
1989.00, 
1990.00, 
1991.00, 
1992.00, 
1993.00, 
1994.00, 
1995.00, 
1996.00, 
1997.00, 
1998.00, 
1999.00, 
2000.00, 
2001.00, 
2002.00, 
2003.00, 
2004.00, 
2005.00, 
2006.00, 
2007.00, 
2008.00, 
2009.00, 
2010.00, 
2011.00, 
2012.00, 
2013.00, 
2014.00, 
2015.00, 
2016.00, 
2017.00, 
2018.00, 
2019.00, 
2020.00, 
2021.00, 
2022.00, 
2023.00, 
2024.00, 
2025.00, 
2026.00, 
2027.00, 
2028.00, 
2029.00, 
2030.00, 
2031.00, 
2032.00, 
2033.00, 
2034.00, 
2035.00, 
2036.00, 
2037.00, 
2038.00, 
2039.00, 
2040.00, 
2041.00, 
2042.00, 
2043.00, 
2044.00, 
2045.00, 
2046.00, 
2047.00, 
2048.00, 
2049.00, 
2050.00, 
2051.00, 
2052.00, 
2053.00, 
2054.00, 
2055.00, 
2056.00, 
2057.00, 
2058.00, 
2059.00, 
2060.00, 
2061.00, 
2062.00, 
2063.00, 
2064.00, 
2065.00, 
2066.00, 
2067.00, 
2068.00, 
2069.00, 
2070.00, 
2071.00, 
2072.00, 
2073.00, 
2074.00, 
2075.00, 
2076.00, 
2077.00, 
2078.00, 
2079.00, 
2080.00, 
2081.00, 
2082.00, 
2083.00, 
2084.00, 
2085.00, 
2086.00, 
2087.00, 
2088.00, 
2089.00, 
2090.00, 
2091.00, 
2092.00, 
2093.00, 
2094.00, 
2095.00, 
2096.00, 
2097.00, 
2098.00, 
2099.00, 
2100.00, 
2101.00, 
2102.00, 
2103.00, 
2104.00, 
2105.00, 
2106.00, 
2107.00, 
2108.00, 
2109.00, 
2110.00, 
2111.00, 
2112.00, 
2113.00, 
2114.00, 
2115.00, 
2116.00, 
2117.00, 
2118.00, 
2119.00, 
2120.00, 
2121.00, 
2122.00, 
2123.00, 
2124.00, 
2125.00, 
2126.00, 
2127.00, 
2128.00, 
2129.00, 
2130.00, 
2131.00, 
2132.00, 
2133.00, 
2134.00, 
2135.00, 
2136.00, 
2137.00, 
2138.00, 
2139.00, 
2140.00, 
2141.00, 
2142.00, 
2143.00, 
2144.00, 
2145.00, 
2146.00, 
2147.00, 
2148.00, 
2149.00, 
2150.00, 
2151.00, 
2152.00, 
2153.00, 
2154.00, 
2155.00, 
2156.00, 
2157.00, 
2158.00, 
2159.00, 
2160.00, 
2161.00, 
2162.00, 
2163.00, 
2164.00, 
2165.00, 
2166.00, 
2167.00, 
2168.00, 
2169.00, 
2170.00, 
2171.00, 
2172.00, 
2173.00, 
2174.00, 
2175.00, 
2176.00, 
2177.00, 
2178.00, 
2179.00, 
2180.00, 
2181.00, 
2182.00, 
2183.00, 
2184.00, 
2185.00, 
2186.00, 
2187.00, 
2188.00, 
2189.00, 
2190.00, 
2191.00, 
2192.00, 
2193.00, 
2194.00, 
2195.00, 
2196.00, 
2197.00, 
2198.00, 
2199.00, 
2200.00, 
2201.00, 
2202.00, 
2203.00, 
2204.00, 
2205.00, 
2206.00, 
2207.00, 
2208.00, 
2209.00, 
2210.00, 
2211.00, 
2212.00, 
2213.00, 
2214.00, 
2215.00, 
2216.00, 
2217.00, 
2218.00, 
2219.00, 
2220.00, 
2221.00, 
2222.00, 
2223.00, 
2224.00, 
2225.00, 
2226.00, 
2227.00, 
2228.00, 
2229.00, 
2230.00, 
2231.00, 
2232.00, 
2233.00, 
2234.00, 
2235.00, 
2236.00, 
2237.00, 
2238.00, 
2239.00, 
2240.00, 
2241.00, 
2242.00, 
2243.00, 
2244.00, 
2245.00, 
2246.00, 
2247.00, 
2248.00, 
2249.00, 
2250.00, 
2251.00, 
2252.00, 
2253.00, 
2254.00, 
2255.00, 
2256.00, 
2257.00, 
2258.00, 
2259.00, 
2260.00, 
2261.00, 
2262.00, 
2263.00, 
2264.00, 
2265.00, 
2266.00, 
2267.00, 
2268.00, 
2269.00, 
2270.00, 
2271.00, 
2272.00, 
2273.00, 
2274.00, 
2275.00, 
2276.00, 
2277.00, 
2278.00, 
2279.00, 
2280.00, 
2281.00, 
2282.00, 
2283.00, 
2284.00, 
2285.00, 
2286.00, 
2287.00, 
2288.00, 
2289.00, 
2290.00, 
2291.00, 
2292.00, 
2293.00, 
2294.00, 
2295.00, 
2296.00, 
2297.00, 
2298.00, 
2299.00, 
2300.00, 
2301.00, 
2302.00, 
2303.00, 
2304.00, 
2305.00, 
2306.00, 
2307.00, 
2308.00, 
2309.00, 
2310.00, 
2311.00, 
2312.00, 
2313.00, 
2314.00, 
2315.00, 
2316.00, 
2317.00, 
2318.00, 
2319.00, 
2320.00, 
2321.00, 
2322.00, 
2323.00, 
2324.00, 
2325.00, 
2326.00, 
2327.00, 
2328.00, 
2329.00, 
2330.00, 
2331.00, 
2332.00, 
2333.00, 
2334.00, 
2335.00, 
2336.00, 
2337.00, 
2338.00, 
2339.00, 
2340.00, 
2341.00, 
2342.00, 
2343.00, 
2344.00, 
2345.00, 
2346.00, 
2347.00, 
2348.00, 
2349.00, 
2350.00, 
2351.00, 
2352.00, 
2353.00, 
2354.00, 
2355.00, 
2356.00, 
2357.00, 
2358.00, 
2359.00, 
2360.00, 
2361.00, 
2362.00, 
2363.00, 
2364.00, 
2365.00, 
2366.00, 
2367.00, 
2368.00, 
2369.00, 
2370.00, 
2371.00, 
2372.00, 
2373.00, 
2374.00, 
2375.00, 
2376.00, 
2377.00, 
2378.00, 
2379.00, 
2380.00, 
2381.00, 
2382.00, 
2383.00, 
2384.00, 
2385.00, 
2386.00, 
2387.00, 
2388.00, 
2389.00, 
2390.00, 
2391.00, 
2392.00, 
2393.00, 
2394.00, 
2395.00, 
2396.00, 
2397.00, 
2398.00, 
2399.00, 
2400.00, 
2401.00, 
2402.00, 
2403.00, 
2404.00, 
2405.00, 
2406.00, 
2407.00, 
2408.00, 
2409.00, 
2410.00, 
2411.00, 
2412.00, 
2413.00, 
2414.00, 
2415.00, 
2416.00, 
2417.00, 
2418.00, 
2419.00, 
2420.00, 
2421.00, 
2422.00, 
2423.00, 
2424.00, 
2425.00, 
2426.00, 
2427.00, 
2428.00, 
2429.00, 
2430.00, 
2431.00, 
2432.00, 
2433.00, 
2434.00, 
2435.00, 
2436.00, 
2437.00, 
2438.00, 
2439.00, 
2440.00, 
2441.00, 
2442.00, 
2443.00, 
2444.00, 
2445.00, 
2446.00, 
2447.00, 
2448.00, 
2449.00, 
2450.00, 
2451.00, 
2452.00, 
2453.00, 
2454.00, 
2455.00, 
2456.00, 
2457.00, 
2458.00, 
2459.00, 
2460.00, 
2461.00, 
2462.00, 
2463.00, 
2464.00, 
2465.00, 
2466.00, 
2467.00, 
2468.00, 
2469.00, 
2470.00, 
2471.00, 
2472.00, 
2473.00, 
2474.00, 
2475.00, 
2476.00, 
2477.00, 
2478.00, 
2479.00, 
2480.00, 
2481.00, 
2482.00, 
2483.00, 
2484.00, 
2485.00, 
2486.00, 
2487.00, 
2488.00, 
2489.00, 
2490.00, 
2491.00, 
2492.00, 
2493.00, 
2494.00, 
2495.00, 
2496.00, 
2497.00, 
2498.00, 
2499.00, 
2500.00, 
2501.00, 
2502.00, 
2503.00, 
2504.00, 
2505.00, 
2506.00, 
2507.00, 
2508.00, 
2509.00, 
2510.00, 
2511.00, 
2512.00, 
2513.00, 
2514.00, 
2515.00, 
2516.00, 
2517.00, 
2518.00, 
2519.00, 
2520.00, 
2521.00, 
2522.00, 
2523.00, 
2524.00, 
2525.00, 
2526.00, 
2527.00, 
2528.00, 
2529.00, 
2530.00, 
2531.00, 
2532.00, 
2533.00, 
2534.00, 
2535.00, 
2536.00, 
2537.00, 
2538.00, 
2539.00, 
2540.00, 
2541.00, 
2542.00, 
2543.00, 
2544.00, 
2545.00, 
2546.00, 
2547.00, 
2548.00, 
2549.00, 
2550.00, 
2551.00, 
2552.00, 
2553.00, 
2554.00, 
2555.00, 
2556.00, 
2557.00, 
2558.00, 
2559.00, 
2560.00, 
2561.00, 
2562.00, 
2563.00, 
2564.00, 
2565.00, 
2566.00, 
2567.00, 
2568.00, 
2569.00, 
2570.00, 
2571.00, 
2572.00, 
2573.00, 
2574.00, 
2575.00, 
2576.00, 
2577.00, 
2578.00, 
2579.00, 
2580.00, 
2581.00, 
2582.00, 
2583.00, 
2584.00, 
2585.00, 
2586.00, 
2587.00, 
2588.00, 
2589.00, 
2590.00, 
2591.00, 
2592.00, 
2593.00, 
2594.00, 
2595.00, 
2596.00, 
2597.00, 
2598.00, 
2599.00, 
2600.00, 
