"1cP4 - RawData"
"Wavelength nm.","T%"
200.00,-0.002
201.00,0.001
202.00,-0.002
203.00,0.003
204.00,0.000
205.00,0.002
206.00,-0.000
207.00,-0.000
208.00,0.001
209.00,0.003
210.00,0.002
211.00,0.001
212.00,0.003
213.00,0.001
214.00,0.001
215.00,0.001
216.00,0.002
217.00,-0.002
218.00,-0.000
219.00,0.005
220.00,-0.002
221.00,0.003
222.00,0.001
223.00,0.006
224.00,0.001
225.00,-0.001
226.00,0.000
227.00,0.002
228.00,0.001
229.00,0.000
230.00,0.002
231.00,-0.002
232.00,-0.001
233.00,-0.002
234.00,0.002
235.00,0.002
236.00,0.003
237.00,0.000
238.00,0.001
239.00,-0.001
240.00,0.002
241.00,0.000
242.00,-0.001
243.00,0.001
244.00,-0.000
245.00,0.000
246.00,0.001
247.00,0.002
248.00,0.001
249.00,-0.000
250.00,0.002
251.00,-0.001
252.00,0.001
253.00,0.001
254.00,0.000
255.00,0.001
256.00,-0.000
257.00,0.000
258.00,-0.001
259.00,-0.002
260.00,0.002
261.00,0.001
262.00,0.000
263.00,0.001
264.00,-0.000
265.00,0.000
266.00,-0.000
267.00,0.002
268.00,0.001
269.00,-0.002
270.00,0.001
271.00,0.001
272.00,0.000
273.00,-0.000
274.00,-0.001
275.00,0.001
276.00,-0.001
277.00,-0.000
278.00,-0.001
279.00,0.000
280.00,0.001
281.00,-0.000
282.00,0.001
283.00,0.001
284.00,0.002
285.00,0.001
286.00,-0.001
287.00,0.000
288.00,-0.001
289.00,0.002
290.00,0.000
291.00,-0.001
292.00,0.000
293.00,0.001
294.00,0.000
295.00,0.002
296.00,-0.001
297.00,0.000
298.00,0.002
299.00,0.001
300.00,0.000
301.00,-0.001
302.00,-0.000
303.00,0.001
304.00,-0.000
305.00,0.001
306.00,0.001
307.00,0.002
308.00,0.004
309.00,0.009
310.00,0.013
311.00,0.019
312.00,0.027
313.00,0.041
314.00,0.061
315.00,0.098
316.00,0.135
317.00,0.188
318.00,0.253
319.00,0.340
320.00,0.453
321.00,0.583
322.00,0.748
323.00,0.947
324.00,1.163
325.00,1.401
326.00,1.662
327.00,1.962
328.00,2.290
329.00,2.628
330.00,2.999
331.00,3.378
332.00,3.803
333.00,4.235
334.00,4.672
335.00,5.136
336.00,5.585
337.00,6.048
338.00,6.503
339.00,6.920
340.00,7.365
341.00,7.811
342.00,8.207
343.00,8.614
344.00,9.037
345.00,9.400
346.00,9.720
347.00,10.044
348.00,10.371
349.00,10.632
350.00,10.922
351.00,11.174
352.00,11.398
353.00,11.613
354.00,11.819
355.00,12.014
356.00,12.173
357.00,12.316
358.00,12.485
359.00,12.647
360.00,12.774
361.00,12.831
362.00,12.944
363.00,13.026
364.00,13.045
365.00,13.095
366.00,13.165
367.00,13.196
368.00,13.188
369.00,13.245
370.00,13.211
371.00,13.203
372.00,13.153
373.00,13.199
374.00,13.116
375.00,13.052
376.00,12.976
377.00,12.939
378.00,12.832
379.00,12.722
380.00,12.695
381.00,12.645
382.00,12.648
383.00,12.625
384.00,12.603
385.00,12.627
386.00,12.601
387.00,12.657
388.00,12.679
389.00,12.682
390.00,12.677
391.00,12.673
392.00,12.681
393.00,12.677
394.00,12.670
395.00,12.664
396.00,12.639
397.00,12.628
398.00,12.628
399.00,12.623
400.00,12.607
401.00,12.563
402.00,12.614
403.00,12.585
404.00,12.554
405.00,12.531
406.00,12.507
407.00,12.449
408.00,12.460
409.00,12.404
410.00,12.363
411.00,12.384
412.00,12.293
413.00,12.352
414.00,12.309
415.00,12.306
416.00,12.343
417.00,12.314
418.00,12.334
419.00,12.406
420.00,12.415
421.00,12.383
422.00,12.372
423.00,12.415
424.00,12.417
425.00,12.449
426.00,12.475
427.00,12.522
428.00,12.537
429.00,12.572
430.00,12.611
431.00,12.671
432.00,12.696
433.00,12.722
434.00,12.784
435.00,12.828
436.00,12.883
437.00,12.929
438.00,12.998
439.00,13.054
440.00,13.125
441.00,13.186
442.00,13.255
443.00,13.304
444.00,13.410
445.00,13.464
446.00,13.545
447.00,13.636
448.00,13.729
449.00,13.811
450.00,13.919
451.00,13.990
452.00,14.092
453.00,14.197
454.00,14.277
455.00,14.371
456.00,14.498
457.00,14.602
458.00,14.705
459.00,14.814
460.00,14.941
461.00,15.041
462.00,15.150
463.00,15.311
464.00,15.395
465.00,15.511
466.00,15.676
467.00,15.787
468.00,15.876
469.00,15.989
470.00,16.054
471.00,16.210
472.00,16.357
473.00,16.381
474.00,16.558
475.00,16.678
476.00,16.774
477.00,16.917
478.00,17.054
479.00,17.232
480.00,17.367
481.00,17.501
482.00,17.627
483.00,17.771
484.00,17.915
485.00,18.082
486.00,18.232
487.00,18.401
488.00,18.515
489.00,18.706
490.00,18.853
491.00,18.993
492.00,19.112
493.00,19.345
494.00,19.509
495.00,19.541
496.00,19.679
497.00,19.803
498.00,19.969
499.00,20.113
500.00,20.261
501.00,20.367
502.00,20.544
503.00,20.682
504.00,20.738
505.00,20.899
506.00,21.019
507.00,21.114
508.00,21.249
509.00,21.479
510.00,21.579
511.00,21.675
512.00,21.864
513.00,22.000
514.00,22.130
515.00,22.261
516.00,22.368
517.00,22.468
518.00,22.616
519.00,22.695
520.00,22.805
521.00,22.922
522.00,23.023
523.00,23.101
524.00,23.249
525.00,23.394
526.00,23.476
527.00,23.580
528.00,23.671
529.00,23.854
530.00,24.005
531.00,24.091
532.00,24.203
533.00,24.308
534.00,24.415
535.00,24.514
536.00,24.587
537.00,24.683
538.00,24.763
539.00,24.837
540.00,24.925
541.00,25.036
542.00,25.095
543.00,25.145
544.00,25.282
545.00,25.328
546.00,25.380
547.00,25.537
548.00,25.629
549.00,25.657
550.00,25.775
551.00,25.896
552.00,25.945
553.00,26.021
554.00,26.058
555.00,26.064
556.00,26.187
557.00,26.294
558.00,26.370
559.00,26.468
560.00,26.526
561.00,26.621
562.00,26.686
563.00,26.694
564.00,26.759
565.00,26.818
566.00,26.882
567.00,26.920
568.00,26.943
569.00,27.067
570.00,27.029
571.00,27.072
572.00,27.172
573.00,27.077
574.00,27.223
575.00,27.239
576.00,27.283
577.00,27.337
578.00,27.416
579.00,27.507
580.00,27.536
581.00,27.715
582.00,27.753
583.00,27.724
584.00,27.886
585.00,27.956
586.00,27.942
587.00,27.980
588.00,28.064
589.00,28.029
590.00,28.147
591.00,28.187
592.00,28.161
593.00,28.271
594.00,28.409
595.00,28.487
596.00,28.505
597.00,28.577
598.00,28.641
599.00,28.612
600.00,28.760
601.00,28.805
602.00,28.854
603.00,28.918
604.00,28.907
605.00,28.982
606.00,29.069
607.00,29.134
608.00,29.191
609.00,29.311
610.00,29.412
611.00,29.322
612.00,29.375
613.00,29.410
614.00,29.505
615.00,29.629
616.00,29.686
617.00,29.706
618.00,29.731
619.00,29.826
620.00,29.874
621.00,29.945
622.00,29.974
623.00,30.029
624.00,30.240
625.00,30.406
626.00,30.402
627.00,30.422
628.00,30.494
629.00,30.543
630.00,30.673
631.00,30.714
632.00,30.819
633.00,30.963
634.00,31.066
635.00,31.183
636.00,31.279
637.00,31.351
638.00,31.423
639.00,31.539
640.00,31.620
641.00,31.658
642.00,31.776
643.00,31.827
644.00,32.000
645.00,32.128
646.00,32.247
647.00,32.362
648.00,32.471
649.00,32.576
650.00,32.612
651.00,32.784
652.00,32.906
653.00,32.904
654.00,33.080
655.00,33.279
656.00,33.582
657.00,33.606
658.00,33.750
659.00,33.854
660.00,33.919
661.00,33.980
662.00,34.069
663.00,34.239
664.00,34.481
665.00,34.684
666.00,34.651
667.00,34.783
668.00,34.924
669.00,35.193
670.00,35.384
671.00,35.345
672.00,35.432
673.00,35.631
674.00,35.756
675.00,35.905
676.00,36.121
677.00,36.391
678.00,36.145
679.00,36.466
680.00,36.562
681.00,36.780
682.00,36.847
683.00,36.897
684.00,37.167
685.00,37.272
686.00,37.177
687.00,37.390
688.00,37.674
689.00,37.810
690.00,38.107
691.00,38.320
692.00,38.154
693.00,38.168
694.00,38.446
695.00,38.746
696.00,38.856
697.00,38.847
698.00,38.971
699.00,39.260
700.00,39.399
701.00,39.427
702.00,39.654
703.00,39.935
704.00,40.000
705.00,39.942
706.00,40.093
707.00,40.314
708.00,40.212
709.00,40.572
710.00,41.015
711.00,40.460
712.00,40.830
713.00,41.127
714.00,41.119
715.00,41.172
716.00,41.240
717.00,41.496
718.00,41.659
719.00,41.661
720.00,41.890
721.00,46.006
722.00,46.149
723.00,46.231
724.00,46.256
725.00,46.322
726.00,46.458
727.00,46.536
728.00,46.589
729.00,46.616
730.00,46.758
731.00,46.862
732.00,46.971
733.00,47.029
734.00,47.110
735.00,47.135
736.00,47.263
737.00,47.291
738.00,47.496
739.00,47.529
740.00,47.621
741.00,47.677
742.00,47.832
743.00,47.878
744.00,47.817
745.00,47.943
746.00,47.943
747.00,48.019
748.00,48.044
749.00,48.080
750.00,48.177
751.00,48.158
752.00,48.309
753.00,48.328
754.00,48.357
755.00,48.440
756.00,48.462
757.00,48.509
758.00,48.562
759.00,48.560
760.00,48.634
761.00,48.656
762.00,48.746
763.00,48.901
764.00,48.901
765.00,48.941
766.00,49.025
767.00,49.015
768.00,49.092
769.00,49.074
770.00,49.200
771.00,49.174
772.00,49.235
773.00,49.329
774.00,49.304
775.00,49.401
776.00,49.299
777.00,49.435
778.00,49.441
779.00,49.529
780.00,49.486
781.00,49.540
782.00,49.532
783.00,49.611
784.00,49.659
785.00,49.580
786.00,49.663
787.00,49.639
788.00,49.688
789.00,49.700
790.00,49.632
791.00,49.785
792.00,49.648
793.00,49.754
794.00,49.716
795.00,49.682
796.00,49.754
797.00,49.737
798.00,49.749
799.00,49.711
800.00,49.727
801.00,49.820
802.00,49.783
803.00,49.829
804.00,49.832
805.00,49.858
806.00,49.888
807.00,49.838
808.00,49.856
809.00,49.861
810.00,49.854
811.00,49.784
812.00,49.876
813.00,49.896
814.00,49.825
815.00,49.854
816.00,49.887
817.00,49.820
818.00,49.756
819.00,49.883
820.00,49.774
821.00,49.880
822.00,49.876
823.00,49.833
824.00,49.883
825.00,49.835
826.00,49.816
827.00,49.893
828.00,49.983
829.00,49.928
830.00,49.810
831.00,52.276
832.00,52.323
833.00,52.266
834.00,52.250
835.00,52.279
836.00,52.283
837.00,52.282
838.00,52.271
839.00,52.242
840.00,52.224
841.00,52.274
842.00,52.236
843.00,52.227
844.00,52.210
845.00,52.166
846.00,52.248
847.00,52.182
848.00,52.209
849.00,52.100
850.00,52.119
851.00,52.068
852.00,52.109
853.00,52.066
854.00,52.055
855.00,52.033
856.00,52.023
857.00,52.025
858.00,51.958
859.00,51.952
860.00,51.972
861.00,52.014
862.00,51.953
863.00,51.960
864.00,51.930
865.00,51.976
866.00,51.950
867.00,51.932
868.00,51.917
869.00,51.899
870.00,51.935
871.00,51.903
872.00,51.929
873.00,51.883
874.00,51.943
875.00,51.881
876.00,51.925
877.00,51.876
878.00,51.915
879.00,51.889
880.00,51.884
881.00,51.864
882.00,51.943
883.00,51.863
884.00,51.795
885.00,51.794
886.00,51.799
887.00,51.750
888.00,51.732
889.00,51.745
890.00,51.712
891.00,51.655
892.00,51.665
893.00,51.677
894.00,51.683
895.00,51.678
896.00,51.645
897.00,51.641
898.00,51.621
899.00,51.609
900.00,51.614
901.00,51.568
902.00,51.597
903.00,51.565
904.00,51.558
905.00,51.542
906.00,51.540
907.00,51.500
908.00,51.453
909.00,51.469
910.00,51.435
911.00,51.465
912.00,51.426
913.00,51.432
914.00,51.420
915.00,51.405
916.00,51.381
917.00,51.372
918.00,51.388
919.00,51.335
920.00,51.306
921.00,51.301
922.00,51.299
923.00,51.290
924.00,51.241
925.00,51.230
926.00,51.251
927.00,51.226
928.00,51.191
929.00,51.214
930.00,51.166
931.00,51.145
932.00,51.198
933.00,51.131
934.00,51.096
935.00,51.094
936.00,51.063
937.00,51.068
938.00,51.045
939.00,51.042
940.00,51.000
941.00,51.011
942.00,50.984
943.00,50.957
944.00,50.954
945.00,50.950
946.00,50.918
947.00,50.859
948.00,50.878
949.00,50.868
950.00,50.859
951.00,50.819
952.00,50.820
953.00,50.763
954.00,50.772
955.00,50.713
956.00,50.704
957.00,50.682
958.00,50.673
959.00,50.619
960.00,50.643
961.00,50.717
962.00,50.623
963.00,50.572
964.00,50.576
965.00,50.583
966.00,50.567
967.00,50.579
968.00,50.542
969.00,50.567
970.00,50.537
971.00,50.568
972.00,50.524
973.00,50.549
974.00,50.573
975.00,50.546
976.00,50.552
977.00,50.548
978.00,50.605
979.00,50.571
980.00,50.564
981.00,50.575
982.00,50.536
983.00,50.571
984.00,50.539
985.00,50.567
986.00,50.518
987.00,50.555
988.00,50.492
989.00,50.483
990.00,50.500
991.00,50.465
992.00,50.467
993.00,50.477
994.00,50.453
995.00,50.435
996.00,50.420
997.00,50.415
998.00,50.386
999.00,50.410
1000.00,50.361
1001.00,50.357
1002.00,50.361
1003.00,50.340
1004.00,50.335
1005.00,50.296
1006.00,50.334
1007.00,50.290
1008.00,50.280
1009.00,50.264
1010.00,50.263
1011.00,50.273
1012.00,50.230
1013.00,50.250
1014.00,50.199
1015.00,50.218
1016.00,50.185
1017.00,50.173
1018.00,50.177
1019.00,50.130
1020.00,50.138
1021.00,50.109
1022.00,50.133
1023.00,50.087
1024.00,50.090
1025.00,50.066
1026.00,50.062
1027.00,50.043
1028.00,50.029
1029.00,50.018
1030.00,49.982
1031.00,49.989
1032.00,49.949
1033.00,49.948
1034.00,49.931
1035.00,49.893
1036.00,49.861
1037.00,49.860
1038.00,49.861
1039.00,49.819
1040.00,49.816
1041.00,49.772
1042.00,49.776
1043.00,49.756
1044.00,49.798
1045.00,49.773
1046.00,49.764
1047.00,49.781
1048.00,49.797
1049.00,49.802
1050.00,49.796
1051.00,49.862
1052.00,49.829
1053.00,49.829
1054.00,49.859
1055.00,49.872
1056.00,49.880
1057.00,49.870
1058.00,49.853
1059.00,49.863
1060.00,49.886
1061.00,49.836
1062.00,49.837
1063.00,49.840
1064.00,49.827
1065.00,49.805
1066.00,49.821
1067.00,49.829
1068.00,49.859
1069.00,49.811
1070.00,49.786
1071.00,49.768
1072.00,49.796
1073.00,49.766
1074.00,49.770
1075.00,49.756
1076.00,49.761
1077.00,49.740
1078.00,49.727
1079.00,49.736
1080.00,49.733
1081.00,49.724
1082.00,49.731
1083.00,49.713
1084.00,49.709
1085.00,49.702
1086.00,49.686
1087.00,49.688
1088.00,49.672
1089.00,49.672
1090.00,49.667
1091.00,49.664
1092.00,49.643
1093.00,49.633
1094.00,49.598
1095.00,49.608
1096.00,49.577
1097.00,49.588
1098.00,49.578
1099.00,49.576
1100.00,49.567
1101.00,49.568
1102.00,49.541
1103.00,49.554
1104.00,49.543
1105.00,49.517
1106.00,49.496
1107.00,49.509
1108.00,49.496
1109.00,49.495
1110.00,49.491
1111.00,49.498
1112.00,49.493
1113.00,49.473
1114.00,49.472
1115.00,49.482
1116.00,49.443
1117.00,49.436
1118.00,49.424
1119.00,49.420
1120.00,49.414
1121.00,49.419
1122.00,49.399
1123.00,49.407
1124.00,49.381
1125.00,49.401
1126.00,49.390
1127.00,49.380
1128.00,49.378
1129.00,49.369
1130.00,49.375
1131.00,49.394
1132.00,49.376
1133.00,49.374
1134.00,49.338
1135.00,49.327
1136.00,49.338
1137.00,49.357
1138.00,49.331
1139.00,49.340
1140.00,49.323
1141.00,49.323
1142.00,49.311
1143.00,49.346
1144.00,49.310
1145.00,49.314
1146.00,49.295
1147.00,49.304
1148.00,49.293
1149.00,49.296
1150.00,49.300
1151.00,49.305
1152.00,49.294
1153.00,49.282
1154.00,49.271
1155.00,49.285
1156.00,49.282
1157.00,49.289
1158.00,49.272
1159.00,49.287
1160.00,49.263
1161.00,49.283
1162.00,49.269
1163.00,49.262
1164.00,49.272
1165.00,49.263
1166.00,49.269
1167.00,49.250
1168.00,49.267
1169.00,49.254
1170.00,49.256
1171.00,49.226
1172.00,49.242
1173.00,49.243
1174.00,49.247
1175.00,49.256
1176.00,49.255
1177.00,49.241
1178.00,49.248
1179.00,49.263
1180.00,49.242
1181.00,49.268
1182.00,49.244
1183.00,49.249
1184.00,49.237
1185.00,49.238
1186.00,49.236
1187.00,49.242
1188.00,49.258
1189.00,49.276
1190.00,49.239
1191.00,49.224
1192.00,49.261
1193.00,49.228
1194.00,49.240
1195.00,49.203
1196.00,49.237
1197.00,49.234
1198.00,49.218
1199.00,49.229
1200.00,49.226
1201.00,49.236
1202.00,49.224
1203.00,49.223
1204.00,49.206
1205.00,49.228
1206.00,49.227
1207.00,49.238
1208.00,49.226
1209.00,49.240
1210.00,49.251
1211.00,49.234
1212.00,49.255
1213.00,49.223
1214.00,49.250
1215.00,49.219
1216.00,49.238
1217.00,49.234
1218.00,49.212
1219.00,49.268
1220.00,49.245
1221.00,49.263
1222.00,49.251
1223.00,49.261
1224.00,49.258
1225.00,49.232
1226.00,49.238
1227.00,49.254
1228.00,49.265
1229.00,49.259
1230.00,49.283
1231.00,49.282
1232.00,49.310
1233.00,49.304
1234.00,49.304
1235.00,49.309
1236.00,49.312
1237.00,49.331
1238.00,49.306
1239.00,49.318
1240.00,49.287
1241.00,49.309
1242.00,49.303
1243.00,49.326
1244.00,49.307
1245.00,49.338
1246.00,49.350
1247.00,49.328
1248.00,49.329
1249.00,49.360
1250.00,49.367
1251.00,49.337
1252.00,49.369
1253.00,49.358
1254.00,49.390
1255.00,49.355
1256.00,49.344
1257.00,49.347
1258.00,49.398
1259.00,49.377
1260.00,49.413
1261.00,49.386
1262.00,49.379
1263.00,49.381
1264.00,49.396
1265.00,49.409
1266.00,49.416
1267.00,49.427
1268.00,49.427
1269.00,49.431
1270.00,49.445
1271.00,49.454
1272.00,49.451
1273.00,49.470
1274.00,49.466
1275.00,49.481
1276.00,49.466
1277.00,49.470
1278.00,49.471
1279.00,49.491
1280.00,49.484
1281.00,49.505
1282.00,49.524
1283.00,49.508
1284.00,49.517
1285.00,49.502
1286.00,49.520
1287.00,49.514
1288.00,49.539
1289.00,49.546
1290.00,49.589
1291.00,49.567
1292.00,49.559
1293.00,49.566
1294.00,49.573
1295.00,49.598
1296.00,49.587
1297.00,49.620
1298.00,49.669
1299.00,49.624
1300.00,49.646
1301.00,49.631
1302.00,49.669
1303.00,49.649
1304.00,49.647
1305.00,49.679
1306.00,49.671
1307.00,49.684
1308.00,49.686
1309.00,49.709
1310.00,49.700
1311.00,49.698
1312.00,49.713
1313.00,49.732
1314.00,49.745
1315.00,49.757
1316.00,49.755
1317.00,49.792
1318.00,49.787
1319.00,49.792
1320.00,49.783
1321.00,49.930
1322.00,49.919
1323.00,49.910
1324.00,49.900
1325.00,49.889
1326.00,49.919
1327.00,49.880
1328.00,49.911
1329.00,49.924
1330.00,49.940
1331.00,49.935
1332.00,49.938
1333.00,49.943
1334.00,49.977
1335.00,49.987
1336.00,50.012
1337.00,50.047
1338.00,50.120
1339.00,50.172
1340.00,50.210
1341.00,50.269
1342.00,50.344
1343.00,50.367
1344.00,50.424
1345.00,50.479
1346.00,50.511
1347.00,50.519
1348.00,50.548
1349.00,50.573
1350.00,50.592
1351.00,50.610
1352.00,50.651
1353.00,50.667
1354.00,50.665
1355.00,50.598
1356.00,50.659
1357.00,50.651
1358.00,50.709
1359.00,50.659
1360.00,50.688
1361.00,50.361
1362.00,50.619
1363.00,50.769
1364.00,50.802
1365.00,50.690
1366.00,50.823
1367.00,50.716
1368.00,50.652
1369.00,50.751
1370.00,50.694
1371.00,50.627
1372.00,50.667
1373.00,50.710
1374.00,50.728
1375.00,50.695
1376.00,50.687
1377.00,50.672
1378.00,50.775
1379.00,50.744
1380.00,50.773
1381.00,50.817
1382.00,50.663
1383.00,50.757
1384.00,50.674
1385.00,50.675
1386.00,50.785
1387.00,50.627
1388.00,50.706
1389.00,50.711
1390.00,50.728
1391.00,50.658
1392.00,50.685
1393.00,50.773
1394.00,50.711
1395.00,50.734
1396.00,50.653
1397.00,50.673
1398.00,50.743
1399.00,50.705
1400.00,50.691
1401.00,50.691
1402.00,50.945
1403.00,50.878
1404.00,50.768
1405.00,50.759
1406.00,50.778
1407.00,50.770
1408.00,50.767
1409.00,50.743
1410.00,50.799
1411.00,50.756
1412.00,50.860
1413.00,50.801
1414.00,50.752
1415.00,50.803
1416.00,50.843
1417.00,50.890
1418.00,50.839
1419.00,50.859
1420.00,50.874
1421.00,50.963
1422.00,50.934
1423.00,50.963
1424.00,50.961
1425.00,50.995
1426.00,50.998
1427.00,51.009
1428.00,50.997
1429.00,51.032
1430.00,51.042
1431.00,51.069
1432.00,51.078
1433.00,51.098
1434.00,51.086
1435.00,51.168
1436.00,51.173
1437.00,51.160
1438.00,51.169
1439.00,51.186
1440.00,51.215
1441.00,51.223
1442.00,51.234
1443.00,51.256
1444.00,51.328
1445.00,51.266
1446.00,51.327
1447.00,51.348
1448.00,51.432
1449.00,51.367
1450.00,51.402
1451.00,51.411
1452.00,51.444
1453.00,51.412
1454.00,51.455
1455.00,51.479
1456.00,51.508
1457.00,51.525
1458.00,51.551
1459.00,51.569
1460.00,51.601
1461.00,51.595
1462.00,51.626
1463.00,51.623
1464.00,51.661
1465.00,51.656
1466.00,51.658
1467.00,51.687
1468.00,51.752
1469.00,51.721
1470.00,51.758
1471.00,51.769
1472.00,51.767
1473.00,51.789
1474.00,51.817
1475.00,51.830
1476.00,51.835
1477.00,51.829
1478.00,51.876
1479.00,51.888
1480.00,51.875
1481.00,51.884
1482.00,51.932
1483.00,51.947
1484.00,51.969
1485.00,51.958
1486.00,51.987
1487.00,52.027
1488.00,52.040
1489.00,52.012
1490.00,52.044
1491.00,52.045
1492.00,52.078
1493.00,52.043
1494.00,52.101
1495.00,52.077
1496.00,52.107
1497.00,52.079
1498.00,52.099
1499.00,52.116
1500.00,52.130
1501.00, 
1502.00, 
1503.00, 
1504.00, 
1505.00, 
1506.00, 
1507.00, 
1508.00, 
1509.00, 
1510.00, 
1511.00, 
1512.00, 
1513.00, 
1514.00, 
1515.00, 
1516.00, 
1517.00, 
1518.00, 
1519.00, 
1520.00, 
1521.00, 
1522.00, 
1523.00, 
1524.00, 
1525.00, 
1526.00, 
1527.00, 
1528.00, 
1529.00, 
1530.00, 
1531.00, 
1532.00, 
1533.00, 
1534.00, 
1535.00, 
1536.00, 
1537.00, 
1538.00, 
1539.00, 
1540.00, 
1541.00, 
1542.00, 
1543.00, 
1544.00, 
1545.00, 
1546.00, 
1547.00, 
1548.00, 
1549.00, 
1550.00, 
1551.00, 
1552.00, 
1553.00, 
1554.00, 
1555.00, 
1556.00, 
1557.00, 
1558.00, 
1559.00, 
1560.00, 
1561.00, 
1562.00, 
1563.00, 
1564.00, 
1565.00, 
1566.00, 
1567.00, 
1568.00, 
1569.00, 
1570.00, 
1571.00, 
1572.00, 
1573.00, 
1574.00, 
1575.00, 
1576.00, 
1577.00, 
1578.00, 
1579.00, 
1580.00, 
1581.00, 
1582.00, 
1583.00, 
1584.00, 
1585.00, 
1586.00, 
1587.00, 
1588.00, 
1589.00, 
1590.00, 
1591.00, 
1592.00, 
1593.00, 
1594.00, 
1595.00, 
1596.00, 
1597.00, 
1598.00, 
1599.00, 
1600.00, 
1601.00, 
1602.00, 
1603.00, 
1604.00, 
1605.00, 
1606.00, 
1607.00, 
1608.00, 
1609.00, 
1610.00, 
1611.00, 
1612.00, 
1613.00, 
1614.00, 
1615.00, 
1616.00, 
1617.00, 
1618.00, 
1619.00, 
1620.00, 
1621.00, 
1622.00, 
1623.00, 
1624.00, 
1625.00, 
1626.00, 
1627.00, 
1628.00, 
1629.00, 
1630.00, 
1631.00, 
1632.00, 
1633.00, 
1634.00, 
1635.00, 
1636.00, 
1637.00, 
1638.00, 
1639.00, 
1640.00, 
1641.00, 
1642.00, 
1643.00, 
1644.00, 
1645.00, 
1646.00, 
1647.00, 
1648.00, 
1649.00, 
1650.00, 
1651.00, 
1652.00, 
1653.00, 
1654.00, 
1655.00, 
1656.00, 
1657.00, 
1658.00, 
1659.00, 
1660.00, 
1661.00, 
1662.00, 
1663.00, 
1664.00, 
1665.00, 
1666.00, 
1667.00, 
1668.00, 
1669.00, 
1670.00, 
1671.00, 
1672.00, 
1673.00, 
1674.00, 
1675.00, 
1676.00, 
1677.00, 
1678.00, 
1679.00, 
1680.00, 
1681.00, 
1682.00, 
1683.00, 
1684.00, 
1685.00, 
1686.00, 
1687.00, 
1688.00, 
1689.00, 
1690.00, 
1691.00, 
1692.00, 
1693.00, 
1694.00, 
1695.00, 
1696.00, 
1697.00, 
1698.00, 
1699.00, 
1700.00, 
1701.00, 
1702.00, 
1703.00, 
1704.00, 
1705.00, 
1706.00, 
1707.00, 
1708.00, 
1709.00, 
1710.00, 
1711.00, 
1712.00, 
1713.00, 
1714.00, 
1715.00, 
1716.00, 
1717.00, 
1718.00, 
1719.00, 
1720.00, 
1721.00, 
1722.00, 
1723.00, 
1724.00, 
1725.00, 
1726.00, 
1727.00, 
1728.00, 
1729.00, 
1730.00, 
1731.00, 
1732.00, 
1733.00, 
1734.00, 
1735.00, 
1736.00, 
1737.00, 
1738.00, 
1739.00, 
1740.00, 
1741.00, 
1742.00, 
1743.00, 
1744.00, 
1745.00, 
1746.00, 
1747.00, 
1748.00, 
1749.00, 
1750.00, 
1751.00, 
1752.00, 
1753.00, 
1754.00, 
1755.00, 
1756.00, 
1757.00, 
1758.00, 
1759.00, 
1760.00, 
1761.00, 
1762.00, 
1763.00, 
1764.00, 
1765.00, 
1766.00, 
1767.00, 
1768.00, 
1769.00, 
1770.00, 
1771.00, 
1772.00, 
1773.00, 
1774.00, 
1775.00, 
1776.00, 
1777.00, 
1778.00, 
1779.00, 
1780.00, 
1781.00, 
1782.00, 
1783.00, 
1784.00, 
1785.00, 
1786.00, 
1787.00, 
1788.00, 
1789.00, 
1790.00, 
1791.00, 
1792.00, 
1793.00, 
1794.00, 
1795.00, 
1796.00, 
1797.00, 
1798.00, 
1799.00, 
1800.00, 
1801.00, 
1802.00, 
1803.00, 
1804.00, 
1805.00, 
1806.00, 
1807.00, 
1808.00, 
1809.00, 
1810.00, 
1811.00, 
1812.00, 
1813.00, 
1814.00, 
1815.00, 
1816.00, 
1817.00, 
1818.00, 
1819.00, 
1820.00, 
1821.00, 
1822.00, 
1823.00, 
1824.00, 
1825.00, 
1826.00, 
1827.00, 
1828.00, 
1829.00, 
1830.00, 
1831.00, 
1832.00, 
1833.00, 
1834.00, 
1835.00, 
1836.00, 
1837.00, 
1838.00, 
1839.00, 
1840.00, 
1841.00, 
1842.00, 
1843.00, 
1844.00, 
1845.00, 
1846.00, 
1847.00, 
1848.00, 
1849.00, 
1850.00, 
1851.00, 
1852.00, 
1853.00, 
1854.00, 
1855.00, 
1856.00, 
1857.00, 
1858.00, 
1859.00, 
1860.00, 
1861.00, 
1862.00, 
1863.00, 
1864.00, 
1865.00, 
1866.00, 
1867.00, 
1868.00, 
1869.00, 
1870.00, 
1871.00, 
1872.00, 
1873.00, 
1874.00, 
1875.00, 
1876.00, 
1877.00, 
1878.00, 
1879.00, 
1880.00, 
1881.00, 
1882.00, 
1883.00, 
1884.00, 
1885.00, 
1886.00, 
1887.00, 
1888.00, 
1889.00, 
1890.00, 
1891.00, 
1892.00, 
1893.00, 
1894.00, 
1895.00, 
1896.00, 
1897.00, 
1898.00, 
1899.00, 
1900.00, 
1901.00, 
1902.00, 
1903.00, 
1904.00, 
1905.00, 
1906.00, 
1907.00, 
1908.00, 
1909.00, 
1910.00, 
1911.00, 
1912.00, 
1913.00, 
1914.00, 
1915.00, 
1916.00, 
1917.00, 
1918.00, 
1919.00, 
1920.00, 
1921.00, 
1922.00, 
1923.00, 
1924.00, 
1925.00, 
1926.00, 
1927.00, 
1928.00, 
1929.00, 
1930.00, 
1931.00, 
1932.00, 
1933.00, 
1934.00, 
1935.00, 
1936.00, 
1937.00, 
1938.00, 
1939.00, 
1940.00, 
1941.00, 
1942.00, 
1943.00, 
1944.00, 
1945.00, 
1946.00, 
1947.00, 
1948.00, 
1949.00, 
1950.00, 
1951.00, 
1952.00, 
1953.00, 
1954.00, 
1955.00, 
1956.00, 
1957.00, 
1958.00, 
1959.00, 
1960.00, 
1961.00, 
1962.00, 
1963.00, 
1964.00, 
1965.00, 
1966.00, 
1967.00, 
1968.00, 
1969.00, 
1970.00, 
1971.00, 
1972.00, 
1973.00, 
1974.00, 
1975.00, 
1976.00, 
1977.00, 
1978.00, 
1979.00, 
1980.00, 
1981.00, 
1982.00, 
1983.00, 
1984.00, 
1985.00, 
1986.00, 
1987.00, 
1988.00, 
1989.00, 
1990.00, 
1991.00, 
1992.00, 
1993.00, 
1994.00, 
1995.00, 
1996.00, 
1997.00, 
1998.00, 
1999.00, 
2000.00, 
2001.00, 
2002.00, 
2003.00, 
2004.00, 
2005.00, 
2006.00, 
2007.00, 
2008.00, 
2009.00, 
2010.00, 
2011.00, 
2012.00, 
2013.00, 
2014.00, 
2015.00, 
2016.00, 
2017.00, 
2018.00, 
2019.00, 
2020.00, 
2021.00, 
2022.00, 
2023.00, 
2024.00, 
2025.00, 
2026.00, 
2027.00, 
2028.00, 
2029.00, 
2030.00, 
2031.00, 
2032.00, 
2033.00, 
2034.00, 
2035.00, 
2036.00, 
2037.00, 
2038.00, 
2039.00, 
2040.00, 
2041.00, 
2042.00, 
2043.00, 
2044.00, 
2045.00, 
2046.00, 
2047.00, 
2048.00, 
2049.00, 
2050.00, 
2051.00, 
2052.00, 
2053.00, 
2054.00, 
2055.00, 
2056.00, 
2057.00, 
2058.00, 
2059.00, 
2060.00, 
2061.00, 
2062.00, 
2063.00, 
2064.00, 
2065.00, 
2066.00, 
2067.00, 
2068.00, 
2069.00, 
2070.00, 
2071.00, 
2072.00, 
2073.00, 
2074.00, 
2075.00, 
2076.00, 
2077.00, 
2078.00, 
2079.00, 
2080.00, 
2081.00, 
2082.00, 
2083.00, 
2084.00, 
2085.00, 
2086.00, 
2087.00, 
2088.00, 
2089.00, 
2090.00, 
2091.00, 
2092.00, 
2093.00, 
2094.00, 
2095.00, 
2096.00, 
2097.00, 
2098.00, 
2099.00, 
2100.00, 
2101.00, 
2102.00, 
2103.00, 
2104.00, 
2105.00, 
2106.00, 
2107.00, 
2108.00, 
2109.00, 
2110.00, 
2111.00, 
2112.00, 
2113.00, 
2114.00, 
2115.00, 
2116.00, 
2117.00, 
2118.00, 
2119.00, 
2120.00, 
2121.00, 
2122.00, 
2123.00, 
2124.00, 
2125.00, 
2126.00, 
2127.00, 
2128.00, 
2129.00, 
2130.00, 
2131.00, 
2132.00, 
2133.00, 
2134.00, 
2135.00, 
2136.00, 
2137.00, 
2138.00, 
2139.00, 
2140.00, 
2141.00, 
2142.00, 
2143.00, 
2144.00, 
2145.00, 
2146.00, 
2147.00, 
2148.00, 
2149.00, 
2150.00, 
2151.00, 
2152.00, 
2153.00, 
2154.00, 
2155.00, 
2156.00, 
2157.00, 
2158.00, 
2159.00, 
2160.00, 
2161.00, 
2162.00, 
2163.00, 
2164.00, 
2165.00, 
2166.00, 
2167.00, 
2168.00, 
2169.00, 
2170.00, 
2171.00, 
2172.00, 
2173.00, 
2174.00, 
2175.00, 
2176.00, 
2177.00, 
2178.00, 
2179.00, 
2180.00, 
2181.00, 
2182.00, 
2183.00, 
2184.00, 
2185.00, 
2186.00, 
2187.00, 
2188.00, 
2189.00, 
2190.00, 
2191.00, 
2192.00, 
2193.00, 
2194.00, 
2195.00, 
2196.00, 
2197.00, 
2198.00, 
2199.00, 
2200.00, 
2201.00, 
2202.00, 
2203.00, 
2204.00, 
2205.00, 
2206.00, 
2207.00, 
2208.00, 
2209.00, 
2210.00, 
2211.00, 
2212.00, 
2213.00, 
2214.00, 
2215.00, 
2216.00, 
2217.00, 
2218.00, 
2219.00, 
2220.00, 
2221.00, 
2222.00, 
2223.00, 
2224.00, 
2225.00, 
2226.00, 
2227.00, 
2228.00, 
2229.00, 
2230.00, 
2231.00, 
2232.00, 
2233.00, 
2234.00, 
2235.00, 
2236.00, 
2237.00, 
2238.00, 
2239.00, 
2240.00, 
2241.00, 
2242.00, 
2243.00, 
2244.00, 
2245.00, 
2246.00, 
2247.00, 
2248.00, 
2249.00, 
2250.00, 
2251.00, 
2252.00, 
2253.00, 
2254.00, 
2255.00, 
2256.00, 
2257.00, 
2258.00, 
2259.00, 
2260.00, 
2261.00, 
2262.00, 
2263.00, 
2264.00, 
2265.00, 
2266.00, 
2267.00, 
2268.00, 
2269.00, 
2270.00, 
2271.00, 
2272.00, 
2273.00, 
2274.00, 
2275.00, 
2276.00, 
2277.00, 
2278.00, 
2279.00, 
2280.00, 
2281.00, 
2282.00, 
2283.00, 
2284.00, 
2285.00, 
2286.00, 
2287.00, 
2288.00, 
2289.00, 
2290.00, 
2291.00, 
2292.00, 
2293.00, 
2294.00, 
2295.00, 
2296.00, 
2297.00, 
2298.00, 
2299.00, 
2300.00, 
2301.00, 
2302.00, 
2303.00, 
2304.00, 
2305.00, 
2306.00, 
2307.00, 
2308.00, 
2309.00, 
2310.00, 
2311.00, 
2312.00, 
2313.00, 
2314.00, 
2315.00, 
2316.00, 
2317.00, 
2318.00, 
2319.00, 
2320.00, 
2321.00, 
2322.00, 
2323.00, 
2324.00, 
2325.00, 
2326.00, 
2327.00, 
2328.00, 
2329.00, 
2330.00, 
2331.00, 
2332.00, 
2333.00, 
2334.00, 
2335.00, 
2336.00, 
2337.00, 
2338.00, 
2339.00, 
2340.00, 
2341.00, 
2342.00, 
2343.00, 
2344.00, 
2345.00, 
2346.00, 
2347.00, 
2348.00, 
2349.00, 
2350.00, 
2351.00, 
2352.00, 
2353.00, 
2354.00, 
2355.00, 
2356.00, 
2357.00, 
2358.00, 
2359.00, 
2360.00, 
2361.00, 
2362.00, 
2363.00, 
2364.00, 
2365.00, 
2366.00, 
2367.00, 
2368.00, 
2369.00, 
2370.00, 
2371.00, 
2372.00, 
2373.00, 
2374.00, 
2375.00, 
2376.00, 
2377.00, 
2378.00, 
2379.00, 
2380.00, 
2381.00, 
2382.00, 
2383.00, 
2384.00, 
2385.00, 
2386.00, 
2387.00, 
2388.00, 
2389.00, 
2390.00, 
2391.00, 
2392.00, 
2393.00, 
2394.00, 
2395.00, 
2396.00, 
2397.00, 
2398.00, 
2399.00, 
2400.00, 
2401.00, 
2402.00, 
2403.00, 
2404.00, 
2405.00, 
2406.00, 
2407.00, 
2408.00, 
2409.00, 
2410.00, 
2411.00, 
2412.00, 
2413.00, 
2414.00, 
2415.00, 
2416.00, 
2417.00, 
2418.00, 
2419.00, 
2420.00, 
2421.00, 
2422.00, 
2423.00, 
2424.00, 
2425.00, 
2426.00, 
2427.00, 
2428.00, 
2429.00, 
2430.00, 
2431.00, 
2432.00, 
2433.00, 
2434.00, 
2435.00, 
2436.00, 
2437.00, 
2438.00, 
2439.00, 
2440.00, 
2441.00, 
2442.00, 
2443.00, 
2444.00, 
2445.00, 
2446.00, 
2447.00, 
2448.00, 
2449.00, 
2450.00, 
2451.00, 
2452.00, 
2453.00, 
2454.00, 
2455.00, 
2456.00, 
2457.00, 
2458.00, 
2459.00, 
2460.00, 
2461.00, 
2462.00, 
2463.00, 
2464.00, 
2465.00, 
2466.00, 
2467.00, 
2468.00, 
2469.00, 
2470.00, 
2471.00, 
2472.00, 
2473.00, 
2474.00, 
2475.00, 
2476.00, 
2477.00, 
2478.00, 
2479.00, 
2480.00, 
2481.00, 
2482.00, 
2483.00, 
2484.00, 
2485.00, 
2486.00, 
2487.00, 
2488.00, 
2489.00, 
2490.00, 
2491.00, 
2492.00, 
2493.00, 
2494.00, 
2495.00, 
2496.00, 
2497.00, 
2498.00, 
2499.00, 
2500.00, 
2501.00, 
2502.00, 
2503.00, 
2504.00, 
2505.00, 
2506.00, 
2507.00, 
2508.00, 
2509.00, 
2510.00, 
2511.00, 
2512.00, 
2513.00, 
2514.00, 
2515.00, 
2516.00, 
2517.00, 
2518.00, 
2519.00, 
2520.00, 
2521.00, 
2522.00, 
2523.00, 
2524.00, 
2525.00, 
2526.00, 
2527.00, 
2528.00, 
2529.00, 
2530.00, 
2531.00, 
2532.00, 
2533.00, 
2534.00, 
2535.00, 
2536.00, 
2537.00, 
2538.00, 
2539.00, 
2540.00, 
2541.00, 
2542.00, 
2543.00, 
2544.00, 
2545.00, 
2546.00, 
2547.00, 
2548.00, 
2549.00, 
2550.00, 
2551.00, 
2552.00, 
2553.00, 
2554.00, 
2555.00, 
2556.00, 
2557.00, 
2558.00, 
2559.00, 
2560.00, 
2561.00, 
2562.00, 
2563.00, 
2564.00, 
2565.00, 
2566.00, 
2567.00, 
2568.00, 
2569.00, 
2570.00, 
2571.00, 
2572.00, 
2573.00, 
2574.00, 
2575.00, 
2576.00, 
2577.00, 
2578.00, 
2579.00, 
2580.00, 
2581.00, 
2582.00, 
2583.00, 
2584.00, 
2585.00, 
2586.00, 
2587.00, 
2588.00, 
2589.00, 
2590.00, 
2591.00, 
2592.00, 
2593.00, 
2594.00, 
2595.00, 
2596.00, 
2597.00, 
2598.00, 
2599.00, 
2600.00, 
