"2aP2 - RawData"
"Wavelength nm.","T%"
200.00,0.001
201.00,-0.002
202.00,0.000
203.00,0.001
204.00,0.004
205.00,0.001
206.00,0.001
207.00,-0.003
208.00,-0.001
209.00,-0.001
210.00,0.000
211.00,-0.001
212.00,-0.000
213.00,0.002
214.00,-0.000
215.00,-0.002
216.00,-0.000
217.00,0.002
218.00,0.000
219.00,0.003
220.00,0.003
221.00,0.002
222.00,-0.000
223.00,0.001
224.00,0.001
225.00,-0.000
226.00,0.001
227.00,0.004
228.00,0.002
229.00,0.001
230.00,-0.000
231.00,0.001
232.00,0.000
233.00,-0.001
234.00,0.000
235.00,0.001
236.00,0.001
237.00,0.001
238.00,-0.000
239.00,0.000
240.00,0.001
241.00,-0.000
242.00,0.000
243.00,0.001
244.00,0.000
245.00,0.001
246.00,0.001
247.00,0.002
248.00,-0.001
249.00,0.000
250.00,0.002
251.00,0.002
252.00,0.001
253.00,0.002
254.00,0.000
255.00,-0.001
256.00,0.002
257.00,0.001
258.00,-0.000
259.00,0.001
260.00,-0.000
261.00,-0.000
262.00,0.000
263.00,-0.000
264.00,-0.000
265.00,0.002
266.00,0.000
267.00,-0.000
268.00,0.001
269.00,0.001
270.00,0.001
271.00,0.000
272.00,-0.001
273.00,0.001
274.00,-0.000
275.00,-0.001
276.00,0.002
277.00,-0.000
278.00,0.000
279.00,-0.000
280.00,0.001
281.00,0.001
282.00,0.002
283.00,0.000
284.00,0.001
285.00,0.001
286.00,0.001
287.00,0.002
288.00,-0.001
289.00,-0.001
290.00,0.001
291.00,0.001
292.00,-0.000
293.00,0.000
294.00,0.001
295.00,-0.001
296.00,0.001
297.00,-0.000
298.00,0.001
299.00,0.001
300.00,0.004
301.00,0.002
302.00,0.003
303.00,0.004
304.00,0.006
305.00,0.010
306.00,0.016
307.00,0.022
308.00,0.034
309.00,0.054
310.00,0.075
311.00,0.098
312.00,0.128
313.00,0.179
314.00,0.238
315.00,0.307
316.00,0.401
317.00,0.496
318.00,0.606
319.00,0.740
320.00,0.893
321.00,1.065
322.00,1.256
323.00,1.473
324.00,1.713
325.00,1.941
326.00,2.185
327.00,2.457
328.00,2.740
329.00,3.021
330.00,3.333
331.00,3.616
332.00,3.925
333.00,4.234
334.00,4.550
335.00,4.876
336.00,5.161
337.00,5.471
338.00,5.750
339.00,6.010
340.00,6.311
341.00,6.619
342.00,6.862
343.00,7.096
344.00,7.381
345.00,7.584
346.00,7.785
347.00,7.953
348.00,8.138
349.00,8.314
350.00,8.477
351.00,8.613
352.00,8.726
353.00,8.869
354.00,8.979
355.00,9.084
356.00,9.171
357.00,9.233
358.00,9.332
359.00,9.431
360.00,9.508
361.00,9.531
362.00,9.588
363.00,9.626
364.00,9.608
365.00,9.642
366.00,9.661
367.00,9.671
368.00,9.658
369.00,9.660
370.00,9.670
371.00,9.650
372.00,9.614
373.00,9.620
374.00,9.580
375.00,9.538
376.00,9.498
377.00,9.452
378.00,9.412
379.00,9.345
380.00,9.305
381.00,9.285
382.00,9.247
383.00,9.221
384.00,9.215
385.00,9.212
386.00,9.169
387.00,9.184
388.00,9.170
389.00,9.149
390.00,9.139
391.00,9.123
392.00,9.097
393.00,9.075
394.00,9.071
395.00,9.079
396.00,9.044
397.00,9.045
398.00,9.027
399.00,9.014
400.00,8.978
401.00,8.973
402.00,8.981
403.00,8.982
404.00,8.935
405.00,8.923
406.00,8.926
407.00,8.902
408.00,8.890
409.00,8.853
410.00,8.817
411.00,8.824
412.00,8.800
413.00,8.818
414.00,8.812
415.00,8.792
416.00,8.816
417.00,8.800
418.00,8.818
419.00,8.873
420.00,8.890
421.00,8.865
422.00,8.875
423.00,8.910
424.00,8.927
425.00,8.944
426.00,8.940
427.00,8.992
428.00,9.029
429.00,9.042
430.00,9.095
431.00,9.149
432.00,9.167
433.00,9.201
434.00,9.263
435.00,9.309
436.00,9.364
437.00,9.405
438.00,9.456
439.00,9.516
440.00,9.571
441.00,9.651
442.00,9.708
443.00,9.730
444.00,9.831
445.00,9.866
446.00,9.965
447.00,10.045
448.00,10.135
449.00,10.202
450.00,10.293
451.00,10.365
452.00,10.446
453.00,10.545
454.00,10.608
455.00,10.714
456.00,10.834
457.00,10.910
458.00,10.979
459.00,11.113
460.00,11.202
461.00,11.329
462.00,11.428
463.00,11.544
464.00,11.647
465.00,11.767
466.00,11.908
467.00,11.993
468.00,12.093
469.00,12.205
470.00,12.319
471.00,12.408
472.00,12.527
473.00,12.614
474.00,12.757
475.00,12.848
476.00,12.957
477.00,13.098
478.00,13.221
479.00,13.361
480.00,13.502
481.00,13.631
482.00,13.760
483.00,13.900
484.00,14.048
485.00,14.196
486.00,14.334
487.00,14.497
488.00,14.632
489.00,14.779
490.00,14.914
491.00,15.068
492.00,15.184
493.00,15.383
494.00,15.530
495.00,15.611
496.00,15.732
497.00,15.882
498.00,16.060
499.00,16.147
500.00,16.258
501.00,16.405
502.00,16.514
503.00,16.738
504.00,16.825
505.00,16.958
506.00,17.103
507.00,17.206
508.00,17.329
509.00,17.516
510.00,17.634
511.00,17.768
512.00,17.921
513.00,18.067
514.00,18.204
515.00,18.335
516.00,18.428
517.00,18.548
518.00,18.705
519.00,18.775
520.00,18.912
521.00,19.024
522.00,19.134
523.00,19.197
524.00,19.304
525.00,19.455
526.00,19.581
527.00,19.664
528.00,19.774
529.00,19.944
530.00,20.069
531.00,20.153
532.00,20.281
533.00,20.393
534.00,20.491
535.00,20.602
536.00,20.684
537.00,20.779
538.00,20.850
539.00,20.987
540.00,21.049
541.00,21.160
542.00,21.240
543.00,21.286
544.00,21.418
545.00,21.484
546.00,21.549
547.00,21.694
548.00,21.772
549.00,21.836
550.00,21.925
551.00,22.029
552.00,22.126
553.00,22.193
554.00,22.259
555.00,22.303
556.00,22.415
557.00,22.481
558.00,22.527
559.00,22.596
560.00,22.743
561.00,22.768
562.00,22.863
563.00,22.940
564.00,22.969
565.00,23.048
566.00,23.079
567.00,23.168
568.00,23.199
569.00,23.270
570.00,23.344
571.00,23.373
572.00,23.436
573.00,23.454
574.00,23.493
575.00,23.550
576.00,23.589
577.00,23.671
578.00,23.728
579.00,23.809
580.00,23.885
581.00,24.035
582.00,24.042
583.00,24.083
584.00,24.185
585.00,24.273
586.00,24.358
587.00,24.362
588.00,24.340
589.00,24.337
590.00,24.543
591.00,24.639
592.00,24.578
593.00,24.683
594.00,24.801
595.00,24.864
596.00,24.916
597.00,25.032
598.00,25.090
599.00,25.049
600.00,25.169
601.00,25.244
602.00,25.329
603.00,25.346
604.00,25.355
605.00,25.379
606.00,25.520
607.00,25.629
608.00,25.675
609.00,25.767
610.00,25.884
611.00,25.821
612.00,25.902
613.00,26.008
614.00,26.040
615.00,26.067
616.00,26.165
617.00,26.294
618.00,26.407
619.00,26.432
620.00,26.485
621.00,26.538
622.00,26.689
623.00,26.767
624.00,26.858
625.00,26.982
626.00,27.051
627.00,27.088
628.00,27.220
629.00,27.287
630.00,27.332
631.00,27.365
632.00,27.555
633.00,27.695
634.00,27.819
635.00,27.904
636.00,28.047
637.00,28.176
638.00,28.271
639.00,28.393
640.00,28.439
641.00,28.544
642.00,28.650
643.00,28.792
644.00,28.938
645.00,29.025
646.00,29.195
647.00,29.320
648.00,29.467
649.00,29.569
650.00,29.614
651.00,29.783
652.00,29.940
653.00,30.003
654.00,30.153
655.00,30.366
656.00,30.638
657.00,30.664
658.00,31.007
659.00,30.895
660.00,31.070
661.00,31.220
662.00,31.312
663.00,31.488
664.00,31.765
665.00,31.957
666.00,31.947
667.00,32.058
668.00,32.228
669.00,32.505
670.00,32.721
671.00,32.718
672.00,32.864
673.00,33.023
674.00,33.204
675.00,33.407
676.00,33.551
677.00,33.903
678.00,33.767
679.00,33.959
680.00,34.197
681.00,34.469
682.00,34.519
683.00,34.640
684.00,34.915
685.00,35.019
686.00,34.978
687.00,35.273
688.00,35.462
689.00,35.623
690.00,35.903
691.00,36.179
692.00,36.088
693.00,36.143
694.00,36.408
695.00,36.782
696.00,36.863
697.00,36.931
698.00,37.112
699.00,37.466
700.00,37.589
701.00,37.639
702.00,37.802
703.00,38.118
704.00,38.239
705.00,38.205
706.00,38.388
707.00,38.563
708.00,38.527
709.00,39.008
710.00,39.400
711.00,39.167
712.00,39.326
713.00,39.622
714.00,39.694
715.00,39.793
716.00,39.889
717.00,40.131
718.00,40.352
719.00,40.327
720.00,40.607
721.00,44.765
722.00,44.866
723.00,44.919
724.00,45.109
725.00,45.117
726.00,45.248
727.00,45.415
728.00,45.463
729.00,45.600
730.00,45.775
731.00,45.886
732.00,45.965
733.00,46.116
734.00,46.143
735.00,46.376
736.00,46.424
737.00,46.575
738.00,46.704
739.00,46.822
740.00,46.892
741.00,47.016
742.00,47.180
743.00,47.198
744.00,47.290
745.00,47.387
746.00,47.401
747.00,47.489
748.00,47.585
749.00,47.632
750.00,47.761
751.00,47.779
752.00,47.913
753.00,48.009
754.00,48.029
755.00,48.165
756.00,48.096
757.00,48.312
758.00,48.264
759.00,48.374
760.00,48.532
761.00,48.565
762.00,48.596
763.00,48.798
764.00,48.786
765.00,48.841
766.00,48.920
767.00,49.005
768.00,49.072
769.00,49.082
770.00,49.251
771.00,49.315
772.00,49.328
773.00,49.435
774.00,49.493
775.00,49.576
776.00,49.536
777.00,49.656
778.00,49.613
779.00,49.793
780.00,49.790
781.00,49.788
782.00,49.803
783.00,49.877
784.00,49.969
785.00,49.974
786.00,50.019
787.00,49.978
788.00,50.077
789.00,50.150
790.00,50.107
791.00,50.213
792.00,50.194
793.00,50.253
794.00,50.204
795.00,50.219
796.00,50.333
797.00,50.310
798.00,50.315
799.00,50.352
800.00,50.361
801.00,50.472
802.00,50.436
803.00,50.518
804.00,50.476
805.00,50.498
806.00,50.574
807.00,50.596
808.00,50.590
809.00,50.600
810.00,50.647
811.00,50.537
812.00,50.672
813.00,50.578
814.00,50.644
815.00,50.658
816.00,50.652
817.00,50.620
818.00,50.652
819.00,50.688
820.00,50.665
821.00,50.783
822.00,50.746
823.00,50.717
824.00,50.717
825.00,50.706
826.00,50.713
827.00,50.819
828.00,50.811
829.00,50.813
830.00,50.801
831.00,53.059
832.00,53.090
833.00,53.039
834.00,53.011
835.00,53.046
836.00,53.055
837.00,53.075
838.00,53.076
839.00,53.062
840.00,53.037
841.00,53.100
842.00,53.079
843.00,53.088
844.00,53.075
845.00,53.002
846.00,53.096
847.00,53.038
848.00,53.187
849.00,53.004
850.00,53.007
851.00,52.955
852.00,53.020
853.00,52.984
854.00,52.988
855.00,52.946
856.00,52.964
857.00,52.949
858.00,52.877
859.00,52.879
860.00,52.908
861.00,52.934
862.00,52.897
863.00,52.912
864.00,52.891
865.00,52.915
866.00,52.911
867.00,52.922
868.00,52.902
869.00,52.927
870.00,52.954
871.00,52.902
872.00,52.952
873.00,52.898
874.00,52.928
875.00,52.891
876.00,52.942
877.00,52.870
878.00,52.904
879.00,53.024
880.00,52.911
881.00,52.892
882.00,52.952
883.00,52.886
884.00,52.843
885.00,52.850
886.00,52.858
887.00,52.804
888.00,52.816
889.00,52.778
890.00,52.781
891.00,52.747
892.00,52.743
893.00,52.748
894.00,52.748
895.00,52.726
896.00,52.715
897.00,52.711
898.00,52.710
899.00,52.698
900.00,52.704
901.00,52.686
902.00,52.708
903.00,52.667
904.00,52.651
905.00,52.657
906.00,52.651
907.00,52.637
908.00,52.586
909.00,52.573
910.00,52.543
911.00,52.561
912.00,52.553
913.00,52.537
914.00,52.541
915.00,52.526
916.00,52.476
917.00,52.465
918.00,52.485
919.00,52.439
920.00,52.394
921.00,52.391
922.00,52.386
923.00,52.405
924.00,52.362
925.00,52.346
926.00,52.341
927.00,52.349
928.00,52.303
929.00,52.313
930.00,52.273
931.00,52.281
932.00,52.241
933.00,52.239
934.00,52.207
935.00,52.205
936.00,52.195
937.00,52.184
938.00,52.171
939.00,52.183
940.00,52.145
941.00,52.153
942.00,52.136
943.00,52.111
944.00,52.065
945.00,52.082
946.00,52.080
947.00,52.000
948.00,51.982
949.00,52.040
950.00,51.992
951.00,51.947
952.00,51.944
953.00,51.908
954.00,51.909
955.00,51.857
956.00,51.855
957.00,51.803
958.00,51.819
959.00,51.759
960.00,51.763
961.00,51.767
962.00,51.769
963.00,51.726
964.00,51.715
965.00,51.713
966.00,51.700
967.00,51.719
968.00,51.682
969.00,51.711
970.00,51.692
971.00,51.712
972.00,51.677
973.00,51.712
974.00,51.733
975.00,51.700
976.00,51.711
977.00,51.687
978.00,51.742
979.00,51.725
980.00,51.718
981.00,51.723
982.00,51.676
983.00,51.716
984.00,51.679
985.00,51.702
986.00,51.672
987.00,51.689
988.00,51.649
989.00,51.642
990.00,51.650
991.00,51.626
992.00,51.642
993.00,51.610
994.00,51.601
995.00,51.593
996.00,51.576
997.00,51.574
998.00,51.539
999.00,51.570
1000.00,51.524
1001.00,51.507
1002.00,51.520
1003.00,51.494
1004.00,51.484
1005.00,51.434
1006.00,51.478
1007.00,51.451
1008.00,51.431
1009.00,51.409
1010.00,51.424
1011.00,51.411
1012.00,51.366
1013.00,51.392
1014.00,51.350
1015.00,51.355
1016.00,51.326
1017.00,51.311
1018.00,51.314
1019.00,51.272
1020.00,51.287
1021.00,51.253
1022.00,51.262
1023.00,51.211
1024.00,51.226
1025.00,51.223
1026.00,51.181
1027.00,51.170
1028.00,51.156
1029.00,51.140
1030.00,51.103
1031.00,51.112
1032.00,51.057
1033.00,51.050
1034.00,51.028
1035.00,51.009
1036.00,50.991
1037.00,50.982
1038.00,50.959
1039.00,50.938
1040.00,50.946
1041.00,50.906
1042.00,50.908
1043.00,50.881
1044.00,50.909
1045.00,50.887
1046.00,50.878
1047.00,50.909
1048.00,50.915
1049.00,50.921
1050.00,50.920
1051.00,50.982
1052.00,50.948
1053.00,50.953
1054.00,50.944
1055.00,50.974
1056.00,50.978
1057.00,50.975
1058.00,50.973
1059.00,50.977
1060.00,51.002
1061.00,50.958
1062.00,50.949
1063.00,50.951
1064.00,50.939
1065.00,50.908
1066.00,50.909
1067.00,50.902
1068.00,50.929
1069.00,50.863
1070.00,50.865
1071.00,50.844
1072.00,50.865
1073.00,50.830
1074.00,50.838
1075.00,50.828
1076.00,50.831
1077.00,50.819
1078.00,50.803
1079.00,50.807
1080.00,50.799
1081.00,50.784
1082.00,50.790
1083.00,50.776
1084.00,50.764
1085.00,50.762
1086.00,50.747
1087.00,50.745
1088.00,50.729
1089.00,50.732
1090.00,50.729
1091.00,50.742
1092.00,50.717
1093.00,50.719
1094.00,50.678
1095.00,50.672
1096.00,50.644
1097.00,50.649
1098.00,50.642
1099.00,50.627
1100.00,50.627
1101.00,50.638
1102.00,50.605
1103.00,50.622
1104.00,50.612
1105.00,50.593
1106.00,50.571
1107.00,50.583
1108.00,50.563
1109.00,50.547
1110.00,50.542
1111.00,50.542
1112.00,50.533
1113.00,50.524
1114.00,50.516
1115.00,50.518
1116.00,50.494
1117.00,50.490
1118.00,50.471
1119.00,50.474
1120.00,50.461
1121.00,50.462
1122.00,50.442
1123.00,50.449
1124.00,50.426
1125.00,50.436
1126.00,50.429
1127.00,50.423
1128.00,50.402
1129.00,50.411
1130.00,50.387
1131.00,50.402
1132.00,50.394
1133.00,50.390
1134.00,50.361
1135.00,50.330
1136.00,50.329
1137.00,50.359
1138.00,50.348
1139.00,50.355
1140.00,50.331
1141.00,50.324
1142.00,50.309
1143.00,50.343
1144.00,50.314
1145.00,50.319
1146.00,50.295
1147.00,50.308
1148.00,50.288
1149.00,50.297
1150.00,50.299
1151.00,50.296
1152.00,50.278
1153.00,50.272
1154.00,50.256
1155.00,50.265
1156.00,50.255
1157.00,50.269
1158.00,50.247
1159.00,50.259
1160.00,50.249
1161.00,50.253
1162.00,50.257
1163.00,50.257
1164.00,50.251
1165.00,50.231
1166.00,50.237
1167.00,50.216
1168.00,50.247
1169.00,50.225
1170.00,50.228
1171.00,50.209
1172.00,50.214
1173.00,50.210
1174.00,50.213
1175.00,50.204
1176.00,50.186
1177.00,50.176
1178.00,50.189
1179.00,50.202
1180.00,50.170
1181.00,50.196
1182.00,50.183
1183.00,50.198
1184.00,50.199
1185.00,50.202
1186.00,50.177
1187.00,50.172
1188.00,50.173
1189.00,50.179
1190.00,50.172
1191.00,50.163
1192.00,50.189
1193.00,50.161
1194.00,50.172
1195.00,50.142
1196.00,50.183
1197.00,50.189
1198.00,50.163
1199.00,50.174
1200.00,50.171
1201.00,50.183
1202.00,50.158
1203.00,50.152
1204.00,50.143
1205.00,50.157
1206.00,50.153
1207.00,50.144
1208.00,50.146
1209.00,50.142
1210.00,50.146
1211.00,50.142
1212.00,50.162
1213.00,50.124
1214.00,50.149
1215.00,50.141
1216.00,50.161
1217.00,50.156
1218.00,50.138
1219.00,50.165
1220.00,50.114
1221.00,50.127
1222.00,50.122
1223.00,50.147
1224.00,50.140
1225.00,50.142
1226.00,50.152
1227.00,50.134
1228.00,50.145
1229.00,50.137
1230.00,50.163
1231.00,50.147
1232.00,50.170
1233.00,50.173
1234.00,50.171
1235.00,50.162
1236.00,50.181
1237.00,50.179
1238.00,50.169
1239.00,50.185
1240.00,50.141
1241.00,50.168
1242.00,50.172
1243.00,50.193
1244.00,50.176
1245.00,50.203
1246.00,50.216
1247.00,50.189
1248.00,50.196
1249.00,50.212
1250.00,50.218
1251.00,50.200
1252.00,50.205
1253.00,50.194
1254.00,50.235
1255.00,50.208
1256.00,50.197
1257.00,50.176
1258.00,50.210
1259.00,50.198
1260.00,50.232
1261.00,50.225
1262.00,50.210
1263.00,50.220
1264.00,50.216
1265.00,50.213
1266.00,50.225
1267.00,50.240
1268.00,50.244
1269.00,50.260
1270.00,50.259
1271.00,50.260
1272.00,50.256
1273.00,50.261
1274.00,50.267
1275.00,50.269
1276.00,50.261
1277.00,50.274
1278.00,50.270
1279.00,50.284
1280.00,50.271
1281.00,50.287
1282.00,50.300
1283.00,50.310
1284.00,50.358
1285.00,50.308
1286.00,50.314
1287.00,50.302
1288.00,50.317
1289.00,50.306
1290.00,50.344
1291.00,50.338
1292.00,50.336
1293.00,50.344
1294.00,50.365
1295.00,50.361
1296.00,50.355
1297.00,50.363
1298.00,50.409
1299.00,50.379
1300.00,50.412
1301.00,50.384
1302.00,50.411
1303.00,50.408
1304.00,50.394
1305.00,50.425
1306.00,50.415
1307.00,50.424
1308.00,50.425
1309.00,50.450
1310.00,50.435
1311.00,50.432
1312.00,50.429
1313.00,50.455
1314.00,50.456
1315.00,50.468
1316.00,50.465
1317.00,50.495
1318.00,50.484
1319.00,50.480
1320.00,50.470
1321.00,50.651
1322.00,50.624
1323.00,50.616
1324.00,50.617
1325.00,50.621
1326.00,50.621
1327.00,50.633
1328.00,50.636
1329.00,50.612
1330.00,50.625
1331.00,50.612
1332.00,50.618
1333.00,50.616
1334.00,50.648
1335.00,50.654
1336.00,50.691
1337.00,50.714
1338.00,50.768
1339.00,50.814
1340.00,50.862
1341.00,50.956
1342.00,50.994
1343.00,51.011
1344.00,51.081
1345.00,51.137
1346.00,51.178
1347.00,51.186
1348.00,51.203
1349.00,51.251
1350.00,51.288
1351.00,51.278
1352.00,51.296
1353.00,51.278
1354.00,51.301
1355.00,51.242
1356.00,51.300
1357.00,51.286
1358.00,51.356
1359.00,51.313
1360.00,51.315
1361.00,50.849
1362.00,51.254
1363.00,51.406
1364.00,51.375
1365.00,51.300
1366.00,51.372
1367.00,51.309
1368.00,51.240
1369.00,51.133
1370.00,51.287
1371.00,51.236
1372.00,51.277
1373.00,51.307
1374.00,51.332
1375.00,51.293
1376.00,51.286
1377.00,51.263
1378.00,51.348
1379.00,51.317
1380.00,51.323
1381.00,51.304
1382.00,51.256
1383.00,51.324
1384.00,51.248
1385.00,51.276
1386.00,51.312
1387.00,51.279
1388.00,51.202
1389.00,51.315
1390.00,51.317
1391.00,51.284
1392.00,51.263
1393.00,51.269
1394.00,51.285
1395.00,51.279
1396.00,51.219
1397.00,51.303
1398.00,51.357
1399.00,51.271
1400.00,51.262
1401.00,51.327
1402.00,51.406
1403.00,51.397
1404.00,51.338
1405.00,51.340
1406.00,51.375
1407.00,51.345
1408.00,51.371
1409.00,51.326
1410.00,51.364
1411.00,51.366
1412.00,51.429
1413.00,51.361
1414.00,51.336
1415.00,51.410
1416.00,51.423
1417.00,51.462
1418.00,51.416
1419.00,51.422
1420.00,51.428
1421.00,51.498
1422.00,51.462
1423.00,51.493
1424.00,51.498
1425.00,51.523
1426.00,51.535
1427.00,51.543
1428.00,51.538
1429.00,51.578
1430.00,51.566
1431.00,51.587
1432.00,51.605
1433.00,51.610
1434.00,51.594
1435.00,51.696
1436.00,51.667
1437.00,51.650
1438.00,51.670
1439.00,51.719
1440.00,51.721
1441.00,51.726
1442.00,51.759
1443.00,51.764
1444.00,51.787
1445.00,51.746
1446.00,51.816
1447.00,51.831
1448.00,51.873
1449.00,51.878
1450.00,51.894
1451.00,51.870
1452.00,51.891
1453.00,51.887
1454.00,51.919
1455.00,51.929
1456.00,51.950
1457.00,51.951
1458.00,51.988
1459.00,52.000
1460.00,52.045
1461.00,52.035
1462.00,52.096
1463.00,52.058
1464.00,52.064
1465.00,52.072
1466.00,52.068
1467.00,52.103
1468.00,52.171
1469.00,52.136
1470.00,52.157
1471.00,52.170
1472.00,52.172
1473.00,52.196
1474.00,52.217
1475.00,52.220
1476.00,52.229
1477.00,52.210
1478.00,52.260
1479.00,52.283
1480.00,52.257
1481.00,52.262
1482.00,52.317
1483.00,52.306
1484.00,52.332
1485.00,52.331
1486.00,52.349
1487.00,52.365
1488.00,52.380
1489.00,52.373
1490.00,52.406
1491.00,52.396
1492.00,52.449
1493.00,52.423
1494.00,52.461
1495.00,52.442
1496.00,52.471
1497.00,52.452
1498.00,52.459
1499.00,52.479
1500.00,52.503
1501.00, 
1502.00, 
1503.00, 
1504.00, 
1505.00, 
1506.00, 
1507.00, 
1508.00, 
1509.00, 
1510.00, 
1511.00, 
1512.00, 
1513.00, 
1514.00, 
1515.00, 
1516.00, 
1517.00, 
1518.00, 
1519.00, 
1520.00, 
1521.00, 
1522.00, 
1523.00, 
1524.00, 
1525.00, 
1526.00, 
1527.00, 
1528.00, 
1529.00, 
1530.00, 
1531.00, 
1532.00, 
1533.00, 
1534.00, 
1535.00, 
1536.00, 
1537.00, 
1538.00, 
1539.00, 
1540.00, 
1541.00, 
1542.00, 
1543.00, 
1544.00, 
1545.00, 
1546.00, 
1547.00, 
1548.00, 
1549.00, 
1550.00, 
1551.00, 
1552.00, 
1553.00, 
1554.00, 
1555.00, 
1556.00, 
1557.00, 
1558.00, 
1559.00, 
1560.00, 
1561.00, 
1562.00, 
1563.00, 
1564.00, 
1565.00, 
1566.00, 
1567.00, 
1568.00, 
1569.00, 
1570.00, 
1571.00, 
1572.00, 
1573.00, 
1574.00, 
1575.00, 
1576.00, 
1577.00, 
1578.00, 
1579.00, 
1580.00, 
1581.00, 
1582.00, 
1583.00, 
1584.00, 
1585.00, 
1586.00, 
1587.00, 
1588.00, 
1589.00, 
1590.00, 
1591.00, 
1592.00, 
1593.00, 
1594.00, 
1595.00, 
1596.00, 
1597.00, 
1598.00, 
1599.00, 
1600.00, 
1601.00, 
1602.00, 
1603.00, 
1604.00, 
1605.00, 
1606.00, 
1607.00, 
1608.00, 
1609.00, 
1610.00, 
1611.00, 
1612.00, 
1613.00, 
1614.00, 
1615.00, 
1616.00, 
1617.00, 
1618.00, 
1619.00, 
1620.00, 
1621.00, 
1622.00, 
1623.00, 
1624.00, 
1625.00, 
1626.00, 
1627.00, 
1628.00, 
1629.00, 
1630.00, 
1631.00, 
1632.00, 
1633.00, 
1634.00, 
1635.00, 
1636.00, 
1637.00, 
1638.00, 
1639.00, 
1640.00, 
1641.00, 
1642.00, 
1643.00, 
1644.00, 
1645.00, 
1646.00, 
1647.00, 
1648.00, 
1649.00, 
1650.00, 
1651.00, 
1652.00, 
1653.00, 
1654.00, 
1655.00, 
1656.00, 
1657.00, 
1658.00, 
1659.00, 
1660.00, 
1661.00, 
1662.00, 
1663.00, 
1664.00, 
1665.00, 
1666.00, 
1667.00, 
1668.00, 
1669.00, 
1670.00, 
1671.00, 
1672.00, 
1673.00, 
1674.00, 
1675.00, 
1676.00, 
1677.00, 
1678.00, 
1679.00, 
1680.00, 
1681.00, 
1682.00, 
1683.00, 
1684.00, 
1685.00, 
1686.00, 
1687.00, 
1688.00, 
1689.00, 
1690.00, 
1691.00, 
1692.00, 
1693.00, 
1694.00, 
1695.00, 
1696.00, 
1697.00, 
1698.00, 
1699.00, 
1700.00, 
1701.00, 
1702.00, 
1703.00, 
1704.00, 
1705.00, 
1706.00, 
1707.00, 
1708.00, 
1709.00, 
1710.00, 
1711.00, 
1712.00, 
1713.00, 
1714.00, 
1715.00, 
1716.00, 
1717.00, 
1718.00, 
1719.00, 
1720.00, 
1721.00, 
1722.00, 
1723.00, 
1724.00, 
1725.00, 
1726.00, 
1727.00, 
1728.00, 
1729.00, 
1730.00, 
1731.00, 
1732.00, 
1733.00, 
1734.00, 
1735.00, 
1736.00, 
1737.00, 
1738.00, 
1739.00, 
1740.00, 
1741.00, 
1742.00, 
1743.00, 
1744.00, 
1745.00, 
1746.00, 
1747.00, 
1748.00, 
1749.00, 
1750.00, 
1751.00, 
1752.00, 
1753.00, 
1754.00, 
1755.00, 
1756.00, 
1757.00, 
1758.00, 
1759.00, 
1760.00, 
1761.00, 
1762.00, 
1763.00, 
1764.00, 
1765.00, 
1766.00, 
1767.00, 
1768.00, 
1769.00, 
1770.00, 
1771.00, 
1772.00, 
1773.00, 
1774.00, 
1775.00, 
1776.00, 
1777.00, 
1778.00, 
1779.00, 
1780.00, 
1781.00, 
1782.00, 
1783.00, 
1784.00, 
1785.00, 
1786.00, 
1787.00, 
1788.00, 
1789.00, 
1790.00, 
1791.00, 
1792.00, 
1793.00, 
1794.00, 
1795.00, 
1796.00, 
1797.00, 
1798.00, 
1799.00, 
1800.00, 
1801.00, 
1802.00, 
1803.00, 
1804.00, 
1805.00, 
1806.00, 
1807.00, 
1808.00, 
1809.00, 
1810.00, 
1811.00, 
1812.00, 
1813.00, 
1814.00, 
1815.00, 
1816.00, 
1817.00, 
1818.00, 
1819.00, 
1820.00, 
1821.00, 
1822.00, 
1823.00, 
1824.00, 
1825.00, 
1826.00, 
1827.00, 
1828.00, 
1829.00, 
1830.00, 
1831.00, 
1832.00, 
1833.00, 
1834.00, 
1835.00, 
1836.00, 
1837.00, 
1838.00, 
1839.00, 
1840.00, 
1841.00, 
1842.00, 
1843.00, 
1844.00, 
1845.00, 
1846.00, 
1847.00, 
1848.00, 
1849.00, 
1850.00, 
1851.00, 
1852.00, 
1853.00, 
1854.00, 
1855.00, 
1856.00, 
1857.00, 
1858.00, 
1859.00, 
1860.00, 
1861.00, 
1862.00, 
1863.00, 
1864.00, 
1865.00, 
1866.00, 
1867.00, 
1868.00, 
1869.00, 
1870.00, 
1871.00, 
1872.00, 
1873.00, 
1874.00, 
1875.00, 
1876.00, 
1877.00, 
1878.00, 
1879.00, 
1880.00, 
1881.00, 
1882.00, 
1883.00, 
1884.00, 
1885.00, 
1886.00, 
1887.00, 
1888.00, 
1889.00, 
1890.00, 
1891.00, 
1892.00, 
1893.00, 
1894.00, 
1895.00, 
1896.00, 
1897.00, 
1898.00, 
1899.00, 
1900.00, 
1901.00, 
1902.00, 
1903.00, 
1904.00, 
1905.00, 
1906.00, 
1907.00, 
1908.00, 
1909.00, 
1910.00, 
1911.00, 
1912.00, 
1913.00, 
1914.00, 
1915.00, 
1916.00, 
1917.00, 
1918.00, 
1919.00, 
1920.00, 
1921.00, 
1922.00, 
1923.00, 
1924.00, 
1925.00, 
1926.00, 
1927.00, 
1928.00, 
1929.00, 
1930.00, 
1931.00, 
1932.00, 
1933.00, 
1934.00, 
1935.00, 
1936.00, 
1937.00, 
1938.00, 
1939.00, 
1940.00, 
1941.00, 
1942.00, 
1943.00, 
1944.00, 
1945.00, 
1946.00, 
1947.00, 
1948.00, 
1949.00, 
1950.00, 
1951.00, 
1952.00, 
1953.00, 
1954.00, 
1955.00, 
1956.00, 
1957.00, 
1958.00, 
1959.00, 
1960.00, 
1961.00, 
1962.00, 
1963.00, 
1964.00, 
1965.00, 
1966.00, 
1967.00, 
1968.00, 
1969.00, 
1970.00, 
1971.00, 
1972.00, 
1973.00, 
1974.00, 
1975.00, 
1976.00, 
1977.00, 
1978.00, 
1979.00, 
1980.00, 
1981.00, 
1982.00, 
1983.00, 
1984.00, 
1985.00, 
1986.00, 
1987.00, 
1988.00, 
1989.00, 
1990.00, 
1991.00, 
1992.00, 
1993.00, 
1994.00, 
1995.00, 
1996.00, 
1997.00, 
1998.00, 
1999.00, 
2000.00, 
2001.00, 
2002.00, 
2003.00, 
2004.00, 
2005.00, 
2006.00, 
2007.00, 
2008.00, 
2009.00, 
2010.00, 
2011.00, 
2012.00, 
2013.00, 
2014.00, 
2015.00, 
2016.00, 
2017.00, 
2018.00, 
2019.00, 
2020.00, 
2021.00, 
2022.00, 
2023.00, 
2024.00, 
2025.00, 
2026.00, 
2027.00, 
2028.00, 
2029.00, 
2030.00, 
2031.00, 
2032.00, 
2033.00, 
2034.00, 
2035.00, 
2036.00, 
2037.00, 
2038.00, 
2039.00, 
2040.00, 
2041.00, 
2042.00, 
2043.00, 
2044.00, 
2045.00, 
2046.00, 
2047.00, 
2048.00, 
2049.00, 
2050.00, 
2051.00, 
2052.00, 
2053.00, 
2054.00, 
2055.00, 
2056.00, 
2057.00, 
2058.00, 
2059.00, 
2060.00, 
2061.00, 
2062.00, 
2063.00, 
2064.00, 
2065.00, 
2066.00, 
2067.00, 
2068.00, 
2069.00, 
2070.00, 
2071.00, 
2072.00, 
2073.00, 
2074.00, 
2075.00, 
2076.00, 
2077.00, 
2078.00, 
2079.00, 
2080.00, 
2081.00, 
2082.00, 
2083.00, 
2084.00, 
2085.00, 
2086.00, 
2087.00, 
2088.00, 
2089.00, 
2090.00, 
2091.00, 
2092.00, 
2093.00, 
2094.00, 
2095.00, 
2096.00, 
2097.00, 
2098.00, 
2099.00, 
2100.00, 
2101.00, 
2102.00, 
2103.00, 
2104.00, 
2105.00, 
2106.00, 
2107.00, 
2108.00, 
2109.00, 
2110.00, 
2111.00, 
2112.00, 
2113.00, 
2114.00, 
2115.00, 
2116.00, 
2117.00, 
2118.00, 
2119.00, 
2120.00, 
2121.00, 
2122.00, 
2123.00, 
2124.00, 
2125.00, 
2126.00, 
2127.00, 
2128.00, 
2129.00, 
2130.00, 
2131.00, 
2132.00, 
2133.00, 
2134.00, 
2135.00, 
2136.00, 
2137.00, 
2138.00, 
2139.00, 
2140.00, 
2141.00, 
2142.00, 
2143.00, 
2144.00, 
2145.00, 
2146.00, 
2147.00, 
2148.00, 
2149.00, 
2150.00, 
2151.00, 
2152.00, 
2153.00, 
2154.00, 
2155.00, 
2156.00, 
2157.00, 
2158.00, 
2159.00, 
2160.00, 
2161.00, 
2162.00, 
2163.00, 
2164.00, 
2165.00, 
2166.00, 
2167.00, 
2168.00, 
2169.00, 
2170.00, 
2171.00, 
2172.00, 
2173.00, 
2174.00, 
2175.00, 
2176.00, 
2177.00, 
2178.00, 
2179.00, 
2180.00, 
2181.00, 
2182.00, 
2183.00, 
2184.00, 
2185.00, 
2186.00, 
2187.00, 
2188.00, 
2189.00, 
2190.00, 
2191.00, 
2192.00, 
2193.00, 
2194.00, 
2195.00, 
2196.00, 
2197.00, 
2198.00, 
2199.00, 
2200.00, 
2201.00, 
2202.00, 
2203.00, 
2204.00, 
2205.00, 
2206.00, 
2207.00, 
2208.00, 
2209.00, 
2210.00, 
2211.00, 
2212.00, 
2213.00, 
2214.00, 
2215.00, 
2216.00, 
2217.00, 
2218.00, 
2219.00, 
2220.00, 
2221.00, 
2222.00, 
2223.00, 
2224.00, 
2225.00, 
2226.00, 
2227.00, 
2228.00, 
2229.00, 
2230.00, 
2231.00, 
2232.00, 
2233.00, 
2234.00, 
2235.00, 
2236.00, 
2237.00, 
2238.00, 
2239.00, 
2240.00, 
2241.00, 
2242.00, 
2243.00, 
2244.00, 
2245.00, 
2246.00, 
2247.00, 
2248.00, 
2249.00, 
2250.00, 
2251.00, 
2252.00, 
2253.00, 
2254.00, 
2255.00, 
2256.00, 
2257.00, 
2258.00, 
2259.00, 
2260.00, 
2261.00, 
2262.00, 
2263.00, 
2264.00, 
2265.00, 
2266.00, 
2267.00, 
2268.00, 
2269.00, 
2270.00, 
2271.00, 
2272.00, 
2273.00, 
2274.00, 
2275.00, 
2276.00, 
2277.00, 
2278.00, 
2279.00, 
2280.00, 
2281.00, 
2282.00, 
2283.00, 
2284.00, 
2285.00, 
2286.00, 
2287.00, 
2288.00, 
2289.00, 
2290.00, 
2291.00, 
2292.00, 
2293.00, 
2294.00, 
2295.00, 
2296.00, 
2297.00, 
2298.00, 
2299.00, 
2300.00, 
2301.00, 
2302.00, 
2303.00, 
2304.00, 
2305.00, 
2306.00, 
2307.00, 
2308.00, 
2309.00, 
2310.00, 
2311.00, 
2312.00, 
2313.00, 
2314.00, 
2315.00, 
2316.00, 
2317.00, 
2318.00, 
2319.00, 
2320.00, 
2321.00, 
2322.00, 
2323.00, 
2324.00, 
2325.00, 
2326.00, 
2327.00, 
2328.00, 
2329.00, 
2330.00, 
2331.00, 
2332.00, 
2333.00, 
2334.00, 
2335.00, 
2336.00, 
2337.00, 
2338.00, 
2339.00, 
2340.00, 
2341.00, 
2342.00, 
2343.00, 
2344.00, 
2345.00, 
2346.00, 
2347.00, 
2348.00, 
2349.00, 
2350.00, 
2351.00, 
2352.00, 
2353.00, 
2354.00, 
2355.00, 
2356.00, 
2357.00, 
2358.00, 
2359.00, 
2360.00, 
2361.00, 
2362.00, 
2363.00, 
2364.00, 
2365.00, 
2366.00, 
2367.00, 
2368.00, 
2369.00, 
2370.00, 
2371.00, 
2372.00, 
2373.00, 
2374.00, 
2375.00, 
2376.00, 
2377.00, 
2378.00, 
2379.00, 
2380.00, 
2381.00, 
2382.00, 
2383.00, 
2384.00, 
2385.00, 
2386.00, 
2387.00, 
2388.00, 
2389.00, 
2390.00, 
2391.00, 
2392.00, 
2393.00, 
2394.00, 
2395.00, 
2396.00, 
2397.00, 
2398.00, 
2399.00, 
2400.00, 
2401.00, 
2402.00, 
2403.00, 
2404.00, 
2405.00, 
2406.00, 
2407.00, 
2408.00, 
2409.00, 
2410.00, 
2411.00, 
2412.00, 
2413.00, 
2414.00, 
2415.00, 
2416.00, 
2417.00, 
2418.00, 
2419.00, 
2420.00, 
2421.00, 
2422.00, 
2423.00, 
2424.00, 
2425.00, 
2426.00, 
2427.00, 
2428.00, 
2429.00, 
2430.00, 
2431.00, 
2432.00, 
2433.00, 
2434.00, 
2435.00, 
2436.00, 
2437.00, 
2438.00, 
2439.00, 
2440.00, 
2441.00, 
2442.00, 
2443.00, 
2444.00, 
2445.00, 
2446.00, 
2447.00, 
2448.00, 
2449.00, 
2450.00, 
2451.00, 
2452.00, 
2453.00, 
2454.00, 
2455.00, 
2456.00, 
2457.00, 
2458.00, 
2459.00, 
2460.00, 
2461.00, 
2462.00, 
2463.00, 
2464.00, 
2465.00, 
2466.00, 
2467.00, 
2468.00, 
2469.00, 
2470.00, 
2471.00, 
2472.00, 
2473.00, 
2474.00, 
2475.00, 
2476.00, 
2477.00, 
2478.00, 
2479.00, 
2480.00, 
2481.00, 
2482.00, 
2483.00, 
2484.00, 
2485.00, 
2486.00, 
2487.00, 
2488.00, 
2489.00, 
2490.00, 
2491.00, 
2492.00, 
2493.00, 
2494.00, 
2495.00, 
2496.00, 
2497.00, 
2498.00, 
2499.00, 
2500.00, 
2501.00, 
2502.00, 
2503.00, 
2504.00, 
2505.00, 
2506.00, 
2507.00, 
2508.00, 
2509.00, 
2510.00, 
2511.00, 
2512.00, 
2513.00, 
2514.00, 
2515.00, 
2516.00, 
2517.00, 
2518.00, 
2519.00, 
2520.00, 
2521.00, 
2522.00, 
2523.00, 
2524.00, 
2525.00, 
2526.00, 
2527.00, 
2528.00, 
2529.00, 
2530.00, 
2531.00, 
2532.00, 
2533.00, 
2534.00, 
2535.00, 
2536.00, 
2537.00, 
2538.00, 
2539.00, 
2540.00, 
2541.00, 
2542.00, 
2543.00, 
2544.00, 
2545.00, 
2546.00, 
2547.00, 
2548.00, 
2549.00, 
2550.00, 
2551.00, 
2552.00, 
2553.00, 
2554.00, 
2555.00, 
2556.00, 
2557.00, 
2558.00, 
2559.00, 
2560.00, 
2561.00, 
2562.00, 
2563.00, 
2564.00, 
2565.00, 
2566.00, 
2567.00, 
2568.00, 
2569.00, 
2570.00, 
2571.00, 
2572.00, 
2573.00, 
2574.00, 
2575.00, 
2576.00, 
2577.00, 
2578.00, 
2579.00, 
2580.00, 
2581.00, 
2582.00, 
2583.00, 
2584.00, 
2585.00, 
2586.00, 
2587.00, 
2588.00, 
2589.00, 
2590.00, 
2591.00, 
2592.00, 
2593.00, 
2594.00, 
2595.00, 
2596.00, 
2597.00, 
2598.00, 
2599.00, 
2600.00, 
