"2cP3 - RawData"
"Wavelength nm.","T%"
200.00,-0.001
201.00,0.001
202.00,-0.001
203.00,-0.001
204.00,0.004
205.00,0.002
206.00,0.001
207.00,0.000
208.00,0.003
209.00,-0.000
210.00,-0.000
211.00,0.005
212.00,0.002
213.00,0.002
214.00,0.002
215.00,0.001
216.00,-0.001
217.00,-0.001
218.00,-0.000
219.00,0.002
220.00,0.002
221.00,0.001
222.00,0.000
223.00,0.004
224.00,0.001
225.00,-0.001
226.00,-0.002
227.00,-0.001
228.00,0.003
229.00,0.001
230.00,-0.001
231.00,0.000
232.00,0.001
233.00,0.003
234.00,0.002
235.00,0.001
236.00,0.001
237.00,0.001
238.00,0.001
239.00,-0.001
240.00,0.001
241.00,0.003
242.00,0.002
243.00,-0.000
244.00,0.000
245.00,0.000
246.00,0.001
247.00,-0.001
248.00,0.000
249.00,0.001
250.00,0.001
251.00,0.000
252.00,0.001
253.00,0.001
254.00,0.001
255.00,-0.001
256.00,0.001
257.00,-0.002
258.00,-0.001
259.00,-0.001
260.00,-0.000
261.00,0.001
262.00,0.001
263.00,0.001
264.00,-0.001
265.00,0.000
266.00,0.000
267.00,0.002
268.00,0.001
269.00,0.001
270.00,-0.001
271.00,0.001
272.00,-0.002
273.00,-0.001
274.00,-0.000
275.00,0.001
276.00,-0.001
277.00,-0.001
278.00,0.002
279.00,0.000
280.00,-0.001
281.00,0.002
282.00,0.000
283.00,0.000
284.00,0.000
285.00,-0.001
286.00,0.001
287.00,0.001
288.00,-0.000
289.00,0.001
290.00,-0.000
291.00,-0.001
292.00,0.001
293.00,0.001
294.00,0.001
295.00,0.000
296.00,0.000
297.00,-0.000
298.00,0.000
299.00,0.000
300.00,0.001
301.00,0.003
302.00,0.005
303.00,0.003
304.00,0.008
305.00,0.010
306.00,0.015
307.00,0.024
308.00,0.039
309.00,0.061
310.00,0.085
311.00,0.118
312.00,0.158
313.00,0.214
314.00,0.280
315.00,0.368
316.00,0.462
317.00,0.579
318.00,0.722
319.00,0.882
320.00,1.078
321.00,1.276
322.00,1.465
323.00,1.775
324.00,2.054
325.00,2.336
326.00,2.631
327.00,2.971
328.00,3.320
329.00,3.653
330.00,4.029
331.00,4.408
332.00,4.790
333.00,5.159
334.00,5.555
335.00,5.925
336.00,6.307
337.00,6.694
338.00,7.049
339.00,7.416
340.00,7.785
341.00,8.123
342.00,8.423
343.00,8.742
344.00,9.053
345.00,9.275
346.00,9.569
347.00,9.823
348.00,10.037
349.00,10.270
350.00,10.469
351.00,10.680
352.00,10.839
353.00,10.986
354.00,11.137
355.00,11.294
356.00,11.424
357.00,11.539
358.00,11.656
359.00,11.760
360.00,11.842
361.00,11.873
362.00,11.964
363.00,12.035
364.00,12.086
365.00,12.152
366.00,12.191
367.00,12.177
368.00,12.183
369.00,12.237
370.00,12.232
371.00,12.219
372.00,12.184
373.00,12.177
374.00,12.158
375.00,12.131
376.00,12.081
377.00,12.057
378.00,11.984
379.00,11.940
380.00,11.879
381.00,11.870
382.00,11.854
383.00,11.823
384.00,11.814
385.00,11.816
386.00,11.787
387.00,11.804
388.00,11.779
389.00,11.766
390.00,11.767
391.00,11.769
392.00,11.748
393.00,11.763
394.00,11.738
395.00,11.728
396.00,11.720
397.00,11.705
398.00,11.708
399.00,11.690
400.00,11.674
401.00,11.679
402.00,11.638
403.00,11.637
404.00,11.619
405.00,11.612
406.00,11.586
407.00,11.576
408.00,11.557
409.00,11.529
410.00,11.503
411.00,11.469
412.00,11.455
413.00,11.470
414.00,11.448
415.00,11.467
416.00,11.491
417.00,11.485
418.00,11.519
419.00,11.519
420.00,11.542
421.00,11.539
422.00,11.553
423.00,11.568
424.00,11.577
425.00,11.603
426.00,11.634
427.00,11.669
428.00,11.693
429.00,11.732
430.00,11.766
431.00,11.820
432.00,11.827
433.00,11.881
434.00,11.928
435.00,11.958
436.00,12.011
437.00,12.067
438.00,12.097
439.00,12.167
440.00,12.221
441.00,12.290
442.00,12.359
443.00,12.391
444.00,12.495
445.00,12.568
446.00,12.628
447.00,12.723
448.00,12.807
449.00,12.872
450.00,12.965
451.00,13.055
452.00,13.141
453.00,13.226
454.00,13.328
455.00,13.425
456.00,13.520
457.00,13.617
458.00,13.708
459.00,13.805
460.00,13.916
461.00,14.008
462.00,14.111
463.00,14.228
464.00,14.334
465.00,14.444
466.00,14.584
467.00,14.675
468.00,14.773
469.00,14.910
470.00,14.982
471.00,15.105
472.00,15.228
473.00,15.295
474.00,15.443
475.00,15.551
476.00,15.666
477.00,15.789
478.00,15.918
479.00,16.048
480.00,16.215
481.00,16.338
482.00,16.475
483.00,16.589
484.00,16.732
485.00,16.881
486.00,17.012
487.00,17.161
488.00,17.314
489.00,17.466
490.00,17.637
491.00,17.753
492.00,17.897
493.00,18.083
494.00,18.169
495.00,18.254
496.00,18.412
497.00,18.509
498.00,18.658
499.00,18.791
500.00,18.878
501.00,19.073
502.00,19.236
503.00,19.353
504.00,19.474
505.00,19.625
506.00,19.759
507.00,19.881
508.00,19.996
509.00,20.127
510.00,20.274
511.00,20.403
512.00,20.516
513.00,20.665
514.00,20.794
515.00,20.852
516.00,21.026
517.00,21.199
518.00,21.286
519.00,21.417
520.00,21.553
521.00,21.636
522.00,21.736
523.00,21.845
524.00,21.950
525.00,22.085
526.00,22.211
527.00,22.308
528.00,22.444
529.00,22.528
530.00,22.642
531.00,22.796
532.00,22.906
533.00,23.003
534.00,23.125
535.00,23.202
536.00,23.303
537.00,23.403
538.00,23.477
539.00,23.594
540.00,23.658
541.00,23.739
542.00,23.857
543.00,23.907
544.00,23.982
545.00,24.109
546.00,24.194
547.00,24.328
548.00,24.392
549.00,24.482
550.00,24.592
551.00,24.682
552.00,24.776
553.00,24.862
554.00,24.950
555.00,25.007
556.00,25.103
557.00,25.157
558.00,25.210
559.00,25.316
560.00,25.414
561.00,25.497
562.00,25.571
563.00,25.572
564.00,25.693
565.00,25.742
566.00,25.749
567.00,25.832
568.00,25.873
569.00,25.934
570.00,25.954
571.00,26.037
572.00,26.109
573.00,26.138
574.00,26.226
575.00,26.265
576.00,26.306
577.00,26.395
578.00,26.433
579.00,26.534
580.00,26.626
581.00,26.689
582.00,26.776
583.00,26.807
584.00,26.873
585.00,27.028
586.00,27.027
587.00,27.141
588.00,27.216
589.00,27.180
590.00,27.298
591.00,27.345
592.00,27.357
593.00,27.430
594.00,27.529
595.00,27.604
596.00,27.612
597.00,27.710
598.00,27.784
599.00,27.788
600.00,27.940
601.00,27.985
602.00,28.046
603.00,28.024
604.00,28.116
605.00,28.205
606.00,28.352
607.00,28.396
608.00,28.476
609.00,28.543
610.00,28.626
611.00,28.631
612.00,28.695
613.00,28.689
614.00,28.792
615.00,28.877
616.00,28.956
617.00,28.992
618.00,29.131
619.00,29.187
620.00,29.217
621.00,29.295
622.00,29.420
623.00,29.465
624.00,29.588
625.00,29.667
626.00,29.760
627.00,29.826
628.00,29.915
629.00,29.992
630.00,30.062
631.00,30.139
632.00,30.230
633.00,30.330
634.00,30.395
635.00,30.524
636.00,30.661
637.00,30.777
638.00,30.863
639.00,30.972
640.00,30.978
641.00,31.070
642.00,31.208
643.00,31.264
644.00,31.388
645.00,31.449
646.00,31.576
647.00,31.712
648.00,31.910
649.00,32.077
650.00,32.087
651.00,32.264
652.00,32.357
653.00,32.438
654.00,32.614
655.00,32.700
656.00,32.773
657.00,33.037
658.00,33.019
659.00,33.338
660.00,33.441
661.00,33.529
662.00,33.718
663.00,33.767
664.00,33.935
665.00,34.057
666.00,34.123
667.00,34.291
668.00,34.446
669.00,34.629
670.00,34.736
671.00,34.758
672.00,34.876
673.00,35.122
674.00,35.271
675.00,35.374
676.00,35.555
677.00,35.691
678.00,35.665
679.00,35.834
680.00,35.989
681.00,36.209
682.00,36.283
683.00,36.422
684.00,36.635
685.00,36.725
686.00,36.793
687.00,37.106
688.00,37.186
689.00,37.294
690.00,37.503
691.00,37.620
692.00,37.575
693.00,37.842
694.00,37.762
695.00,38.001
696.00,38.205
697.00,38.377
698.00,38.268
699.00,38.701
700.00,39.181
701.00,38.989
702.00,39.121
703.00,39.368
704.00,39.474
705.00,39.538
706.00,39.671
707.00,39.913
708.00,39.871
709.00,40.139
710.00,40.325
711.00,40.235
712.00,40.383
713.00,40.591
714.00,40.664
715.00,40.733
716.00,40.871
717.00,41.019
718.00,41.117
719.00,41.276
720.00,41.485
721.00,45.525
722.00,45.627
723.00,45.665
724.00,45.764
725.00,45.761
726.00,45.951
727.00,45.950
728.00,46.098
729.00,46.121
730.00,46.252
731.00,46.351
732.00,46.464
733.00,46.572
734.00,46.630
735.00,46.718
736.00,46.776
737.00,46.853
738.00,46.932
739.00,47.025
740.00,47.113
741.00,47.170
742.00,47.312
743.00,47.460
744.00,47.447
745.00,47.511
746.00,47.483
747.00,47.589
748.00,47.538
749.00,47.659
750.00,47.718
751.00,47.682
752.00,47.855
753.00,47.859
754.00,47.908
755.00,47.922
756.00,48.006
757.00,48.109
758.00,48.085
759.00,48.129
760.00,48.179
761.00,48.246
762.00,48.313
763.00,48.450
764.00,48.470
765.00,48.492
766.00,48.539
767.00,48.598
768.00,48.665
769.00,48.662
770.00,48.832
771.00,48.789
772.00,48.839
773.00,48.910
774.00,48.882
775.00,49.022
776.00,49.033
777.00,49.065
778.00,49.079
779.00,49.075
780.00,49.085
781.00,49.139
782.00,49.160
783.00,49.235
784.00,49.287
785.00,49.271
786.00,49.271
787.00,49.306
788.00,49.297
789.00,49.431
790.00,49.396
791.00,49.391
792.00,49.356
793.00,49.429
794.00,49.398
795.00,49.347
796.00,49.515
797.00,49.427
798.00,49.491
799.00,49.449
800.00,49.530
801.00,49.528
802.00,49.501
803.00,49.595
804.00,49.610
805.00,49.538
806.00,49.607
807.00,49.592
808.00,49.604
809.00,49.628
810.00,49.622
811.00,49.577
812.00,49.622
813.00,49.597
814.00,49.594
815.00,49.677
816.00,49.653
817.00,49.755
818.00,49.682
819.00,49.642
820.00,49.659
821.00,49.623
822.00,49.703
823.00,49.619
824.00,49.602
825.00,49.599
826.00,49.648
827.00,49.760
828.00,49.717
829.00,49.732
830.00,49.571
831.00,52.178
832.00,52.179
833.00,52.150
834.00,52.116
835.00,52.148
836.00,52.146
837.00,52.150
838.00,52.132
839.00,52.132
840.00,52.145
841.00,52.175
842.00,52.137
843.00,52.099
844.00,52.121
845.00,52.035
846.00,52.119
847.00,52.091
848.00,52.061
849.00,52.047
850.00,52.013
851.00,51.966
852.00,51.981
853.00,51.965
854.00,51.952
855.00,51.940
856.00,51.917
857.00,51.897
858.00,51.861
859.00,51.865
860.00,51.874
861.00,51.881
862.00,51.963
863.00,51.854
864.00,51.828
865.00,51.870
866.00,51.869
867.00,51.854
868.00,51.833
869.00,51.837
870.00,51.849
871.00,51.828
872.00,51.832
873.00,51.786
874.00,51.839
875.00,51.817
876.00,51.798
877.00,51.827
878.00,51.809
879.00,51.807
880.00,51.790
881.00,51.767
882.00,51.811
883.00,51.768
884.00,51.719
885.00,51.713
886.00,51.728
887.00,51.690
888.00,51.683
889.00,51.674
890.00,51.652
891.00,51.600
892.00,51.607
893.00,51.610
894.00,51.607
895.00,51.575
896.00,51.555
897.00,51.550
898.00,51.552
899.00,51.529
900.00,51.540
901.00,51.514
902.00,51.512
903.00,51.489
904.00,51.457
905.00,51.520
906.00,51.452
907.00,51.433
908.00,51.431
909.00,51.417
910.00,51.400
911.00,51.409
912.00,51.407
913.00,51.356
914.00,51.349
915.00,51.308
916.00,51.350
917.00,51.280
918.00,51.287
919.00,51.241
920.00,51.214
921.00,51.184
922.00,51.180
923.00,51.197
924.00,51.153
925.00,51.151
926.00,51.147
927.00,51.138
928.00,51.114
929.00,51.106
930.00,51.090
931.00,51.091
932.00,51.071
933.00,51.044
934.00,51.023
935.00,51.002
936.00,50.996
937.00,50.974
938.00,50.944
939.00,50.960
940.00,50.923
941.00,50.933
942.00,50.911
943.00,50.885
944.00,50.873
945.00,50.865
946.00,50.839
947.00,50.779
948.00,50.794
949.00,50.780
950.00,50.776
951.00,50.736
952.00,50.714
953.00,50.684
954.00,50.675
955.00,50.644
956.00,50.644
957.00,50.597
958.00,50.621
959.00,50.560
960.00,50.557
961.00,50.538
962.00,50.545
963.00,50.508
964.00,50.496
965.00,50.476
966.00,50.473
967.00,50.491
968.00,50.450
969.00,50.491
970.00,50.471
971.00,50.472
972.00,50.461
973.00,50.451
974.00,50.469
975.00,50.478
976.00,50.483
977.00,50.471
978.00,50.507
979.00,50.476
980.00,50.501
981.00,50.510
982.00,50.466
983.00,50.500
984.00,50.463
985.00,50.483
986.00,50.455
987.00,50.457
988.00,50.429
989.00,50.410
990.00,50.403
991.00,50.397
992.00,50.410
993.00,50.391
994.00,50.386
995.00,50.371
996.00,50.344
997.00,50.345
998.00,50.310
999.00,50.330
1000.00,50.291
1001.00,50.278
1002.00,50.285
1003.00,50.266
1004.00,50.259
1005.00,50.234
1006.00,50.244
1007.00,50.212
1008.00,50.212
1009.00,50.195
1010.00,50.180
1011.00,50.187
1012.00,50.145
1013.00,50.175
1014.00,50.132
1015.00,50.138
1016.00,50.106
1017.00,50.097
1018.00,50.095
1019.00,50.061
1020.00,50.056
1021.00,50.039
1022.00,50.048
1023.00,50.013
1024.00,50.040
1025.00,50.019
1026.00,50.015
1027.00,49.943
1028.00,49.929
1029.00,49.921
1030.00,49.893
1031.00,49.896
1032.00,49.858
1033.00,49.861
1034.00,49.831
1035.00,49.817
1036.00,49.791
1037.00,49.766
1038.00,49.763
1039.00,49.713
1040.00,49.730
1041.00,49.689
1042.00,49.677
1043.00,49.642
1044.00,49.666
1045.00,49.648
1046.00,49.670
1047.00,49.698
1048.00,49.697
1049.00,49.721
1050.00,49.703
1051.00,49.737
1052.00,49.731
1053.00,49.730
1054.00,49.750
1055.00,49.751
1056.00,49.761
1057.00,49.766
1058.00,49.747
1059.00,49.752
1060.00,49.772
1061.00,49.731
1062.00,49.717
1063.00,49.741
1064.00,49.715
1065.00,49.694
1066.00,49.701
1067.00,49.686
1068.00,49.729
1069.00,49.680
1070.00,49.656
1071.00,49.636
1072.00,49.641
1073.00,49.625
1074.00,49.647
1075.00,49.621
1076.00,49.614
1077.00,49.608
1078.00,49.593
1079.00,49.584
1080.00,49.573
1081.00,49.558
1082.00,49.572
1083.00,49.552
1084.00,49.557
1085.00,49.550
1086.00,49.539
1087.00,49.546
1088.00,49.533
1089.00,49.513
1090.00,49.521
1091.00,49.505
1092.00,49.488
1093.00,49.474
1094.00,49.447
1095.00,49.430
1096.00,49.425
1097.00,49.405
1098.00,49.407
1099.00,49.401
1100.00,49.382
1101.00,49.380
1102.00,49.363
1103.00,49.369
1104.00,49.365
1105.00,49.331
1106.00,49.335
1107.00,49.341
1108.00,49.328
1109.00,49.319
1110.00,49.312
1111.00,49.308
1112.00,49.313
1113.00,49.293
1114.00,49.301
1115.00,49.311
1116.00,49.266
1117.00,49.251
1118.00,49.262
1119.00,49.248
1120.00,49.242
1121.00,49.231
1122.00,49.219
1123.00,49.216
1124.00,49.176
1125.00,49.177
1126.00,49.187
1127.00,49.177
1128.00,49.162
1129.00,49.176
1130.00,49.170
1131.00,49.159
1132.00,49.155
1133.00,49.147
1134.00,49.147
1135.00,49.107
1136.00,49.127
1137.00,49.136
1138.00,49.107
1139.00,49.114
1140.00,49.121
1141.00,49.102
1142.00,49.105
1143.00,49.141
1144.00,49.099
1145.00,49.110
1146.00,49.086
1147.00,49.075
1148.00,49.070
1149.00,49.059
1150.00,49.075
1151.00,49.078
1152.00,49.041
1153.00,49.044
1154.00,49.042
1155.00,49.043
1156.00,49.033
1157.00,49.047
1158.00,49.033
1159.00,49.045
1160.00,49.023
1161.00,49.030
1162.00,49.021
1163.00,49.003
1164.00,49.018
1165.00,49.007
1166.00,49.009
1167.00,49.010
1168.00,49.007
1169.00,48.997
1170.00,48.999
1171.00,48.972
1172.00,48.981
1173.00,48.983
1174.00,48.978
1175.00,48.985
1176.00,48.976
1177.00,48.952
1178.00,48.965
1179.00,48.982
1180.00,48.960
1181.00,48.989
1182.00,48.961
1183.00,48.969
1184.00,48.963
1185.00,48.966
1186.00,48.959
1187.00,48.960
1188.00,48.946
1189.00,48.961
1190.00,48.953
1191.00,48.941
1192.00,48.969
1193.00,48.941
1194.00,48.952
1195.00,48.921
1196.00,48.943
1197.00,48.952
1198.00,48.933
1199.00,48.940
1200.00,48.942
1201.00,48.940
1202.00,48.937
1203.00,48.967
1204.00,48.938
1205.00,48.929
1206.00,48.929
1207.00,48.914
1208.00,48.912
1209.00,48.909
1210.00,48.911
1211.00,48.910
1212.00,48.928
1213.00,48.885
1214.00,48.918
1215.00,48.891
1216.00,48.899
1217.00,48.912
1218.00,48.882
1219.00,48.926
1220.00,48.883
1221.00,48.900
1222.00,48.903
1223.00,48.905
1224.00,48.908
1225.00,48.897
1226.00,48.903
1227.00,48.899
1228.00,48.924
1229.00,48.895
1230.00,48.943
1231.00,48.928
1232.00,48.946
1233.00,48.951
1234.00,48.949
1235.00,48.951
1236.00,48.971
1237.00,48.964
1238.00,48.943
1239.00,48.961
1240.00,48.931
1241.00,48.952
1242.00,48.945
1243.00,48.954
1244.00,48.956
1245.00,48.967
1246.00,48.971
1247.00,48.978
1248.00,48.962
1249.00,48.980
1250.00,48.988
1251.00,48.960
1252.00,48.990
1253.00,48.977
1254.00,49.003
1255.00,48.987
1256.00,48.980
1257.00,48.954
1258.00,49.011
1259.00,48.984
1260.00,49.012
1261.00,49.014
1262.00,48.995
1263.00,49.003
1264.00,49.011
1265.00,49.005
1266.00,49.024
1267.00,49.025
1268.00,49.037
1269.00,49.047
1270.00,49.045
1271.00,49.049
1272.00,49.061
1273.00,49.048
1274.00,49.050
1275.00,49.067
1276.00,49.058
1277.00,49.076
1278.00,49.068
1279.00,49.081
1280.00,49.091
1281.00,49.086
1282.00,49.101
1283.00,49.077
1284.00,49.090
1285.00,49.076
1286.00,49.095
1287.00,49.074
1288.00,49.104
1289.00,49.081
1290.00,49.112
1291.00,49.114
1292.00,49.111
1293.00,49.123
1294.00,49.149
1295.00,49.132
1296.00,49.131
1297.00,49.152
1298.00,49.180
1299.00,49.150
1300.00,49.161
1301.00,49.149
1302.00,49.167
1303.00,49.178
1304.00,49.152
1305.00,49.192
1306.00,49.169
1307.00,49.192
1308.00,49.192
1309.00,49.193
1310.00,49.197
1311.00,49.202
1312.00,49.207
1313.00,49.228
1314.00,49.203
1315.00,49.224
1316.00,49.232
1317.00,49.246
1318.00,49.244
1319.00,49.251
1320.00,49.252
1321.00,49.441
1322.00,49.427
1323.00,49.411
1324.00,49.428
1325.00,49.416
1326.00,49.422
1327.00,49.424
1328.00,49.399
1329.00,49.392
1330.00,49.427
1331.00,49.394
1332.00,49.402
1333.00,49.411
1334.00,49.447
1335.00,49.459
1336.00,49.484
1337.00,49.515
1338.00,49.603
1339.00,49.634
1340.00,49.680
1341.00,49.751
1342.00,49.803
1343.00,49.860
1344.00,49.896
1345.00,49.938
1346.00,50.000
1347.00,49.993
1348.00,50.006
1349.00,50.060
1350.00,50.069
1351.00,50.084
1352.00,50.099
1353.00,50.093
1354.00,50.100
1355.00,50.067
1356.00,50.130
1357.00,50.049
1358.00,50.172
1359.00,50.128
1360.00,50.176
1361.00,49.658
1362.00,50.120
1363.00,50.187
1364.00,50.098
1365.00,50.108
1366.00,50.172
1367.00,50.089
1368.00,50.098
1369.00,50.138
1370.00,50.080
1371.00,50.026
1372.00,50.062
1373.00,50.088
1374.00,50.137
1375.00,50.069
1376.00,50.078
1377.00,50.057
1378.00,50.139
1379.00,50.117
1380.00,50.104
1381.00,50.143
1382.00,50.017
1383.00,50.085
1384.00,50.017
1385.00,50.022
1386.00,50.096
1387.00,50.036
1388.00,49.993
1389.00,50.062
1390.00,50.130
1391.00,50.023
1392.00,50.049
1393.00,50.151
1394.00,50.053
1395.00,50.017
1396.00,50.013
1397.00,50.081
1398.00,50.182
1399.00,50.080
1400.00,50.062
1401.00,50.091
1402.00,50.318
1403.00,50.270
1404.00,50.157
1405.00,50.118
1406.00,50.127
1407.00,50.137
1408.00,50.117
1409.00,50.116
1410.00,50.160
1411.00,50.136
1412.00,50.207
1413.00,50.125
1414.00,50.090
1415.00,50.161
1416.00,50.186
1417.00,50.250
1418.00,50.237
1419.00,50.187
1420.00,50.211
1421.00,50.285
1422.00,50.254
1423.00,50.264
1424.00,50.278
1425.00,50.291
1426.00,50.322
1427.00,50.312
1428.00,50.308
1429.00,50.352
1430.00,50.350
1431.00,50.368
1432.00,50.372
1433.00,50.386
1434.00,50.377
1435.00,50.431
1436.00,50.437
1437.00,50.431
1438.00,50.442
1439.00,50.481
1440.00,50.512
1441.00,50.473
1442.00,50.495
1443.00,50.534
1444.00,50.550
1445.00,50.523
1446.00,50.555
1447.00,50.584
1448.00,50.630
1449.00,50.622
1450.00,50.617
1451.00,50.644
1452.00,50.637
1453.00,50.661
1454.00,50.691
1455.00,50.688
1456.00,50.718
1457.00,50.718
1458.00,50.742
1459.00,50.777
1460.00,50.783
1461.00,50.793
1462.00,50.817
1463.00,50.839
1464.00,50.857
1465.00,50.850
1466.00,50.838
1467.00,50.872
1468.00,50.923
1469.00,50.902
1470.00,50.922
1471.00,50.913
1472.00,50.923
1473.00,50.962
1474.00,50.968
1475.00,50.982
1476.00,50.987
1477.00,50.986
1478.00,51.034
1479.00,51.046
1480.00,51.024
1481.00,51.044
1482.00,51.078
1483.00,51.063
1484.00,51.093
1485.00,51.086
1486.00,51.088
1487.00,51.115
1488.00,51.116
1489.00,51.133
1490.00,51.150
1491.00,51.148
1492.00,51.183
1493.00,51.161
1494.00,51.193
1495.00,51.209
1496.00,51.204
1497.00,51.216
1498.00,51.224
1499.00,51.243
1500.00,51.261
1501.00, 
1502.00, 
1503.00, 
1504.00, 
1505.00, 
1506.00, 
1507.00, 
1508.00, 
1509.00, 
1510.00, 
1511.00, 
1512.00, 
1513.00, 
1514.00, 
1515.00, 
1516.00, 
1517.00, 
1518.00, 
1519.00, 
1520.00, 
1521.00, 
1522.00, 
1523.00, 
1524.00, 
1525.00, 
1526.00, 
1527.00, 
1528.00, 
1529.00, 
1530.00, 
1531.00, 
1532.00, 
1533.00, 
1534.00, 
1535.00, 
1536.00, 
1537.00, 
1538.00, 
1539.00, 
1540.00, 
1541.00, 
1542.00, 
1543.00, 
1544.00, 
1545.00, 
1546.00, 
1547.00, 
1548.00, 
1549.00, 
1550.00, 
1551.00, 
1552.00, 
1553.00, 
1554.00, 
1555.00, 
1556.00, 
1557.00, 
1558.00, 
1559.00, 
1560.00, 
1561.00, 
1562.00, 
1563.00, 
1564.00, 
1565.00, 
1566.00, 
1567.00, 
1568.00, 
1569.00, 
1570.00, 
1571.00, 
1572.00, 
1573.00, 
1574.00, 
1575.00, 
1576.00, 
1577.00, 
1578.00, 
1579.00, 
1580.00, 
1581.00, 
1582.00, 
1583.00, 
1584.00, 
1585.00, 
1586.00, 
1587.00, 
1588.00, 
1589.00, 
1590.00, 
1591.00, 
1592.00, 
1593.00, 
1594.00, 
1595.00, 
1596.00, 
1597.00, 
1598.00, 
1599.00, 
1600.00, 
1601.00, 
1602.00, 
1603.00, 
1604.00, 
1605.00, 
1606.00, 
1607.00, 
1608.00, 
1609.00, 
1610.00, 
1611.00, 
1612.00, 
1613.00, 
1614.00, 
1615.00, 
1616.00, 
1617.00, 
1618.00, 
1619.00, 
1620.00, 
1621.00, 
1622.00, 
1623.00, 
1624.00, 
1625.00, 
1626.00, 
1627.00, 
1628.00, 
1629.00, 
1630.00, 
1631.00, 
1632.00, 
1633.00, 
1634.00, 
1635.00, 
1636.00, 
1637.00, 
1638.00, 
1639.00, 
1640.00, 
1641.00, 
1642.00, 
1643.00, 
1644.00, 
1645.00, 
1646.00, 
1647.00, 
1648.00, 
1649.00, 
1650.00, 
1651.00, 
1652.00, 
1653.00, 
1654.00, 
1655.00, 
1656.00, 
1657.00, 
1658.00, 
1659.00, 
1660.00, 
1661.00, 
1662.00, 
1663.00, 
1664.00, 
1665.00, 
1666.00, 
1667.00, 
1668.00, 
1669.00, 
1670.00, 
1671.00, 
1672.00, 
1673.00, 
1674.00, 
1675.00, 
1676.00, 
1677.00, 
1678.00, 
1679.00, 
1680.00, 
1681.00, 
1682.00, 
1683.00, 
1684.00, 
1685.00, 
1686.00, 
1687.00, 
1688.00, 
1689.00, 
1690.00, 
1691.00, 
1692.00, 
1693.00, 
1694.00, 
1695.00, 
1696.00, 
1697.00, 
1698.00, 
1699.00, 
1700.00, 
1701.00, 
1702.00, 
1703.00, 
1704.00, 
1705.00, 
1706.00, 
1707.00, 
1708.00, 
1709.00, 
1710.00, 
1711.00, 
1712.00, 
1713.00, 
1714.00, 
1715.00, 
1716.00, 
1717.00, 
1718.00, 
1719.00, 
1720.00, 
1721.00, 
1722.00, 
1723.00, 
1724.00, 
1725.00, 
1726.00, 
1727.00, 
1728.00, 
1729.00, 
1730.00, 
1731.00, 
1732.00, 
1733.00, 
1734.00, 
1735.00, 
1736.00, 
1737.00, 
1738.00, 
1739.00, 
1740.00, 
1741.00, 
1742.00, 
1743.00, 
1744.00, 
1745.00, 
1746.00, 
1747.00, 
1748.00, 
1749.00, 
1750.00, 
1751.00, 
1752.00, 
1753.00, 
1754.00, 
1755.00, 
1756.00, 
1757.00, 
1758.00, 
1759.00, 
1760.00, 
1761.00, 
1762.00, 
1763.00, 
1764.00, 
1765.00, 
1766.00, 
1767.00, 
1768.00, 
1769.00, 
1770.00, 
1771.00, 
1772.00, 
1773.00, 
1774.00, 
1775.00, 
1776.00, 
1777.00, 
1778.00, 
1779.00, 
1780.00, 
1781.00, 
1782.00, 
1783.00, 
1784.00, 
1785.00, 
1786.00, 
1787.00, 
1788.00, 
1789.00, 
1790.00, 
1791.00, 
1792.00, 
1793.00, 
1794.00, 
1795.00, 
1796.00, 
1797.00, 
1798.00, 
1799.00, 
1800.00, 
1801.00, 
1802.00, 
1803.00, 
1804.00, 
1805.00, 
1806.00, 
1807.00, 
1808.00, 
1809.00, 
1810.00, 
1811.00, 
1812.00, 
1813.00, 
1814.00, 
1815.00, 
1816.00, 
1817.00, 
1818.00, 
1819.00, 
1820.00, 
1821.00, 
1822.00, 
1823.00, 
1824.00, 
1825.00, 
1826.00, 
1827.00, 
1828.00, 
1829.00, 
1830.00, 
1831.00, 
1832.00, 
1833.00, 
1834.00, 
1835.00, 
1836.00, 
1837.00, 
1838.00, 
1839.00, 
1840.00, 
1841.00, 
1842.00, 
1843.00, 
1844.00, 
1845.00, 
1846.00, 
1847.00, 
1848.00, 
1849.00, 
1850.00, 
1851.00, 
1852.00, 
1853.00, 
1854.00, 
1855.00, 
1856.00, 
1857.00, 
1858.00, 
1859.00, 
1860.00, 
1861.00, 
1862.00, 
1863.00, 
1864.00, 
1865.00, 
1866.00, 
1867.00, 
1868.00, 
1869.00, 
1870.00, 
1871.00, 
1872.00, 
1873.00, 
1874.00, 
1875.00, 
1876.00, 
1877.00, 
1878.00, 
1879.00, 
1880.00, 
1881.00, 
1882.00, 
1883.00, 
1884.00, 
1885.00, 
1886.00, 
1887.00, 
1888.00, 
1889.00, 
1890.00, 
1891.00, 
1892.00, 
1893.00, 
1894.00, 
1895.00, 
1896.00, 
1897.00, 
1898.00, 
1899.00, 
1900.00, 
1901.00, 
1902.00, 
1903.00, 
1904.00, 
1905.00, 
1906.00, 
1907.00, 
1908.00, 
1909.00, 
1910.00, 
1911.00, 
1912.00, 
1913.00, 
1914.00, 
1915.00, 
1916.00, 
1917.00, 
1918.00, 
1919.00, 
1920.00, 
1921.00, 
1922.00, 
1923.00, 
1924.00, 
1925.00, 
1926.00, 
1927.00, 
1928.00, 
1929.00, 
1930.00, 
1931.00, 
1932.00, 
1933.00, 
1934.00, 
1935.00, 
1936.00, 
1937.00, 
1938.00, 
1939.00, 
1940.00, 
1941.00, 
1942.00, 
1943.00, 
1944.00, 
1945.00, 
1946.00, 
1947.00, 
1948.00, 
1949.00, 
1950.00, 
1951.00, 
1952.00, 
1953.00, 
1954.00, 
1955.00, 
1956.00, 
1957.00, 
1958.00, 
1959.00, 
1960.00, 
1961.00, 
1962.00, 
1963.00, 
1964.00, 
1965.00, 
1966.00, 
1967.00, 
1968.00, 
1969.00, 
1970.00, 
1971.00, 
1972.00, 
1973.00, 
1974.00, 
1975.00, 
1976.00, 
1977.00, 
1978.00, 
1979.00, 
1980.00, 
1981.00, 
1982.00, 
1983.00, 
1984.00, 
1985.00, 
1986.00, 
1987.00, 
1988.00, 
1989.00, 
1990.00, 
1991.00, 
1992.00, 
1993.00, 
1994.00, 
1995.00, 
1996.00, 
1997.00, 
1998.00, 
1999.00, 
2000.00, 
2001.00, 
2002.00, 
2003.00, 
2004.00, 
2005.00, 
2006.00, 
2007.00, 
2008.00, 
2009.00, 
2010.00, 
2011.00, 
2012.00, 
2013.00, 
2014.00, 
2015.00, 
2016.00, 
2017.00, 
2018.00, 
2019.00, 
2020.00, 
2021.00, 
2022.00, 
2023.00, 
2024.00, 
2025.00, 
2026.00, 
2027.00, 
2028.00, 
2029.00, 
2030.00, 
2031.00, 
2032.00, 
2033.00, 
2034.00, 
2035.00, 
2036.00, 
2037.00, 
2038.00, 
2039.00, 
2040.00, 
2041.00, 
2042.00, 
2043.00, 
2044.00, 
2045.00, 
2046.00, 
2047.00, 
2048.00, 
2049.00, 
2050.00, 
2051.00, 
2052.00, 
2053.00, 
2054.00, 
2055.00, 
2056.00, 
2057.00, 
2058.00, 
2059.00, 
2060.00, 
2061.00, 
2062.00, 
2063.00, 
2064.00, 
2065.00, 
2066.00, 
2067.00, 
2068.00, 
2069.00, 
2070.00, 
2071.00, 
2072.00, 
2073.00, 
2074.00, 
2075.00, 
2076.00, 
2077.00, 
2078.00, 
2079.00, 
2080.00, 
2081.00, 
2082.00, 
2083.00, 
2084.00, 
2085.00, 
2086.00, 
2087.00, 
2088.00, 
2089.00, 
2090.00, 
2091.00, 
2092.00, 
2093.00, 
2094.00, 
2095.00, 
2096.00, 
2097.00, 
2098.00, 
2099.00, 
2100.00, 
2101.00, 
2102.00, 
2103.00, 
2104.00, 
2105.00, 
2106.00, 
2107.00, 
2108.00, 
2109.00, 
2110.00, 
2111.00, 
2112.00, 
2113.00, 
2114.00, 
2115.00, 
2116.00, 
2117.00, 
2118.00, 
2119.00, 
2120.00, 
2121.00, 
2122.00, 
2123.00, 
2124.00, 
2125.00, 
2126.00, 
2127.00, 
2128.00, 
2129.00, 
2130.00, 
2131.00, 
2132.00, 
2133.00, 
2134.00, 
2135.00, 
2136.00, 
2137.00, 
2138.00, 
2139.00, 
2140.00, 
2141.00, 
2142.00, 
2143.00, 
2144.00, 
2145.00, 
2146.00, 
2147.00, 
2148.00, 
2149.00, 
2150.00, 
2151.00, 
2152.00, 
2153.00, 
2154.00, 
2155.00, 
2156.00, 
2157.00, 
2158.00, 
2159.00, 
2160.00, 
2161.00, 
2162.00, 
2163.00, 
2164.00, 
2165.00, 
2166.00, 
2167.00, 
2168.00, 
2169.00, 
2170.00, 
2171.00, 
2172.00, 
2173.00, 
2174.00, 
2175.00, 
2176.00, 
2177.00, 
2178.00, 
2179.00, 
2180.00, 
2181.00, 
2182.00, 
2183.00, 
2184.00, 
2185.00, 
2186.00, 
2187.00, 
2188.00, 
2189.00, 
2190.00, 
2191.00, 
2192.00, 
2193.00, 
2194.00, 
2195.00, 
2196.00, 
2197.00, 
2198.00, 
2199.00, 
2200.00, 
2201.00, 
2202.00, 
2203.00, 
2204.00, 
2205.00, 
2206.00, 
2207.00, 
2208.00, 
2209.00, 
2210.00, 
2211.00, 
2212.00, 
2213.00, 
2214.00, 
2215.00, 
2216.00, 
2217.00, 
2218.00, 
2219.00, 
2220.00, 
2221.00, 
2222.00, 
2223.00, 
2224.00, 
2225.00, 
2226.00, 
2227.00, 
2228.00, 
2229.00, 
2230.00, 
2231.00, 
2232.00, 
2233.00, 
2234.00, 
2235.00, 
2236.00, 
2237.00, 
2238.00, 
2239.00, 
2240.00, 
2241.00, 
2242.00, 
2243.00, 
2244.00, 
2245.00, 
2246.00, 
2247.00, 
2248.00, 
2249.00, 
2250.00, 
2251.00, 
2252.00, 
2253.00, 
2254.00, 
2255.00, 
2256.00, 
2257.00, 
2258.00, 
2259.00, 
2260.00, 
2261.00, 
2262.00, 
2263.00, 
2264.00, 
2265.00, 
2266.00, 
2267.00, 
2268.00, 
2269.00, 
2270.00, 
2271.00, 
2272.00, 
2273.00, 
2274.00, 
2275.00, 
2276.00, 
2277.00, 
2278.00, 
2279.00, 
2280.00, 
2281.00, 
2282.00, 
2283.00, 
2284.00, 
2285.00, 
2286.00, 
2287.00, 
2288.00, 
2289.00, 
2290.00, 
2291.00, 
2292.00, 
2293.00, 
2294.00, 
2295.00, 
2296.00, 
2297.00, 
2298.00, 
2299.00, 
2300.00, 
2301.00, 
2302.00, 
2303.00, 
2304.00, 
2305.00, 
2306.00, 
2307.00, 
2308.00, 
2309.00, 
2310.00, 
2311.00, 
2312.00, 
2313.00, 
2314.00, 
2315.00, 
2316.00, 
2317.00, 
2318.00, 
2319.00, 
2320.00, 
2321.00, 
2322.00, 
2323.00, 
2324.00, 
2325.00, 
2326.00, 
2327.00, 
2328.00, 
2329.00, 
2330.00, 
2331.00, 
2332.00, 
2333.00, 
2334.00, 
2335.00, 
2336.00, 
2337.00, 
2338.00, 
2339.00, 
2340.00, 
2341.00, 
2342.00, 
2343.00, 
2344.00, 
2345.00, 
2346.00, 
2347.00, 
2348.00, 
2349.00, 
2350.00, 
2351.00, 
2352.00, 
2353.00, 
2354.00, 
2355.00, 
2356.00, 
2357.00, 
2358.00, 
2359.00, 
2360.00, 
2361.00, 
2362.00, 
2363.00, 
2364.00, 
2365.00, 
2366.00, 
2367.00, 
2368.00, 
2369.00, 
2370.00, 
2371.00, 
2372.00, 
2373.00, 
2374.00, 
2375.00, 
2376.00, 
2377.00, 
2378.00, 
2379.00, 
2380.00, 
2381.00, 
2382.00, 
2383.00, 
2384.00, 
2385.00, 
2386.00, 
2387.00, 
2388.00, 
2389.00, 
2390.00, 
2391.00, 
2392.00, 
2393.00, 
2394.00, 
2395.00, 
2396.00, 
2397.00, 
2398.00, 
2399.00, 
2400.00, 
2401.00, 
2402.00, 
2403.00, 
2404.00, 
2405.00, 
2406.00, 
2407.00, 
2408.00, 
2409.00, 
2410.00, 
2411.00, 
2412.00, 
2413.00, 
2414.00, 
2415.00, 
2416.00, 
2417.00, 
2418.00, 
2419.00, 
2420.00, 
2421.00, 
2422.00, 
2423.00, 
2424.00, 
2425.00, 
2426.00, 
2427.00, 
2428.00, 
2429.00, 
2430.00, 
2431.00, 
2432.00, 
2433.00, 
2434.00, 
2435.00, 
2436.00, 
2437.00, 
2438.00, 
2439.00, 
2440.00, 
2441.00, 
2442.00, 
2443.00, 
2444.00, 
2445.00, 
2446.00, 
2447.00, 
2448.00, 
2449.00, 
2450.00, 
2451.00, 
2452.00, 
2453.00, 
2454.00, 
2455.00, 
2456.00, 
2457.00, 
2458.00, 
2459.00, 
2460.00, 
2461.00, 
2462.00, 
2463.00, 
2464.00, 
2465.00, 
2466.00, 
2467.00, 
2468.00, 
2469.00, 
2470.00, 
2471.00, 
2472.00, 
2473.00, 
2474.00, 
2475.00, 
2476.00, 
2477.00, 
2478.00, 
2479.00, 
2480.00, 
2481.00, 
2482.00, 
2483.00, 
2484.00, 
2485.00, 
2486.00, 
2487.00, 
2488.00, 
2489.00, 
2490.00, 
2491.00, 
2492.00, 
2493.00, 
2494.00, 
2495.00, 
2496.00, 
2497.00, 
2498.00, 
2499.00, 
2500.00, 
2501.00, 
2502.00, 
2503.00, 
2504.00, 
2505.00, 
2506.00, 
2507.00, 
2508.00, 
2509.00, 
2510.00, 
2511.00, 
2512.00, 
2513.00, 
2514.00, 
2515.00, 
2516.00, 
2517.00, 
2518.00, 
2519.00, 
2520.00, 
2521.00, 
2522.00, 
2523.00, 
2524.00, 
2525.00, 
2526.00, 
2527.00, 
2528.00, 
2529.00, 
2530.00, 
2531.00, 
2532.00, 
2533.00, 
2534.00, 
2535.00, 
2536.00, 
2537.00, 
2538.00, 
2539.00, 
2540.00, 
2541.00, 
2542.00, 
2543.00, 
2544.00, 
2545.00, 
2546.00, 
2547.00, 
2548.00, 
2549.00, 
2550.00, 
2551.00, 
2552.00, 
2553.00, 
2554.00, 
2555.00, 
2556.00, 
2557.00, 
2558.00, 
2559.00, 
2560.00, 
2561.00, 
2562.00, 
2563.00, 
2564.00, 
2565.00, 
2566.00, 
2567.00, 
2568.00, 
2569.00, 
2570.00, 
2571.00, 
2572.00, 
2573.00, 
2574.00, 
2575.00, 
2576.00, 
2577.00, 
2578.00, 
2579.00, 
2580.00, 
2581.00, 
2582.00, 
2583.00, 
2584.00, 
2585.00, 
2586.00, 
2587.00, 
2588.00, 
2589.00, 
2590.00, 
2591.00, 
2592.00, 
2593.00, 
2594.00, 
2595.00, 
2596.00, 
2597.00, 
2598.00, 
2599.00, 
2600.00, 
