"2cP4 - RawData"
"Wavelength nm.","T%"
200.00,-0.001
201.00,0.002
202.00,0.000
203.00,-0.002
204.00,0.004
205.00,0.002
206.00,-0.001
207.00,0.003
208.00,0.001
209.00,0.000
210.00,-0.000
211.00,0.001
212.00,-0.000
213.00,0.000
214.00,0.003
215.00,-0.000
216.00,0.002
217.00,0.001
218.00,0.004
219.00,0.002
220.00,0.004
221.00,0.001
222.00,0.000
223.00,0.001
224.00,0.002
225.00,-0.001
226.00,-0.001
227.00,0.002
228.00,0.000
229.00,0.002
230.00,0.001
231.00,-0.000
232.00,-0.001
233.00,0.002
234.00,0.001
235.00,-0.000
236.00,0.000
237.00,0.000
238.00,-0.001
239.00,0.000
240.00,0.001
241.00,0.001
242.00,0.002
243.00,-0.001
244.00,0.001
245.00,0.001
246.00,0.000
247.00,0.001
248.00,0.001
249.00,0.001
250.00,-0.000
251.00,-0.001
252.00,-0.001
253.00,-0.001
254.00,0.001
255.00,-0.000
256.00,0.000
257.00,-0.001
258.00,-0.000
259.00,0.001
260.00,-0.000
261.00,-0.001
262.00,0.001
263.00,0.001
264.00,0.001
265.00,0.001
266.00,-0.000
267.00,-0.001
268.00,-0.001
269.00,0.000
270.00,0.001
271.00,-0.001
272.00,0.001
273.00,-0.001
274.00,-0.001
275.00,-0.001
276.00,-0.000
277.00,0.000
278.00,0.001
279.00,0.002
280.00,0.001
281.00,-0.001
282.00,0.000
283.00,-0.000
284.00,-0.001
285.00,0.001
286.00,0.002
287.00,0.000
288.00,-0.001
289.00,0.001
290.00,0.001
291.00,-0.000
292.00,0.001
293.00,0.001
294.00,-0.001
295.00,-0.002
296.00,0.000
297.00,0.001
298.00,0.002
299.00,0.001
300.00,0.001
301.00,0.002
302.00,0.002
303.00,0.002
304.00,0.007
305.00,0.011
306.00,0.017
307.00,0.024
308.00,0.036
309.00,0.054
310.00,0.076
311.00,0.102
312.00,0.141
313.00,0.188
314.00,0.250
315.00,0.318
316.00,0.411
317.00,0.511
318.00,0.639
319.00,0.776
320.00,0.949
321.00,1.119
322.00,1.330
323.00,1.572
324.00,1.805
325.00,2.054
326.00,2.273
327.00,2.621
328.00,2.917
329.00,3.193
330.00,3.542
331.00,3.845
332.00,4.191
333.00,4.521
334.00,4.825
335.00,5.179
336.00,5.506
337.00,5.850
338.00,6.146
339.00,6.452
340.00,6.764
341.00,7.048
342.00,7.301
343.00,7.593
344.00,7.860
345.00,8.065
346.00,8.293
347.00,8.496
348.00,8.697
349.00,8.896
350.00,9.053
351.00,9.218
352.00,9.318
353.00,9.478
354.00,9.586
355.00,9.712
356.00,9.808
357.00,9.913
358.00,9.992
359.00,10.057
360.00,10.152
361.00,10.185
362.00,10.225
363.00,10.278
364.00,10.310
365.00,10.349
366.00,10.351
367.00,10.359
368.00,10.374
369.00,10.387
370.00,10.369
371.00,10.371
372.00,10.322
373.00,10.328
374.00,10.285
375.00,10.268
376.00,10.213
377.00,10.167
378.00,10.111
379.00,10.057
380.00,10.009
381.00,9.994
382.00,9.977
383.00,9.939
384.00,9.924
385.00,9.927
386.00,9.905
387.00,9.883
388.00,9.881
389.00,9.886
390.00,9.857
391.00,9.832
392.00,9.806
393.00,9.819
394.00,9.779
395.00,9.789
396.00,9.764
397.00,9.760
398.00,9.761
399.00,9.748
400.00,9.731
401.00,9.712
402.00,9.708
403.00,9.704
404.00,9.685
405.00,9.660
406.00,9.656
407.00,9.634
408.00,9.631
409.00,9.594
410.00,9.558
411.00,9.550
412.00,9.540
413.00,9.542
414.00,9.547
415.00,9.535
416.00,9.545
417.00,9.554
418.00,9.558
419.00,9.595
420.00,9.626
421.00,9.632
422.00,9.625
423.00,9.651
424.00,9.665
425.00,9.677
426.00,9.716
427.00,9.765
428.00,9.794
429.00,9.821
430.00,9.857
431.00,9.878
432.00,9.901
433.00,9.972
434.00,10.037
435.00,10.059
436.00,10.115
437.00,10.162
438.00,10.220
439.00,10.267
440.00,10.340
441.00,10.400
442.00,10.460
443.00,10.540
444.00,10.595
445.00,10.679
446.00,10.732
447.00,10.793
448.00,10.904
449.00,11.000
450.00,11.075
451.00,11.148
452.00,11.243
453.00,11.338
454.00,11.430
455.00,11.527
456.00,11.620
457.00,11.712
458.00,11.826
459.00,11.911
460.00,12.046
461.00,12.130
462.00,12.246
463.00,12.351
464.00,12.475
465.00,12.588
466.00,12.725
467.00,12.829
468.00,12.930
469.00,13.058
470.00,13.143
471.00,13.221
472.00,13.386
473.00,13.484
474.00,13.588
475.00,13.714
476.00,13.800
477.00,13.921
478.00,14.066
479.00,14.214
480.00,14.365
481.00,14.514
482.00,14.617
483.00,14.764
484.00,14.889
485.00,15.051
486.00,15.193
487.00,15.340
488.00,15.489
489.00,15.648
490.00,15.779
491.00,15.929
492.00,16.056
493.00,16.236
494.00,16.379
495.00,16.463
496.00,16.587
497.00,16.729
498.00,16.885
499.00,17.029
500.00,17.153
501.00,17.266
502.00,17.450
503.00,17.577
504.00,17.703
505.00,17.836
506.00,17.955
507.00,18.077
508.00,18.208
509.00,18.375
510.00,18.492
511.00,18.613
512.00,18.788
513.00,18.889
514.00,19.060
515.00,19.189
516.00,19.274
517.00,19.417
518.00,19.527
519.00,19.635
520.00,19.784
521.00,19.889
522.00,20.018
523.00,20.087
524.00,20.209
525.00,20.296
526.00,20.452
527.00,20.535
528.00,20.652
529.00,20.767
530.00,20.875
531.00,21.021
532.00,21.134
533.00,21.242
534.00,21.346
535.00,21.448
536.00,21.520
537.00,21.622
538.00,21.720
539.00,21.826
540.00,21.890
541.00,21.993
542.00,22.059
543.00,22.148
544.00,22.270
545.00,22.333
546.00,22.377
547.00,22.494
548.00,22.555
549.00,22.654
550.00,22.775
551.00,22.879
552.00,22.954
553.00,23.024
554.00,23.113
555.00,23.157
556.00,23.262
557.00,23.327
558.00,23.387
559.00,23.481
560.00,23.564
561.00,23.645
562.00,23.685
563.00,23.746
564.00,23.818
565.00,23.878
566.00,23.868
567.00,23.966
568.00,24.006
569.00,24.049
570.00,24.100
571.00,24.181
572.00,24.228
573.00,24.257
574.00,24.353
575.00,24.380
576.00,24.419
577.00,24.473
578.00,24.526
579.00,24.624
580.00,24.689
581.00,24.814
582.00,24.868
583.00,24.947
584.00,25.052
585.00,25.069
586.00,25.123
587.00,25.208
588.00,25.269
589.00,25.288
590.00,25.360
591.00,25.384
592.00,25.423
593.00,25.501
594.00,25.589
595.00,25.618
596.00,25.687
597.00,25.768
598.00,25.869
599.00,25.880
600.00,25.991
601.00,26.077
602.00,26.065
603.00,26.092
604.00,26.195
605.00,26.247
606.00,26.299
607.00,26.324
608.00,26.386
609.00,26.485
610.00,26.629
611.00,26.645
612.00,26.698
613.00,26.741
614.00,26.849
615.00,26.919
616.00,27.035
617.00,27.081
618.00,27.183
619.00,27.248
620.00,27.263
621.00,27.336
622.00,27.453
623.00,27.525
624.00,27.632
625.00,27.758
626.00,27.794
627.00,27.905
628.00,27.986
629.00,28.045
630.00,28.123
631.00,28.239
632.00,28.333
633.00,28.450
634.00,28.537
635.00,28.682
636.00,28.812
637.00,28.908
638.00,29.022
639.00,29.088
640.00,29.202
641.00,29.272
642.00,29.373
643.00,29.491
644.00,29.632
645.00,29.756
646.00,29.871
647.00,30.030
648.00,30.138
649.00,30.300
650.00,30.373
651.00,30.505
652.00,30.602
653.00,30.784
654.00,30.926
655.00,31.041
656.00,31.236
657.00,31.361
658.00,31.601
659.00,31.689
660.00,31.812
661.00,31.901
662.00,32.088
663.00,32.137
664.00,32.319
665.00,32.485
666.00,32.532
667.00,32.738
668.00,32.843
669.00,33.089
670.00,33.273
671.00,33.297
672.00,33.425
673.00,33.661
674.00,33.857
675.00,34.005
676.00,34.146
677.00,34.357
678.00,34.308
679.00,34.507
680.00,34.694
681.00,34.926
682.00,35.041
683.00,35.201
684.00,35.402
685.00,35.523
686.00,35.636
687.00,35.825
688.00,35.998
689.00,36.093
690.00,36.328
691.00,36.548
692.00,36.588
693.00,36.769
694.00,36.886
695.00,37.100
696.00,37.275
697.00,37.431
698.00,37.578
699.00,37.760
700.00,37.976
701.00,38.091
702.00,38.260
703.00,38.500
704.00,38.637
705.00,38.657
706.00,38.847
707.00,39.125
708.00,39.066
709.00,39.374
710.00,39.629
711.00,39.525
712.00,39.627
713.00,39.846
714.00,40.009
715.00,40.122
716.00,40.115
717.00,40.319
718.00,40.710
719.00,40.690
720.00,40.963
721.00,44.971
722.00,45.099
723.00,45.151
724.00,45.343
725.00,45.340
726.00,45.521
727.00,45.585
728.00,45.695
729.00,45.796
730.00,45.972
731.00,46.061
732.00,46.173
733.00,46.261
734.00,46.324
735.00,46.440
736.00,46.573
737.00,46.648
738.00,46.775
739.00,46.853
740.00,47.010
741.00,47.098
742.00,47.279
743.00,47.338
744.00,47.431
745.00,47.475
746.00,47.491
747.00,47.520
748.00,47.581
749.00,47.733
750.00,47.776
751.00,47.803
752.00,47.963
753.00,48.017
754.00,48.077
755.00,48.073
756.00,48.160
757.00,48.339
758.00,48.290
759.00,48.399
760.00,48.455
761.00,48.524
762.00,48.574
763.00,48.737
764.00,48.704
765.00,48.767
766.00,48.874
767.00,48.915
768.00,48.998
769.00,49.065
770.00,49.159
771.00,49.186
772.00,49.302
773.00,49.351
774.00,49.360
775.00,49.457
776.00,49.408
777.00,49.478
778.00,49.551
779.00,49.650
780.00,49.687
781.00,49.638
782.00,49.686
783.00,49.763
784.00,49.806
785.00,49.788
786.00,49.834
787.00,49.888
788.00,49.911
789.00,49.998
790.00,49.990
791.00,50.059
792.00,50.043
793.00,50.166
794.00,50.049
795.00,49.993
796.00,50.146
797.00,50.185
798.00,50.136
799.00,50.119
800.00,50.165
801.00,50.258
802.00,50.211
803.00,50.308
804.00,50.320
805.00,50.236
806.00,50.388
807.00,50.316
808.00,50.415
809.00,50.363
810.00,50.370
811.00,50.350
812.00,50.445
813.00,50.364
814.00,50.483
815.00,50.443
816.00,50.397
817.00,50.476
818.00,50.376
819.00,50.471
820.00,50.385
821.00,50.491
822.00,50.488
823.00,50.506
824.00,50.444
825.00,50.456
826.00,50.528
827.00,50.624
828.00,50.594
829.00,50.545
830.00,50.480
831.00,52.680
832.00,52.668
833.00,52.654
834.00,52.666
835.00,52.654
836.00,52.671
837.00,52.677
838.00,52.637
839.00,52.701
840.00,52.660
841.00,52.715
842.00,52.653
843.00,52.645
844.00,52.662
845.00,52.615
846.00,52.658
847.00,52.672
848.00,52.653
849.00,52.581
850.00,52.581
851.00,52.554
852.00,52.581
853.00,52.567
854.00,52.547
855.00,52.534
856.00,52.529
857.00,52.525
858.00,52.453
859.00,52.442
860.00,52.469
861.00,52.492
862.00,52.442
863.00,52.467
864.00,52.461
865.00,52.493
866.00,52.450
867.00,52.440
868.00,52.487
869.00,52.447
870.00,52.474
871.00,52.439
872.00,52.466
873.00,52.430
874.00,52.473
875.00,52.451
876.00,52.455
877.00,52.447
878.00,52.456
879.00,52.424
880.00,52.437
881.00,52.394
882.00,52.458
883.00,52.411
884.00,52.394
885.00,52.382
886.00,52.396
887.00,52.369
888.00,52.338
889.00,52.316
890.00,52.302
891.00,52.288
892.00,52.253
893.00,52.261
894.00,52.257
895.00,52.225
896.00,52.223
897.00,52.233
898.00,52.224
899.00,52.200
900.00,52.207
901.00,52.172
902.00,52.190
903.00,52.171
904.00,52.170
905.00,52.160
906.00,52.139
907.00,52.120
908.00,52.093
909.00,52.095
910.00,52.067
911.00,52.087
912.00,52.076
913.00,52.027
914.00,52.042
915.00,52.013
916.00,52.005
917.00,51.974
918.00,51.985
919.00,51.935
920.00,51.895
921.00,51.901
922.00,51.891
923.00,51.904
924.00,51.861
925.00,51.839
926.00,51.850
927.00,51.868
928.00,51.811
929.00,51.805
930.00,51.951
931.00,51.782
932.00,51.753
933.00,51.758
934.00,51.719
935.00,51.702
936.00,51.689
937.00,51.690
938.00,51.660
939.00,51.677
940.00,51.639
941.00,51.646
942.00,51.612
943.00,51.594
944.00,51.566
945.00,51.573
946.00,51.566
947.00,51.520
948.00,51.521
949.00,51.480
950.00,51.524
951.00,51.473
952.00,51.455
953.00,51.401
954.00,51.396
955.00,51.349
956.00,51.354
957.00,51.303
958.00,51.339
959.00,51.268
960.00,51.260
961.00,51.259
962.00,51.278
963.00,51.233
964.00,51.214
965.00,51.202
966.00,51.235
967.00,51.214
968.00,51.177
969.00,51.199
970.00,51.180
971.00,51.206
972.00,51.170
973.00,51.199
974.00,51.225
975.00,51.193
976.00,51.204
977.00,51.190
978.00,51.231
979.00,51.192
980.00,51.215
981.00,51.218
982.00,51.167
983.00,51.196
984.00,51.167
985.00,51.185
986.00,51.146
987.00,51.163
988.00,51.144
989.00,51.134
990.00,51.138
991.00,51.119
992.00,51.138
993.00,51.105
994.00,51.101
995.00,51.106
996.00,51.071
997.00,51.070
998.00,51.036
999.00,51.065
1000.00,51.012
1001.00,51.009
1002.00,51.025
1003.00,51.006
1004.00,50.989
1005.00,50.953
1006.00,50.990
1007.00,50.951
1008.00,50.941
1009.00,50.926
1010.00,50.886
1011.00,50.905
1012.00,50.904
1013.00,50.884
1014.00,50.851
1015.00,50.857
1016.00,50.832
1017.00,50.822
1018.00,50.813
1019.00,50.777
1020.00,50.785
1021.00,50.757
1022.00,50.774
1023.00,50.728
1024.00,50.736
1025.00,50.710
1026.00,50.699
1027.00,50.684
1028.00,50.657
1029.00,50.650
1030.00,50.619
1031.00,50.626
1032.00,50.597
1033.00,50.596
1034.00,50.558
1035.00,50.533
1036.00,50.521
1037.00,50.502
1038.00,50.480
1039.00,50.462
1040.00,50.455
1041.00,50.409
1042.00,50.411
1043.00,50.384
1044.00,50.433
1045.00,50.413
1046.00,50.411
1047.00,50.435
1048.00,50.434
1049.00,50.447
1050.00,50.443
1051.00,50.478
1052.00,50.462
1053.00,50.464
1054.00,50.465
1055.00,50.492
1056.00,50.508
1057.00,50.493
1058.00,50.474
1059.00,50.478
1060.00,50.486
1061.00,50.461
1062.00,50.446
1063.00,50.462
1064.00,50.431
1065.00,50.409
1066.00,50.446
1067.00,50.454
1068.00,50.439
1069.00,50.397
1070.00,50.387
1071.00,50.370
1072.00,50.414
1073.00,50.391
1074.00,50.368
1075.00,50.340
1076.00,50.337
1077.00,50.334
1078.00,50.317
1079.00,50.323
1080.00,50.313
1081.00,50.285
1082.00,50.296
1083.00,50.277
1084.00,50.282
1085.00,50.291
1086.00,50.288
1087.00,50.292
1088.00,50.240
1089.00,50.227
1090.00,50.230
1091.00,50.234
1092.00,50.216
1093.00,50.211
1094.00,50.187
1095.00,50.178
1096.00,50.157
1097.00,50.143
1098.00,50.141
1099.00,50.129
1100.00,50.114
1101.00,50.102
1102.00,50.090
1103.00,50.106
1104.00,50.093
1105.00,50.078
1106.00,50.067
1107.00,50.075
1108.00,50.052
1109.00,50.026
1110.00,50.041
1111.00,50.043
1112.00,50.037
1113.00,50.031
1114.00,50.027
1115.00,50.021
1116.00,50.000
1117.00,49.989
1118.00,49.989
1119.00,49.985
1120.00,49.968
1121.00,49.975
1122.00,49.957
1123.00,49.960
1124.00,49.937
1125.00,49.934
1126.00,49.929
1127.00,49.932
1128.00,49.905
1129.00,49.901
1130.00,49.886
1131.00,49.897
1132.00,49.903
1133.00,49.912
1134.00,49.923
1135.00,49.847
1136.00,49.852
1137.00,49.863
1138.00,49.850
1139.00,49.843
1140.00,49.838
1141.00,49.830
1142.00,49.817
1143.00,49.839
1144.00,49.799
1145.00,49.807
1146.00,49.805
1147.00,49.804
1148.00,49.795
1149.00,49.792
1150.00,49.800
1151.00,49.802
1152.00,49.776
1153.00,49.761
1154.00,49.764
1155.00,49.765
1156.00,49.748
1157.00,49.766
1158.00,49.748
1159.00,49.759
1160.00,49.742
1161.00,49.753
1162.00,49.740
1163.00,49.737
1164.00,49.749
1165.00,49.748
1166.00,49.748
1167.00,49.734
1168.00,49.748
1169.00,49.746
1170.00,49.739
1171.00,49.708
1172.00,49.718
1173.00,49.715
1174.00,49.711
1175.00,49.712
1176.00,49.709
1177.00,49.692
1178.00,49.697
1179.00,49.703
1180.00,49.674
1181.00,49.704
1182.00,49.688
1183.00,49.687
1184.00,49.681
1185.00,49.695
1186.00,49.685
1187.00,49.698
1188.00,49.681
1189.00,49.685
1190.00,49.676
1191.00,49.655
1192.00,49.679
1193.00,49.654
1194.00,49.666
1195.00,49.642
1196.00,49.669
1197.00,49.665
1198.00,49.659
1199.00,49.663
1200.00,49.669
1201.00,49.676
1202.00,49.673
1203.00,49.667
1204.00,49.662
1205.00,49.670
1206.00,49.639
1207.00,49.631
1208.00,49.622
1209.00,49.628
1210.00,49.648
1211.00,49.645
1212.00,49.659
1213.00,49.621
1214.00,49.654
1215.00,49.638
1216.00,49.644
1217.00,49.647
1218.00,49.633
1219.00,49.667
1220.00,49.625
1221.00,49.643
1222.00,49.635
1223.00,49.654
1224.00,49.641
1225.00,49.650
1226.00,49.668
1227.00,49.632
1228.00,49.653
1229.00,49.644
1230.00,49.677
1231.00,49.667
1232.00,49.682
1233.00,49.683
1234.00,49.692
1235.00,49.695
1236.00,49.697
1237.00,49.689
1238.00,49.689
1239.00,49.690
1240.00,49.673
1241.00,49.696
1242.00,49.679
1243.00,49.678
1244.00,49.675
1245.00,49.694
1246.00,49.703
1247.00,49.691
1248.00,49.704
1249.00,49.716
1250.00,49.706
1251.00,49.692
1252.00,49.701
1253.00,49.710
1254.00,49.724
1255.00,49.719
1256.00,49.740
1257.00,49.674
1258.00,49.717
1259.00,49.707
1260.00,49.740
1261.00,49.724
1262.00,49.712
1263.00,49.720
1264.00,49.725
1265.00,49.724
1266.00,49.727
1267.00,49.735
1268.00,49.744
1269.00,49.749
1270.00,49.756
1271.00,49.754
1272.00,49.762
1273.00,49.762
1274.00,49.768
1275.00,49.782
1276.00,49.773
1277.00,49.775
1278.00,49.784
1279.00,49.796
1280.00,49.784
1281.00,49.804
1282.00,49.809
1283.00,49.806
1284.00,49.791
1285.00,49.795
1286.00,49.828
1287.00,49.806
1288.00,49.826
1289.00,49.821
1290.00,49.839
1291.00,49.832
1292.00,49.826
1293.00,49.838
1294.00,49.847
1295.00,49.838
1296.00,49.839
1297.00,49.858
1298.00,49.874
1299.00,49.853
1300.00,49.863
1301.00,49.873
1302.00,49.898
1303.00,49.886
1304.00,49.867
1305.00,49.891
1306.00,49.883
1307.00,49.905
1308.00,49.907
1309.00,49.917
1310.00,49.923
1311.00,49.922
1312.00,49.911
1313.00,49.924
1314.00,49.927
1315.00,49.934
1316.00,49.946
1317.00,49.962
1318.00,49.956
1319.00,49.971
1320.00,49.976
1321.00,50.139
1322.00,50.133
1323.00,50.118
1324.00,50.112
1325.00,50.107
1326.00,50.121
1327.00,50.117
1328.00,50.106
1329.00,50.095
1330.00,50.114
1331.00,50.105
1332.00,50.098
1333.00,50.127
1334.00,50.158
1335.00,50.161
1336.00,50.196
1337.00,50.208
1338.00,50.268
1339.00,50.306
1340.00,50.356
1341.00,50.423
1342.00,50.478
1343.00,50.523
1344.00,50.575
1345.00,50.630
1346.00,50.678
1347.00,50.689
1348.00,50.709
1349.00,50.742
1350.00,50.765
1351.00,50.776
1352.00,50.785
1353.00,50.778
1354.00,50.797
1355.00,50.745
1356.00,50.797
1357.00,50.785
1358.00,50.827
1359.00,50.786
1360.00,50.911
1361.00,50.959
1362.00,50.774
1363.00,50.896
1364.00,50.831
1365.00,50.787
1366.00,50.897
1367.00,50.786
1368.00,50.771
1369.00,50.865
1370.00,50.790
1371.00,50.735
1372.00,50.772
1373.00,50.782
1374.00,50.812
1375.00,50.776
1376.00,50.767
1377.00,50.744
1378.00,50.850
1379.00,50.813
1380.00,50.819
1381.00,50.836
1382.00,50.722
1383.00,50.787
1384.00,50.724
1385.00,50.724
1386.00,50.789
1387.00,50.781
1388.00,50.715
1389.00,50.770
1390.00,50.804
1391.00,50.738
1392.00,50.747
1393.00,50.807
1394.00,50.756
1395.00,50.748
1396.00,50.698
1397.00,50.788
1398.00,50.841
1399.00,50.737
1400.00,50.718
1401.00,50.815
1402.00,50.894
1403.00,50.820
1404.00,50.872
1405.00,50.837
1406.00,50.848
1407.00,50.847
1408.00,50.830
1409.00,50.822
1410.00,50.866
1411.00,50.850
1412.00,50.933
1413.00,50.855
1414.00,50.822
1415.00,50.879
1416.00,50.909
1417.00,50.947
1418.00,50.921
1419.00,50.902
1420.00,50.918
1421.00,51.027
1422.00,50.985
1423.00,50.982
1424.00,50.993
1425.00,51.010
1426.00,51.023
1427.00,51.032
1428.00,51.023
1429.00,51.049
1430.00,51.046
1431.00,51.061
1432.00,51.074
1433.00,51.087
1434.00,51.085
1435.00,51.157
1436.00,51.147
1437.00,51.140
1438.00,51.154
1439.00,51.189
1440.00,51.202
1441.00,51.186
1442.00,51.205
1443.00,51.253
1444.00,51.276
1445.00,51.228
1446.00,51.277
1447.00,51.300
1448.00,51.319
1449.00,51.341
1450.00,51.340
1451.00,51.348
1452.00,51.355
1453.00,51.364
1454.00,51.394
1455.00,51.398
1456.00,51.409
1457.00,51.402
1458.00,51.417
1459.00,51.448
1460.00,51.483
1461.00,51.467
1462.00,51.510
1463.00,51.520
1464.00,51.528
1465.00,51.546
1466.00,51.540
1467.00,51.577
1468.00,51.635
1469.00,51.601
1470.00,51.611
1471.00,51.616
1472.00,51.626
1473.00,51.648
1474.00,51.663
1475.00,51.672
1476.00,51.691
1477.00,51.673
1478.00,51.698
1479.00,51.727
1480.00,51.709
1481.00,51.720
1482.00,51.762
1483.00,51.762
1484.00,51.780
1485.00,51.778
1486.00,51.791
1487.00,51.818
1488.00,51.808
1489.00,51.808
1490.00,51.825
1491.00,51.837
1492.00,51.912
1493.00,51.878
1494.00,51.910
1495.00,51.908
1496.00,51.909
1497.00,51.917
1498.00,51.917
1499.00,51.933
1500.00,51.942
1501.00, 
1502.00, 
1503.00, 
1504.00, 
1505.00, 
1506.00, 
1507.00, 
1508.00, 
1509.00, 
1510.00, 
1511.00, 
1512.00, 
1513.00, 
1514.00, 
1515.00, 
1516.00, 
1517.00, 
1518.00, 
1519.00, 
1520.00, 
1521.00, 
1522.00, 
1523.00, 
1524.00, 
1525.00, 
1526.00, 
1527.00, 
1528.00, 
1529.00, 
1530.00, 
1531.00, 
1532.00, 
1533.00, 
1534.00, 
1535.00, 
1536.00, 
1537.00, 
1538.00, 
1539.00, 
1540.00, 
1541.00, 
1542.00, 
1543.00, 
1544.00, 
1545.00, 
1546.00, 
1547.00, 
1548.00, 
1549.00, 
1550.00, 
1551.00, 
1552.00, 
1553.00, 
1554.00, 
1555.00, 
1556.00, 
1557.00, 
1558.00, 
1559.00, 
1560.00, 
1561.00, 
1562.00, 
1563.00, 
1564.00, 
1565.00, 
1566.00, 
1567.00, 
1568.00, 
1569.00, 
1570.00, 
1571.00, 
1572.00, 
1573.00, 
1574.00, 
1575.00, 
1576.00, 
1577.00, 
1578.00, 
1579.00, 
1580.00, 
1581.00, 
1582.00, 
1583.00, 
1584.00, 
1585.00, 
1586.00, 
1587.00, 
1588.00, 
1589.00, 
1590.00, 
1591.00, 
1592.00, 
1593.00, 
1594.00, 
1595.00, 
1596.00, 
1597.00, 
1598.00, 
1599.00, 
1600.00, 
1601.00, 
1602.00, 
1603.00, 
1604.00, 
1605.00, 
1606.00, 
1607.00, 
1608.00, 
1609.00, 
1610.00, 
1611.00, 
1612.00, 
1613.00, 
1614.00, 
1615.00, 
1616.00, 
1617.00, 
1618.00, 
1619.00, 
1620.00, 
1621.00, 
1622.00, 
1623.00, 
1624.00, 
1625.00, 
1626.00, 
1627.00, 
1628.00, 
1629.00, 
1630.00, 
1631.00, 
1632.00, 
1633.00, 
1634.00, 
1635.00, 
1636.00, 
1637.00, 
1638.00, 
1639.00, 
1640.00, 
1641.00, 
1642.00, 
1643.00, 
1644.00, 
1645.00, 
1646.00, 
1647.00, 
1648.00, 
1649.00, 
1650.00, 
1651.00, 
1652.00, 
1653.00, 
1654.00, 
1655.00, 
1656.00, 
1657.00, 
1658.00, 
1659.00, 
1660.00, 
1661.00, 
1662.00, 
1663.00, 
1664.00, 
1665.00, 
1666.00, 
1667.00, 
1668.00, 
1669.00, 
1670.00, 
1671.00, 
1672.00, 
1673.00, 
1674.00, 
1675.00, 
1676.00, 
1677.00, 
1678.00, 
1679.00, 
1680.00, 
1681.00, 
1682.00, 
1683.00, 
1684.00, 
1685.00, 
1686.00, 
1687.00, 
1688.00, 
1689.00, 
1690.00, 
1691.00, 
1692.00, 
1693.00, 
1694.00, 
1695.00, 
1696.00, 
1697.00, 
1698.00, 
1699.00, 
1700.00, 
1701.00, 
1702.00, 
1703.00, 
1704.00, 
1705.00, 
1706.00, 
1707.00, 
1708.00, 
1709.00, 
1710.00, 
1711.00, 
1712.00, 
1713.00, 
1714.00, 
1715.00, 
1716.00, 
1717.00, 
1718.00, 
1719.00, 
1720.00, 
1721.00, 
1722.00, 
1723.00, 
1724.00, 
1725.00, 
1726.00, 
1727.00, 
1728.00, 
1729.00, 
1730.00, 
1731.00, 
1732.00, 
1733.00, 
1734.00, 
1735.00, 
1736.00, 
1737.00, 
1738.00, 
1739.00, 
1740.00, 
1741.00, 
1742.00, 
1743.00, 
1744.00, 
1745.00, 
1746.00, 
1747.00, 
1748.00, 
1749.00, 
1750.00, 
1751.00, 
1752.00, 
1753.00, 
1754.00, 
1755.00, 
1756.00, 
1757.00, 
1758.00, 
1759.00, 
1760.00, 
1761.00, 
1762.00, 
1763.00, 
1764.00, 
1765.00, 
1766.00, 
1767.00, 
1768.00, 
1769.00, 
1770.00, 
1771.00, 
1772.00, 
1773.00, 
1774.00, 
1775.00, 
1776.00, 
1777.00, 
1778.00, 
1779.00, 
1780.00, 
1781.00, 
1782.00, 
1783.00, 
1784.00, 
1785.00, 
1786.00, 
1787.00, 
1788.00, 
1789.00, 
1790.00, 
1791.00, 
1792.00, 
1793.00, 
1794.00, 
1795.00, 
1796.00, 
1797.00, 
1798.00, 
1799.00, 
1800.00, 
1801.00, 
1802.00, 
1803.00, 
1804.00, 
1805.00, 
1806.00, 
1807.00, 
1808.00, 
1809.00, 
1810.00, 
1811.00, 
1812.00, 
1813.00, 
1814.00, 
1815.00, 
1816.00, 
1817.00, 
1818.00, 
1819.00, 
1820.00, 
1821.00, 
1822.00, 
1823.00, 
1824.00, 
1825.00, 
1826.00, 
1827.00, 
1828.00, 
1829.00, 
1830.00, 
1831.00, 
1832.00, 
1833.00, 
1834.00, 
1835.00, 
1836.00, 
1837.00, 
1838.00, 
1839.00, 
1840.00, 
1841.00, 
1842.00, 
1843.00, 
1844.00, 
1845.00, 
1846.00, 
1847.00, 
1848.00, 
1849.00, 
1850.00, 
1851.00, 
1852.00, 
1853.00, 
1854.00, 
1855.00, 
1856.00, 
1857.00, 
1858.00, 
1859.00, 
1860.00, 
1861.00, 
1862.00, 
1863.00, 
1864.00, 
1865.00, 
1866.00, 
1867.00, 
1868.00, 
1869.00, 
1870.00, 
1871.00, 
1872.00, 
1873.00, 
1874.00, 
1875.00, 
1876.00, 
1877.00, 
1878.00, 
1879.00, 
1880.00, 
1881.00, 
1882.00, 
1883.00, 
1884.00, 
1885.00, 
1886.00, 
1887.00, 
1888.00, 
1889.00, 
1890.00, 
1891.00, 
1892.00, 
1893.00, 
1894.00, 
1895.00, 
1896.00, 
1897.00, 
1898.00, 
1899.00, 
1900.00, 
1901.00, 
1902.00, 
1903.00, 
1904.00, 
1905.00, 
1906.00, 
1907.00, 
1908.00, 
1909.00, 
1910.00, 
1911.00, 
1912.00, 
1913.00, 
1914.00, 
1915.00, 
1916.00, 
1917.00, 
1918.00, 
1919.00, 
1920.00, 
1921.00, 
1922.00, 
1923.00, 
1924.00, 
1925.00, 
1926.00, 
1927.00, 
1928.00, 
1929.00, 
1930.00, 
1931.00, 
1932.00, 
1933.00, 
1934.00, 
1935.00, 
1936.00, 
1937.00, 
1938.00, 
1939.00, 
1940.00, 
1941.00, 
1942.00, 
1943.00, 
1944.00, 
1945.00, 
1946.00, 
1947.00, 
1948.00, 
1949.00, 
1950.00, 
1951.00, 
1952.00, 
1953.00, 
1954.00, 
1955.00, 
1956.00, 
1957.00, 
1958.00, 
1959.00, 
1960.00, 
1961.00, 
1962.00, 
1963.00, 
1964.00, 
1965.00, 
1966.00, 
1967.00, 
1968.00, 
1969.00, 
1970.00, 
1971.00, 
1972.00, 
1973.00, 
1974.00, 
1975.00, 
1976.00, 
1977.00, 
1978.00, 
1979.00, 
1980.00, 
1981.00, 
1982.00, 
1983.00, 
1984.00, 
1985.00, 
1986.00, 
1987.00, 
1988.00, 
1989.00, 
1990.00, 
1991.00, 
1992.00, 
1993.00, 
1994.00, 
1995.00, 
1996.00, 
1997.00, 
1998.00, 
1999.00, 
2000.00, 
2001.00, 
2002.00, 
2003.00, 
2004.00, 
2005.00, 
2006.00, 
2007.00, 
2008.00, 
2009.00, 
2010.00, 
2011.00, 
2012.00, 
2013.00, 
2014.00, 
2015.00, 
2016.00, 
2017.00, 
2018.00, 
2019.00, 
2020.00, 
2021.00, 
2022.00, 
2023.00, 
2024.00, 
2025.00, 
2026.00, 
2027.00, 
2028.00, 
2029.00, 
2030.00, 
2031.00, 
2032.00, 
2033.00, 
2034.00, 
2035.00, 
2036.00, 
2037.00, 
2038.00, 
2039.00, 
2040.00, 
2041.00, 
2042.00, 
2043.00, 
2044.00, 
2045.00, 
2046.00, 
2047.00, 
2048.00, 
2049.00, 
2050.00, 
2051.00, 
2052.00, 
2053.00, 
2054.00, 
2055.00, 
2056.00, 
2057.00, 
2058.00, 
2059.00, 
2060.00, 
2061.00, 
2062.00, 
2063.00, 
2064.00, 
2065.00, 
2066.00, 
2067.00, 
2068.00, 
2069.00, 
2070.00, 
2071.00, 
2072.00, 
2073.00, 
2074.00, 
2075.00, 
2076.00, 
2077.00, 
2078.00, 
2079.00, 
2080.00, 
2081.00, 
2082.00, 
2083.00, 
2084.00, 
2085.00, 
2086.00, 
2087.00, 
2088.00, 
2089.00, 
2090.00, 
2091.00, 
2092.00, 
2093.00, 
2094.00, 
2095.00, 
2096.00, 
2097.00, 
2098.00, 
2099.00, 
2100.00, 
2101.00, 
2102.00, 
2103.00, 
2104.00, 
2105.00, 
2106.00, 
2107.00, 
2108.00, 
2109.00, 
2110.00, 
2111.00, 
2112.00, 
2113.00, 
2114.00, 
2115.00, 
2116.00, 
2117.00, 
2118.00, 
2119.00, 
2120.00, 
2121.00, 
2122.00, 
2123.00, 
2124.00, 
2125.00, 
2126.00, 
2127.00, 
2128.00, 
2129.00, 
2130.00, 
2131.00, 
2132.00, 
2133.00, 
2134.00, 
2135.00, 
2136.00, 
2137.00, 
2138.00, 
2139.00, 
2140.00, 
2141.00, 
2142.00, 
2143.00, 
2144.00, 
2145.00, 
2146.00, 
2147.00, 
2148.00, 
2149.00, 
2150.00, 
2151.00, 
2152.00, 
2153.00, 
2154.00, 
2155.00, 
2156.00, 
2157.00, 
2158.00, 
2159.00, 
2160.00, 
2161.00, 
2162.00, 
2163.00, 
2164.00, 
2165.00, 
2166.00, 
2167.00, 
2168.00, 
2169.00, 
2170.00, 
2171.00, 
2172.00, 
2173.00, 
2174.00, 
2175.00, 
2176.00, 
2177.00, 
2178.00, 
2179.00, 
2180.00, 
2181.00, 
2182.00, 
2183.00, 
2184.00, 
2185.00, 
2186.00, 
2187.00, 
2188.00, 
2189.00, 
2190.00, 
2191.00, 
2192.00, 
2193.00, 
2194.00, 
2195.00, 
2196.00, 
2197.00, 
2198.00, 
2199.00, 
2200.00, 
2201.00, 
2202.00, 
2203.00, 
2204.00, 
2205.00, 
2206.00, 
2207.00, 
2208.00, 
2209.00, 
2210.00, 
2211.00, 
2212.00, 
2213.00, 
2214.00, 
2215.00, 
2216.00, 
2217.00, 
2218.00, 
2219.00, 
2220.00, 
2221.00, 
2222.00, 
2223.00, 
2224.00, 
2225.00, 
2226.00, 
2227.00, 
2228.00, 
2229.00, 
2230.00, 
2231.00, 
2232.00, 
2233.00, 
2234.00, 
2235.00, 
2236.00, 
2237.00, 
2238.00, 
2239.00, 
2240.00, 
2241.00, 
2242.00, 
2243.00, 
2244.00, 
2245.00, 
2246.00, 
2247.00, 
2248.00, 
2249.00, 
2250.00, 
2251.00, 
2252.00, 
2253.00, 
2254.00, 
2255.00, 
2256.00, 
2257.00, 
2258.00, 
2259.00, 
2260.00, 
2261.00, 
2262.00, 
2263.00, 
2264.00, 
2265.00, 
2266.00, 
2267.00, 
2268.00, 
2269.00, 
2270.00, 
2271.00, 
2272.00, 
2273.00, 
2274.00, 
2275.00, 
2276.00, 
2277.00, 
2278.00, 
2279.00, 
2280.00, 
2281.00, 
2282.00, 
2283.00, 
2284.00, 
2285.00, 
2286.00, 
2287.00, 
2288.00, 
2289.00, 
2290.00, 
2291.00, 
2292.00, 
2293.00, 
2294.00, 
2295.00, 
2296.00, 
2297.00, 
2298.00, 
2299.00, 
2300.00, 
2301.00, 
2302.00, 
2303.00, 
2304.00, 
2305.00, 
2306.00, 
2307.00, 
2308.00, 
2309.00, 
2310.00, 
2311.00, 
2312.00, 
2313.00, 
2314.00, 
2315.00, 
2316.00, 
2317.00, 
2318.00, 
2319.00, 
2320.00, 
2321.00, 
2322.00, 
2323.00, 
2324.00, 
2325.00, 
2326.00, 
2327.00, 
2328.00, 
2329.00, 
2330.00, 
2331.00, 
2332.00, 
2333.00, 
2334.00, 
2335.00, 
2336.00, 
2337.00, 
2338.00, 
2339.00, 
2340.00, 
2341.00, 
2342.00, 
2343.00, 
2344.00, 
2345.00, 
2346.00, 
2347.00, 
2348.00, 
2349.00, 
2350.00, 
2351.00, 
2352.00, 
2353.00, 
2354.00, 
2355.00, 
2356.00, 
2357.00, 
2358.00, 
2359.00, 
2360.00, 
2361.00, 
2362.00, 
2363.00, 
2364.00, 
2365.00, 
2366.00, 
2367.00, 
2368.00, 
2369.00, 
2370.00, 
2371.00, 
2372.00, 
2373.00, 
2374.00, 
2375.00, 
2376.00, 
2377.00, 
2378.00, 
2379.00, 
2380.00, 
2381.00, 
2382.00, 
2383.00, 
2384.00, 
2385.00, 
2386.00, 
2387.00, 
2388.00, 
2389.00, 
2390.00, 
2391.00, 
2392.00, 
2393.00, 
2394.00, 
2395.00, 
2396.00, 
2397.00, 
2398.00, 
2399.00, 
2400.00, 
2401.00, 
2402.00, 
2403.00, 
2404.00, 
2405.00, 
2406.00, 
2407.00, 
2408.00, 
2409.00, 
2410.00, 
2411.00, 
2412.00, 
2413.00, 
2414.00, 
2415.00, 
2416.00, 
2417.00, 
2418.00, 
2419.00, 
2420.00, 
2421.00, 
2422.00, 
2423.00, 
2424.00, 
2425.00, 
2426.00, 
2427.00, 
2428.00, 
2429.00, 
2430.00, 
2431.00, 
2432.00, 
2433.00, 
2434.00, 
2435.00, 
2436.00, 
2437.00, 
2438.00, 
2439.00, 
2440.00, 
2441.00, 
2442.00, 
2443.00, 
2444.00, 
2445.00, 
2446.00, 
2447.00, 
2448.00, 
2449.00, 
2450.00, 
2451.00, 
2452.00, 
2453.00, 
2454.00, 
2455.00, 
2456.00, 
2457.00, 
2458.00, 
2459.00, 
2460.00, 
2461.00, 
2462.00, 
2463.00, 
2464.00, 
2465.00, 
2466.00, 
2467.00, 
2468.00, 
2469.00, 
2470.00, 
2471.00, 
2472.00, 
2473.00, 
2474.00, 
2475.00, 
2476.00, 
2477.00, 
2478.00, 
2479.00, 
2480.00, 
2481.00, 
2482.00, 
2483.00, 
2484.00, 
2485.00, 
2486.00, 
2487.00, 
2488.00, 
2489.00, 
2490.00, 
2491.00, 
2492.00, 
2493.00, 
2494.00, 
2495.00, 
2496.00, 
2497.00, 
2498.00, 
2499.00, 
2500.00, 
2501.00, 
2502.00, 
2503.00, 
2504.00, 
2505.00, 
2506.00, 
2507.00, 
2508.00, 
2509.00, 
2510.00, 
2511.00, 
2512.00, 
2513.00, 
2514.00, 
2515.00, 
2516.00, 
2517.00, 
2518.00, 
2519.00, 
2520.00, 
2521.00, 
2522.00, 
2523.00, 
2524.00, 
2525.00, 
2526.00, 
2527.00, 
2528.00, 
2529.00, 
2530.00, 
2531.00, 
2532.00, 
2533.00, 
2534.00, 
2535.00, 
2536.00, 
2537.00, 
2538.00, 
2539.00, 
2540.00, 
2541.00, 
2542.00, 
2543.00, 
2544.00, 
2545.00, 
2546.00, 
2547.00, 
2548.00, 
2549.00, 
2550.00, 
2551.00, 
2552.00, 
2553.00, 
2554.00, 
2555.00, 
2556.00, 
2557.00, 
2558.00, 
2559.00, 
2560.00, 
2561.00, 
2562.00, 
2563.00, 
2564.00, 
2565.00, 
2566.00, 
2567.00, 
2568.00, 
2569.00, 
2570.00, 
2571.00, 
2572.00, 
2573.00, 
2574.00, 
2575.00, 
2576.00, 
2577.00, 
2578.00, 
2579.00, 
2580.00, 
2581.00, 
2582.00, 
2583.00, 
2584.00, 
2585.00, 
2586.00, 
2587.00, 
2588.00, 
2589.00, 
2590.00, 
2591.00, 
2592.00, 
2593.00, 
2594.00, 
2595.00, 
2596.00, 
2597.00, 
2598.00, 
2599.00, 
2600.00, 
