"1cP1 - RawData"
"Wavelength nm.","T%"
200.00,0.003
201.00,0.002
202.00,-0.002
203.00,0.001
204.00,0.005
205.00,0.000
206.00,-0.001
207.00,0.001
208.00,0.000
209.00,-0.003
210.00,-0.001
211.00,0.001
212.00,0.000
213.00,0.000
214.00,-0.000
215.00,-0.000
216.00,0.002
217.00,0.002
218.00,0.001
219.00,0.006
220.00,-0.001
221.00,0.000
222.00,0.002
223.00,0.001
224.00,0.001
225.00,-0.000
226.00,0.001
227.00,0.000
228.00,0.001
229.00,0.000
230.00,0.001
231.00,0.002
232.00,0.001
233.00,0.002
234.00,0.000
235.00,-0.001
236.00,0.000
237.00,0.001
238.00,0.000
239.00,0.000
240.00,0.001
241.00,0.000
242.00,0.001
243.00,0.002
244.00,-0.000
245.00,-0.001
246.00,0.003
247.00,-0.001
248.00,-0.000
249.00,0.001
250.00,0.001
251.00,0.001
252.00,-0.000
253.00,0.001
254.00,0.001
255.00,0.001
256.00,0.001
257.00,-0.001
258.00,0.000
259.00,0.002
260.00,-0.000
261.00,-0.002
262.00,-0.000
263.00,0.001
264.00,0.000
265.00,-0.001
266.00,0.001
267.00,0.001
268.00,0.000
269.00,0.002
270.00,0.001
271.00,0.000
272.00,-0.000
273.00,-0.000
274.00,-0.000
275.00,0.001
276.00,0.001
277.00,-0.000
278.00,-0.001
279.00,-0.000
280.00,-0.000
281.00,0.000
282.00,0.000
283.00,0.001
284.00,-0.000
285.00,-0.002
286.00,0.000
287.00,0.001
288.00,0.002
289.00,0.001
290.00,-0.001
291.00,0.000
292.00,-0.002
293.00,-0.000
294.00,-0.000
295.00,0.000
296.00,-0.000
297.00,-0.002
298.00,0.001
299.00,-0.001
300.00,-0.000
301.00,0.001
302.00,-0.003
303.00,0.002
304.00,0.001
305.00,0.003
306.00,0.002
307.00,0.003
308.00,0.003
309.00,0.012
310.00,0.016
311.00,0.027
312.00,0.036
313.00,0.056
314.00,0.086
315.00,0.132
316.00,0.188
317.00,0.265
318.00,0.355
319.00,0.479
320.00,0.633
321.00,0.835
322.00,1.050
323.00,1.338
324.00,1.656
325.00,1.993
326.00,2.370
327.00,2.811
328.00,3.298
329.00,3.802
330.00,4.358
331.00,4.912
332.00,5.523
333.00,6.190
334.00,6.827
335.00,7.534
336.00,8.205
337.00,8.928
338.00,9.601
339.00,10.229
340.00,10.866
341.00,11.560
342.00,12.194
343.00,12.834
344.00,13.452
345.00,14.050
346.00,14.538
347.00,15.023
348.00,15.536
349.00,15.961
350.00,16.435
351.00,16.816
352.00,17.190
353.00,17.591
354.00,17.920
355.00,18.259
356.00,18.510
357.00,18.778
358.00,19.064
359.00,19.343
360.00,19.578
361.00,19.667
362.00,19.942
363.00,20.067
364.00,20.176
365.00,20.295
366.00,20.359
367.00,20.478
368.00,20.521
369.00,20.587
370.00,20.649
371.00,20.675
372.00,20.646
373.00,20.648
374.00,20.651
375.00,20.633
376.00,20.471
377.00,20.424
378.00,20.336
379.00,20.253
380.00,20.235
381.00,20.227
382.00,20.188
383.00,20.230
384.00,20.268
385.00,20.334
386.00,20.355
387.00,20.437
388.00,20.518
389.00,20.524
390.00,20.566
391.00,20.625
392.00,20.621
393.00,20.656
394.00,20.691
395.00,20.732
396.00,20.701
397.00,20.701
398.00,20.731
399.00,20.709
400.00,20.682
401.00,20.731
402.00,20.709
403.00,20.669
404.00,20.691
405.00,20.695
406.00,20.650
407.00,20.578
408.00,20.599
409.00,20.531
410.00,20.502
411.00,20.489
412.00,20.477
413.00,20.476
414.00,20.429
415.00,20.440
416.00,20.465
417.00,20.466
418.00,20.477
419.00,20.557
420.00,20.593
421.00,20.578
422.00,20.590
423.00,20.620
424.00,20.668
425.00,20.680
426.00,20.709
427.00,20.765
428.00,20.799
429.00,20.833
430.00,20.885
431.00,20.940
432.00,20.953
433.00,21.002
434.00,21.036
435.00,21.126
436.00,21.158
437.00,21.240
438.00,21.301
439.00,21.359
440.00,21.405
441.00,21.492
442.00,21.571
443.00,21.630
444.00,21.729
445.00,21.798
446.00,21.919
447.00,21.977
448.00,22.091
449.00,22.183
450.00,22.305
451.00,22.370
452.00,22.466
453.00,22.619
454.00,22.691
455.00,22.756
456.00,22.894
457.00,23.035
458.00,23.105
459.00,23.255
460.00,23.377
461.00,23.479
462.00,23.592
463.00,23.720
464.00,23.838
465.00,23.975
466.00,24.087
467.00,24.225
468.00,24.297
469.00,24.437
470.00,24.527
471.00,24.594
472.00,24.743
473.00,24.831
474.00,24.948
475.00,25.061
476.00,25.180
477.00,25.289
478.00,25.416
479.00,25.622
480.00,25.718
481.00,25.810
482.00,25.975
483.00,26.149
484.00,26.303
485.00,26.413
486.00,26.593
487.00,26.750
488.00,26.858
489.00,27.053
490.00,27.191
491.00,27.336
492.00,27.576
493.00,27.729
494.00,27.691
495.00,27.767
496.00,27.948
497.00,28.088
498.00,28.238
499.00,28.367
500.00,28.504
501.00,28.576
502.00,28.782
503.00,28.900
504.00,28.939
505.00,29.103
506.00,29.257
507.00,29.304
508.00,29.367
509.00,29.596
510.00,29.769
511.00,29.832
512.00,30.014
513.00,30.130
514.00,30.255
515.00,30.401
516.00,30.501
517.00,30.576
518.00,30.736
519.00,30.816
520.00,30.876
521.00,30.980
522.00,31.075
523.00,31.078
524.00,31.212
525.00,31.339
526.00,31.484
527.00,31.531
528.00,31.569
529.00,31.809
530.00,31.917
531.00,32.032
532.00,32.081
533.00,32.241
534.00,32.341
535.00,32.439
536.00,32.508
537.00,32.607
538.00,32.667
539.00,32.729
540.00,32.813
541.00,32.889
542.00,32.919
543.00,32.955
544.00,33.080
545.00,33.153
546.00,33.237
547.00,33.374
548.00,33.423
549.00,33.475
550.00,33.601
551.00,33.670
552.00,33.796
553.00,33.888
554.00,33.843
555.00,33.888
556.00,33.975
557.00,34.020
558.00,34.092
559.00,34.171
560.00,34.268
561.00,34.348
562.00,34.415
563.00,34.468
564.00,34.501
565.00,34.510
566.00,34.575
567.00,34.621
568.00,34.610
569.00,34.690
570.00,34.703
571.00,34.764
572.00,34.770
573.00,34.773
574.00,34.830
575.00,34.855
576.00,34.842
577.00,34.935
578.00,35.057
579.00,35.124
580.00,35.169
581.00,35.214
582.00,35.301
583.00,35.279
584.00,35.441
585.00,35.526
586.00,35.632
587.00,35.642
588.00,35.677
589.00,35.662
590.00,35.683
591.00,35.830
592.00,35.802
593.00,35.827
594.00,35.965
595.00,36.021
596.00,36.074
597.00,36.102
598.00,36.165
599.00,36.211
600.00,36.240
601.00,36.304
602.00,36.305
603.00,36.358
604.00,36.435
605.00,36.463
606.00,36.483
607.00,36.519
608.00,36.717
609.00,36.751
610.00,36.625
611.00,36.741
612.00,36.770
613.00,36.798
614.00,36.865
615.00,36.926
616.00,37.028
617.00,37.016
618.00,36.976
619.00,37.113
620.00,37.126
621.00,37.236
622.00,37.299
623.00,37.321
624.00,37.323
625.00,37.516
626.00,37.547
627.00,37.602
628.00,37.685
629.00,37.654
630.00,37.716
631.00,37.815
632.00,37.831
633.00,37.994
634.00,38.084
635.00,38.171
636.00,38.203
637.00,38.285
638.00,38.339
639.00,38.450
640.00,38.436
641.00,38.475
642.00,38.636
643.00,38.622
644.00,38.722
645.00,38.828
646.00,38.915
647.00,39.050
648.00,39.082
649.00,39.082
650.00,39.121
651.00,39.307
652.00,39.392
653.00,39.397
654.00,39.506
655.00,39.583
656.00,39.940
657.00,39.718
658.00,39.815
659.00,39.956
660.00,40.027
661.00,40.062
662.00,40.079
663.00,40.250
664.00,40.518
665.00,40.689
666.00,40.554
667.00,40.638
668.00,40.784
669.00,41.096
670.00,41.202
671.00,41.061
672.00,41.144
673.00,41.149
674.00,41.338
675.00,41.526
676.00,41.611
677.00,41.821
678.00,41.631
679.00,41.855
680.00,41.972
681.00,42.097
682.00,42.135
683.00,42.081
684.00,42.435
685.00,42.373
686.00,42.232
687.00,42.465
688.00,42.629
689.00,42.620
690.00,42.933
691.00,43.152
692.00,42.890
693.00,42.874
694.00,43.063
695.00,43.170
696.00,43.269
697.00,43.261
698.00,43.412
699.00,43.747
700.00,43.692
701.00,43.664
702.00,43.796
703.00,43.994
704.00,44.152
705.00,44.052
706.00,44.124
707.00,44.153
708.00,44.057
709.00,44.481
710.00,44.840
711.00,44.594
712.00,44.616
713.00,44.717
714.00,44.871
715.00,44.722
716.00,44.834
717.00,44.960
718.00,45.089
719.00,45.280
720.00,45.237
721.00,49.619
722.00,49.600
723.00,49.729
724.00,49.684
725.00,49.778
726.00,49.756
727.00,49.749
728.00,49.809
729.00,49.860
730.00,49.827
731.00,49.888
732.00,49.877
733.00,49.948
734.00,49.934
735.00,50.009
736.00,50.076
737.00,50.179
738.00,50.239
739.00,50.169
740.00,50.144
741.00,50.249
742.00,50.331
743.00,50.266
744.00,50.342
745.00,50.326
746.00,50.300
747.00,50.301
748.00,50.322
749.00,50.326
750.00,50.335
751.00,50.348
752.00,50.402
753.00,50.434
754.00,50.364
755.00,50.368
756.00,50.391
757.00,50.449
758.00,50.454
759.00,50.431
760.00,50.469
761.00,50.526
762.00,50.450
763.00,50.558
764.00,50.552
765.00,50.593
766.00,50.558
767.00,50.626
768.00,50.601
769.00,50.611
770.00,50.614
771.00,50.636
772.00,50.712
773.00,50.640
774.00,50.683
775.00,50.688
776.00,50.680
777.00,50.705
778.00,50.650
779.00,50.768
780.00,50.728
781.00,50.697
782.00,50.669
783.00,50.679
784.00,50.690
785.00,50.684
786.00,50.742
787.00,50.628
788.00,50.691
789.00,50.589
790.00,50.613
791.00,50.707
792.00,50.605
793.00,50.571
794.00,50.604
795.00,50.660
796.00,50.627
797.00,50.500
798.00,50.591
799.00,50.463
800.00,50.543
801.00,50.493
802.00,50.530
803.00,50.556
804.00,50.424
805.00,50.483
806.00,50.504
807.00,50.449
808.00,50.520
809.00,50.391
810.00,50.360
811.00,50.420
812.00,50.393
813.00,50.343
814.00,50.446
815.00,50.344
816.00,50.351
817.00,50.311
818.00,50.189
819.00,50.341
820.00,50.226
821.00,50.206
822.00,50.265
823.00,50.221
824.00,50.304
825.00,50.208
826.00,50.214
827.00,50.320
828.00,50.216
829.00,50.121
830.00,50.236
831.00,52.513
832.00,52.469
833.00,52.440
834.00,52.480
835.00,52.431
836.00,52.428
837.00,52.371
838.00,52.373
839.00,52.361
840.00,52.301
841.00,52.330
842.00,52.288
843.00,52.321
844.00,52.260
845.00,52.226
846.00,52.259
847.00,52.235
848.00,52.213
849.00,52.131
850.00,52.151
851.00,52.038
852.00,52.175
853.00,52.021
854.00,52.047
855.00,51.972
856.00,52.004
857.00,51.950
858.00,51.890
859.00,51.901
860.00,51.888
861.00,51.924
862.00,51.839
863.00,51.864
864.00,51.821
865.00,51.842
866.00,51.818
867.00,51.783
868.00,51.823
869.00,51.770
870.00,51.808
871.00,51.753
872.00,51.740
873.00,51.713
874.00,51.724
875.00,51.696
876.00,51.695
877.00,51.660
878.00,51.677
879.00,51.645
880.00,51.638
881.00,51.608
882.00,51.633
883.00,51.598
884.00,51.559
885.00,51.555
886.00,51.548
887.00,51.517
888.00,51.496
889.00,51.483
890.00,51.483
891.00,51.453
892.00,51.421
893.00,51.402
894.00,51.393
895.00,51.372
896.00,51.348
897.00,51.343
898.00,51.319
899.00,51.308
900.00,51.307
901.00,51.268
902.00,51.285
903.00,51.265
904.00,51.241
905.00,51.238
906.00,51.228
907.00,51.194
908.00,51.146
909.00,51.145
910.00,51.100
911.00,51.111
912.00,51.109
913.00,51.047
914.00,51.050
915.00,51.022
916.00,50.993
917.00,50.993
918.00,51.007
919.00,50.952
920.00,50.923
921.00,50.888
922.00,50.987
923.00,50.840
924.00,50.783
925.00,50.825
926.00,50.808
927.00,50.782
928.00,50.757
929.00,50.770
930.00,50.724
931.00,50.742
932.00,50.686
933.00,50.707
934.00,50.688
935.00,50.624
936.00,50.605
937.00,50.630
938.00,50.629
939.00,50.611
940.00,50.560
941.00,50.556
942.00,50.534
943.00,50.518
944.00,50.468
945.00,50.474
946.00,50.472
947.00,50.440
948.00,50.428
949.00,50.403
950.00,50.383
951.00,50.350
952.00,50.340
953.00,50.312
954.00,50.275
955.00,50.232
956.00,50.239
957.00,50.185
958.00,50.200
959.00,50.164
960.00,50.153
961.00,50.136
962.00,50.153
963.00,50.093
964.00,50.103
965.00,50.103
966.00,50.084
967.00,50.085
968.00,50.043
969.00,50.094
970.00,50.056
971.00,50.050
972.00,50.024
973.00,50.066
974.00,50.081
975.00,50.046
976.00,50.067
977.00,50.049
978.00,50.093
979.00,50.044
980.00,50.062
981.00,50.075
982.00,49.986
983.00,50.083
984.00,50.025
985.00,50.026
986.00,50.012
987.00,50.043
988.00,50.001
989.00,49.988
990.00,49.970
991.00,49.953
992.00,49.983
993.00,49.931
994.00,49.930
995.00,49.922
996.00,49.924
997.00,49.890
998.00,49.873
999.00,49.927
1000.00,49.846
1001.00,49.844
1002.00,49.830
1003.00,49.835
1004.00,49.804
1005.00,49.773
1006.00,49.801
1007.00,49.741
1008.00,49.744
1009.00,49.735
1010.00,49.730
1011.00,49.761
1012.00,49.738
1013.00,49.708
1014.00,49.673
1015.00,49.672
1016.00,49.650
1017.00,49.636
1018.00,49.625
1019.00,49.590
1020.00,49.580
1021.00,49.563
1022.00,49.580
1023.00,49.519
1024.00,49.535
1025.00,49.519
1026.00,49.489
1027.00,49.471
1028.00,49.477
1029.00,49.457
1030.00,49.421
1031.00,49.442
1032.00,49.406
1033.00,49.406
1034.00,49.361
1035.00,49.326
1036.00,49.320
1037.00,49.276
1038.00,49.280
1039.00,49.256
1040.00,49.237
1041.00,49.230
1042.00,49.224
1043.00,49.190
1044.00,49.241
1045.00,49.211
1046.00,49.203
1047.00,49.235
1048.00,49.230
1049.00,49.255
1050.00,49.252
1051.00,49.278
1052.00,49.286
1053.00,49.284
1054.00,49.279
1055.00,49.305
1056.00,49.328
1057.00,49.312
1058.00,49.302
1059.00,49.295
1060.00,49.358
1061.00,49.291
1062.00,49.278
1063.00,49.296
1064.00,49.306
1065.00,49.283
1066.00,49.273
1067.00,49.255
1068.00,49.289
1069.00,49.243
1070.00,49.223
1071.00,49.234
1072.00,49.255
1073.00,49.219
1074.00,49.217
1075.00,49.208
1076.00,49.211
1077.00,49.189
1078.00,49.154
1079.00,49.162
1080.00,49.171
1081.00,49.146
1082.00,49.141
1083.00,49.140
1084.00,49.118
1085.00,49.132
1086.00,49.112
1087.00,49.124
1088.00,49.104
1089.00,49.094
1090.00,49.085
1091.00,49.104
1092.00,49.075
1093.00,49.067
1094.00,49.035
1095.00,49.024
1096.00,49.009
1097.00,49.007
1098.00,49.000
1099.00,49.006
1100.00,48.976
1101.00,48.993
1102.00,48.983
1103.00,48.973
1104.00,48.974
1105.00,48.974
1106.00,48.933
1107.00,48.943
1108.00,48.930
1109.00,48.922
1110.00,48.920
1111.00,48.906
1112.00,48.892
1113.00,48.896
1114.00,48.864
1115.00,48.881
1116.00,48.876
1117.00,48.868
1118.00,48.871
1119.00,48.878
1120.00,48.842
1121.00,48.843
1122.00,48.817
1123.00,48.829
1124.00,48.830
1125.00,48.818
1126.00,48.814
1127.00,48.812
1128.00,48.780
1129.00,48.771
1130.00,48.737
1131.00,48.750
1132.00,48.745
1133.00,48.748
1134.00,48.746
1135.00,48.743
1136.00,48.722
1137.00,48.745
1138.00,48.745
1139.00,48.751
1140.00,48.746
1141.00,48.743
1142.00,48.722
1143.00,48.747
1144.00,48.701
1145.00,48.707
1146.00,48.717
1147.00,48.698
1148.00,48.697
1149.00,48.708
1150.00,48.697
1151.00,48.698
1152.00,48.689
1153.00,48.693
1154.00,48.675
1155.00,48.686
1156.00,48.674
1157.00,48.690
1158.00,48.673
1159.00,48.677
1160.00,48.683
1161.00,48.670
1162.00,48.683
1163.00,48.674
1164.00,48.675
1165.00,48.666
1166.00,48.676
1167.00,48.680
1168.00,48.709
1169.00,48.682
1170.00,48.677
1171.00,48.662
1172.00,48.660
1173.00,48.649
1174.00,48.654
1175.00,48.642
1176.00,48.653
1177.00,48.630
1178.00,48.639
1179.00,48.655
1180.00,48.620
1181.00,48.669
1182.00,48.643
1183.00,48.643
1184.00,48.643
1185.00,48.651
1186.00,48.637
1187.00,48.651
1188.00,48.642
1189.00,48.643
1190.00,48.638
1191.00,48.622
1192.00,48.652
1193.00,48.631
1194.00,48.641
1195.00,48.609
1196.00,48.637
1197.00,48.644
1198.00,48.631
1199.00,48.641
1200.00,48.650
1201.00,48.679
1202.00,48.637
1203.00,48.647
1204.00,48.641
1205.00,48.645
1206.00,48.641
1207.00,48.634
1208.00,48.626
1209.00,48.648
1210.00,48.628
1211.00,48.627
1212.00,48.666
1213.00,48.605
1214.00,48.652
1215.00,48.625
1216.00,48.634
1217.00,48.654
1218.00,48.635
1219.00,48.648
1220.00,48.644
1221.00,48.654
1222.00,48.633
1223.00,48.667
1224.00,48.657
1225.00,48.657
1226.00,48.662
1227.00,48.639
1228.00,48.671
1229.00,48.661
1230.00,48.700
1231.00,48.690
1232.00,48.730
1233.00,48.718
1234.00,48.729
1235.00,48.712
1236.00,48.721
1237.00,48.732
1238.00,48.722
1239.00,48.744
1240.00,48.713
1241.00,48.730
1242.00,48.731
1243.00,48.733
1244.00,48.716
1245.00,48.757
1246.00,48.740
1247.00,48.743
1248.00,48.743
1249.00,48.744
1250.00,48.757
1251.00,48.744
1252.00,48.752
1253.00,48.772
1254.00,48.801
1255.00,48.741
1256.00,48.741
1257.00,48.723
1258.00,48.789
1259.00,48.788
1260.00,48.810
1261.00,48.836
1262.00,48.816
1263.00,48.805
1264.00,48.818
1265.00,48.820
1266.00,48.806
1267.00,48.839
1268.00,48.827
1269.00,48.848
1270.00,48.863
1271.00,48.851
1272.00,48.865
1273.00,48.876
1274.00,48.875
1275.00,48.894
1276.00,48.872
1277.00,48.892
1278.00,48.903
1279.00,48.897
1280.00,48.887
1281.00,48.931
1282.00,48.938
1283.00,48.921
1284.00,48.956
1285.00,48.927
1286.00,48.948
1287.00,48.932
1288.00,48.935
1289.00,48.941
1290.00,48.946
1291.00,48.961
1292.00,48.961
1293.00,48.945
1294.00,48.973
1295.00,48.978
1296.00,48.986
1297.00,48.995
1298.00,49.030
1299.00,48.995
1300.00,49.032
1301.00,48.999
1302.00,49.030
1303.00,49.029
1304.00,49.000
1305.00,49.051
1306.00,49.050
1307.00,49.074
1308.00,49.066
1309.00,49.079
1310.00,49.091
1311.00,49.092
1312.00,49.072
1313.00,49.102
1314.00,49.114
1315.00,49.117
1316.00,49.123
1317.00,49.154
1318.00,49.129
1319.00,49.155
1320.00,49.149
1321.00,49.320
1322.00,49.318
1323.00,49.311
1324.00,49.292
1325.00,49.304
1326.00,49.299
1327.00,49.314
1328.00,49.322
1329.00,49.302
1330.00,49.340
1331.00,49.315
1332.00,49.277
1333.00,49.389
1334.00,49.330
1335.00,49.355
1336.00,49.386
1337.00,49.413
1338.00,49.478
1339.00,49.537
1340.00,49.578
1341.00,49.654
1342.00,49.722
1343.00,49.784
1344.00,49.834
1345.00,49.887
1346.00,49.908
1347.00,49.949
1348.00,49.959
1349.00,49.992
1350.00,50.009
1351.00,49.992
1352.00,50.031
1353.00,50.068
1354.00,50.038
1355.00,49.988
1356.00,50.054
1357.00,50.049
1358.00,50.052
1359.00,50.090
1360.00,50.277
1361.00,50.567
1362.00,50.057
1363.00,50.110
1364.00,50.140
1365.00,50.057
1366.00,50.131
1367.00,50.104
1368.00,50.077
1369.00,50.110
1370.00,50.081
1371.00,50.046
1372.00,50.063
1373.00,50.110
1374.00,50.089
1375.00,50.079
1376.00,50.114
1377.00,50.055
1378.00,50.109
1379.00,50.115
1380.00,50.112
1381.00,50.137
1382.00,50.060
1383.00,50.087
1384.00,50.031
1385.00,50.060
1386.00,50.134
1387.00,50.071
1388.00,50.024
1389.00,50.042
1390.00,50.109
1391.00,50.080
1392.00,50.024
1393.00,50.021
1394.00,50.088
1395.00,50.029
1396.00,50.009
1397.00,50.041
1398.00,50.044
1399.00,50.112
1400.00,50.037
1401.00,50.058
1402.00,50.099
1403.00,50.124
1404.00,50.108
1405.00,50.129
1406.00,50.141
1407.00,50.124
1408.00,50.165
1409.00,50.115
1410.00,50.174
1411.00,50.130
1412.00,50.195
1413.00,50.170
1414.00,50.167
1415.00,50.194
1416.00,50.240
1417.00,50.244
1418.00,50.218
1419.00,50.228
1420.00,50.233
1421.00,50.315
1422.00,50.292
1423.00,50.314
1424.00,50.342
1425.00,50.353
1426.00,50.348
1427.00,50.378
1428.00,50.370
1429.00,50.392
1430.00,50.398
1431.00,50.398
1432.00,50.437
1433.00,50.438
1434.00,50.447
1435.00,50.523
1436.00,50.511
1437.00,50.515
1438.00,50.550
1439.00,50.551
1440.00,50.580
1441.00,50.576
1442.00,50.599
1443.00,50.633
1444.00,50.653
1445.00,50.621
1446.00,50.656
1447.00,50.674
1448.00,50.733
1449.00,50.746
1450.00,50.736
1451.00,50.766
1452.00,50.802
1453.00,50.788
1454.00,50.815
1455.00,50.826
1456.00,50.848
1457.00,50.853
1458.00,50.868
1459.00,50.894
1460.00,50.922
1461.00,50.896
1462.00,50.946
1463.00,50.958
1464.00,50.966
1465.00,50.994
1466.00,50.988
1467.00,51.020
1468.00,51.083
1469.00,51.046
1470.00,51.074
1471.00,51.098
1472.00,51.090
1473.00,51.123
1474.00,51.164
1475.00,51.145
1476.00,51.186
1477.00,51.158
1478.00,51.183
1479.00,51.208
1480.00,51.198
1481.00,51.208
1482.00,51.254
1483.00,51.272
1484.00,51.297
1485.00,51.295
1486.00,51.309
1487.00,51.343
1488.00,51.335
1489.00,51.344
1490.00,51.387
1491.00,51.378
1492.00,51.415
1493.00,51.406
1494.00,51.445
1495.00,51.428
1496.00,51.470
1497.00,51.438
1498.00,51.452
1499.00,51.469
1500.00,51.496
1501.00, 
1502.00, 
1503.00, 
1504.00, 
1505.00, 
1506.00, 
1507.00, 
1508.00, 
1509.00, 
1510.00, 
1511.00, 
1512.00, 
1513.00, 
1514.00, 
1515.00, 
1516.00, 
1517.00, 
1518.00, 
1519.00, 
1520.00, 
1521.00, 
1522.00, 
1523.00, 
1524.00, 
1525.00, 
1526.00, 
1527.00, 
1528.00, 
1529.00, 
1530.00, 
1531.00, 
1532.00, 
1533.00, 
1534.00, 
1535.00, 
1536.00, 
1537.00, 
1538.00, 
1539.00, 
1540.00, 
1541.00, 
1542.00, 
1543.00, 
1544.00, 
1545.00, 
1546.00, 
1547.00, 
1548.00, 
1549.00, 
1550.00, 
1551.00, 
1552.00, 
1553.00, 
1554.00, 
1555.00, 
1556.00, 
1557.00, 
1558.00, 
1559.00, 
1560.00, 
1561.00, 
1562.00, 
1563.00, 
1564.00, 
1565.00, 
1566.00, 
1567.00, 
1568.00, 
1569.00, 
1570.00, 
1571.00, 
1572.00, 
1573.00, 
1574.00, 
1575.00, 
1576.00, 
1577.00, 
1578.00, 
1579.00, 
1580.00, 
1581.00, 
1582.00, 
1583.00, 
1584.00, 
1585.00, 
1586.00, 
1587.00, 
1588.00, 
1589.00, 
1590.00, 
1591.00, 
1592.00, 
1593.00, 
1594.00, 
1595.00, 
1596.00, 
1597.00, 
1598.00, 
1599.00, 
1600.00, 
1601.00, 
1602.00, 
1603.00, 
1604.00, 
1605.00, 
1606.00, 
1607.00, 
1608.00, 
1609.00, 
1610.00, 
1611.00, 
1612.00, 
1613.00, 
1614.00, 
1615.00, 
1616.00, 
1617.00, 
1618.00, 
1619.00, 
1620.00, 
1621.00, 
1622.00, 
1623.00, 
1624.00, 
1625.00, 
1626.00, 
1627.00, 
1628.00, 
1629.00, 
1630.00, 
1631.00, 
1632.00, 
1633.00, 
1634.00, 
1635.00, 
1636.00, 
1637.00, 
1638.00, 
1639.00, 
1640.00, 
1641.00, 
1642.00, 
1643.00, 
1644.00, 
1645.00, 
1646.00, 
1647.00, 
1648.00, 
1649.00, 
1650.00, 
1651.00, 
1652.00, 
1653.00, 
1654.00, 
1655.00, 
1656.00, 
1657.00, 
1658.00, 
1659.00, 
1660.00, 
1661.00, 
1662.00, 
1663.00, 
1664.00, 
1665.00, 
1666.00, 
1667.00, 
1668.00, 
1669.00, 
1670.00, 
1671.00, 
1672.00, 
1673.00, 
1674.00, 
1675.00, 
1676.00, 
1677.00, 
1678.00, 
1679.00, 
1680.00, 
1681.00, 
1682.00, 
1683.00, 
1684.00, 
1685.00, 
1686.00, 
1687.00, 
1688.00, 
1689.00, 
1690.00, 
1691.00, 
1692.00, 
1693.00, 
1694.00, 
1695.00, 
1696.00, 
1697.00, 
1698.00, 
1699.00, 
1700.00, 
1701.00, 
1702.00, 
1703.00, 
1704.00, 
1705.00, 
1706.00, 
1707.00, 
1708.00, 
1709.00, 
1710.00, 
1711.00, 
1712.00, 
1713.00, 
1714.00, 
1715.00, 
1716.00, 
1717.00, 
1718.00, 
1719.00, 
1720.00, 
1721.00, 
1722.00, 
1723.00, 
1724.00, 
1725.00, 
1726.00, 
1727.00, 
1728.00, 
1729.00, 
1730.00, 
1731.00, 
1732.00, 
1733.00, 
1734.00, 
1735.00, 
1736.00, 
1737.00, 
1738.00, 
1739.00, 
1740.00, 
1741.00, 
1742.00, 
1743.00, 
1744.00, 
1745.00, 
1746.00, 
1747.00, 
1748.00, 
1749.00, 
1750.00, 
1751.00, 
1752.00, 
1753.00, 
1754.00, 
1755.00, 
1756.00, 
1757.00, 
1758.00, 
1759.00, 
1760.00, 
1761.00, 
1762.00, 
1763.00, 
1764.00, 
1765.00, 
1766.00, 
1767.00, 
1768.00, 
1769.00, 
1770.00, 
1771.00, 
1772.00, 
1773.00, 
1774.00, 
1775.00, 
1776.00, 
1777.00, 
1778.00, 
1779.00, 
1780.00, 
1781.00, 
1782.00, 
1783.00, 
1784.00, 
1785.00, 
1786.00, 
1787.00, 
1788.00, 
1789.00, 
1790.00, 
1791.00, 
1792.00, 
1793.00, 
1794.00, 
1795.00, 
1796.00, 
1797.00, 
1798.00, 
1799.00, 
1800.00, 
1801.00, 
1802.00, 
1803.00, 
1804.00, 
1805.00, 
1806.00, 
1807.00, 
1808.00, 
1809.00, 
1810.00, 
1811.00, 
1812.00, 
1813.00, 
1814.00, 
1815.00, 
1816.00, 
1817.00, 
1818.00, 
1819.00, 
1820.00, 
1821.00, 
1822.00, 
1823.00, 
1824.00, 
1825.00, 
1826.00, 
1827.00, 
1828.00, 
1829.00, 
1830.00, 
1831.00, 
1832.00, 
1833.00, 
1834.00, 
1835.00, 
1836.00, 
1837.00, 
1838.00, 
1839.00, 
1840.00, 
1841.00, 
1842.00, 
1843.00, 
1844.00, 
1845.00, 
1846.00, 
1847.00, 
1848.00, 
1849.00, 
1850.00, 
1851.00, 
1852.00, 
1853.00, 
1854.00, 
1855.00, 
1856.00, 
1857.00, 
1858.00, 
1859.00, 
1860.00, 
1861.00, 
1862.00, 
1863.00, 
1864.00, 
1865.00, 
1866.00, 
1867.00, 
1868.00, 
1869.00, 
1870.00, 
1871.00, 
1872.00, 
1873.00, 
1874.00, 
1875.00, 
1876.00, 
1877.00, 
1878.00, 
1879.00, 
1880.00, 
1881.00, 
1882.00, 
1883.00, 
1884.00, 
1885.00, 
1886.00, 
1887.00, 
1888.00, 
1889.00, 
1890.00, 
1891.00, 
1892.00, 
1893.00, 
1894.00, 
1895.00, 
1896.00, 
1897.00, 
1898.00, 
1899.00, 
1900.00, 
1901.00, 
1902.00, 
1903.00, 
1904.00, 
1905.00, 
1906.00, 
1907.00, 
1908.00, 
1909.00, 
1910.00, 
1911.00, 
1912.00, 
1913.00, 
1914.00, 
1915.00, 
1916.00, 
1917.00, 
1918.00, 
1919.00, 
1920.00, 
1921.00, 
1922.00, 
1923.00, 
1924.00, 
1925.00, 
1926.00, 
1927.00, 
1928.00, 
1929.00, 
1930.00, 
1931.00, 
1932.00, 
1933.00, 
1934.00, 
1935.00, 
1936.00, 
1937.00, 
1938.00, 
1939.00, 
1940.00, 
1941.00, 
1942.00, 
1943.00, 
1944.00, 
1945.00, 
1946.00, 
1947.00, 
1948.00, 
1949.00, 
1950.00, 
1951.00, 
1952.00, 
1953.00, 
1954.00, 
1955.00, 
1956.00, 
1957.00, 
1958.00, 
1959.00, 
1960.00, 
1961.00, 
1962.00, 
1963.00, 
1964.00, 
1965.00, 
1966.00, 
1967.00, 
1968.00, 
1969.00, 
1970.00, 
1971.00, 
1972.00, 
1973.00, 
1974.00, 
1975.00, 
1976.00, 
1977.00, 
1978.00, 
1979.00, 
1980.00, 
1981.00, 
1982.00, 
1983.00, 
1984.00, 
1985.00, 
1986.00, 
1987.00, 
1988.00, 
1989.00, 
1990.00, 
1991.00, 
1992.00, 
1993.00, 
1994.00, 
1995.00, 
1996.00, 
1997.00, 
1998.00, 
1999.00, 
2000.00, 
2001.00, 
2002.00, 
2003.00, 
2004.00, 
2005.00, 
2006.00, 
2007.00, 
2008.00, 
2009.00, 
2010.00, 
2011.00, 
2012.00, 
2013.00, 
2014.00, 
2015.00, 
2016.00, 
2017.00, 
2018.00, 
2019.00, 
2020.00, 
2021.00, 
2022.00, 
2023.00, 
2024.00, 
2025.00, 
2026.00, 
2027.00, 
2028.00, 
2029.00, 
2030.00, 
2031.00, 
2032.00, 
2033.00, 
2034.00, 
2035.00, 
2036.00, 
2037.00, 
2038.00, 
2039.00, 
2040.00, 
2041.00, 
2042.00, 
2043.00, 
2044.00, 
2045.00, 
2046.00, 
2047.00, 
2048.00, 
2049.00, 
2050.00, 
2051.00, 
2052.00, 
2053.00, 
2054.00, 
2055.00, 
2056.00, 
2057.00, 
2058.00, 
2059.00, 
2060.00, 
2061.00, 
2062.00, 
2063.00, 
2064.00, 
2065.00, 
2066.00, 
2067.00, 
2068.00, 
2069.00, 
2070.00, 
2071.00, 
2072.00, 
2073.00, 
2074.00, 
2075.00, 
2076.00, 
2077.00, 
2078.00, 
2079.00, 
2080.00, 
2081.00, 
2082.00, 
2083.00, 
2084.00, 
2085.00, 
2086.00, 
2087.00, 
2088.00, 
2089.00, 
2090.00, 
2091.00, 
2092.00, 
2093.00, 
2094.00, 
2095.00, 
2096.00, 
2097.00, 
2098.00, 
2099.00, 
2100.00, 
2101.00, 
2102.00, 
2103.00, 
2104.00, 
2105.00, 
2106.00, 
2107.00, 
2108.00, 
2109.00, 
2110.00, 
2111.00, 
2112.00, 
2113.00, 
2114.00, 
2115.00, 
2116.00, 
2117.00, 
2118.00, 
2119.00, 
2120.00, 
2121.00, 
2122.00, 
2123.00, 
2124.00, 
2125.00, 
2126.00, 
2127.00, 
2128.00, 
2129.00, 
2130.00, 
2131.00, 
2132.00, 
2133.00, 
2134.00, 
2135.00, 
2136.00, 
2137.00, 
2138.00, 
2139.00, 
2140.00, 
2141.00, 
2142.00, 
2143.00, 
2144.00, 
2145.00, 
2146.00, 
2147.00, 
2148.00, 
2149.00, 
2150.00, 
2151.00, 
2152.00, 
2153.00, 
2154.00, 
2155.00, 
2156.00, 
2157.00, 
2158.00, 
2159.00, 
2160.00, 
2161.00, 
2162.00, 
2163.00, 
2164.00, 
2165.00, 
2166.00, 
2167.00, 
2168.00, 
2169.00, 
2170.00, 
2171.00, 
2172.00, 
2173.00, 
2174.00, 
2175.00, 
2176.00, 
2177.00, 
2178.00, 
2179.00, 
2180.00, 
2181.00, 
2182.00, 
2183.00, 
2184.00, 
2185.00, 
2186.00, 
2187.00, 
2188.00, 
2189.00, 
2190.00, 
2191.00, 
2192.00, 
2193.00, 
2194.00, 
2195.00, 
2196.00, 
2197.00, 
2198.00, 
2199.00, 
2200.00, 
2201.00, 
2202.00, 
2203.00, 
2204.00, 
2205.00, 
2206.00, 
2207.00, 
2208.00, 
2209.00, 
2210.00, 
2211.00, 
2212.00, 
2213.00, 
2214.00, 
2215.00, 
2216.00, 
2217.00, 
2218.00, 
2219.00, 
2220.00, 
2221.00, 
2222.00, 
2223.00, 
2224.00, 
2225.00, 
2226.00, 
2227.00, 
2228.00, 
2229.00, 
2230.00, 
2231.00, 
2232.00, 
2233.00, 
2234.00, 
2235.00, 
2236.00, 
2237.00, 
2238.00, 
2239.00, 
2240.00, 
2241.00, 
2242.00, 
2243.00, 
2244.00, 
2245.00, 
2246.00, 
2247.00, 
2248.00, 
2249.00, 
2250.00, 
2251.00, 
2252.00, 
2253.00, 
2254.00, 
2255.00, 
2256.00, 
2257.00, 
2258.00, 
2259.00, 
2260.00, 
2261.00, 
2262.00, 
2263.00, 
2264.00, 
2265.00, 
2266.00, 
2267.00, 
2268.00, 
2269.00, 
2270.00, 
2271.00, 
2272.00, 
2273.00, 
2274.00, 
2275.00, 
2276.00, 
2277.00, 
2278.00, 
2279.00, 
2280.00, 
2281.00, 
2282.00, 
2283.00, 
2284.00, 
2285.00, 
2286.00, 
2287.00, 
2288.00, 
2289.00, 
2290.00, 
2291.00, 
2292.00, 
2293.00, 
2294.00, 
2295.00, 
2296.00, 
2297.00, 
2298.00, 
2299.00, 
2300.00, 
2301.00, 
2302.00, 
2303.00, 
2304.00, 
2305.00, 
2306.00, 
2307.00, 
2308.00, 
2309.00, 
2310.00, 
2311.00, 
2312.00, 
2313.00, 
2314.00, 
2315.00, 
2316.00, 
2317.00, 
2318.00, 
2319.00, 
2320.00, 
2321.00, 
2322.00, 
2323.00, 
2324.00, 
2325.00, 
2326.00, 
2327.00, 
2328.00, 
2329.00, 
2330.00, 
2331.00, 
2332.00, 
2333.00, 
2334.00, 
2335.00, 
2336.00, 
2337.00, 
2338.00, 
2339.00, 
2340.00, 
2341.00, 
2342.00, 
2343.00, 
2344.00, 
2345.00, 
2346.00, 
2347.00, 
2348.00, 
2349.00, 
2350.00, 
2351.00, 
2352.00, 
2353.00, 
2354.00, 
2355.00, 
2356.00, 
2357.00, 
2358.00, 
2359.00, 
2360.00, 
2361.00, 
2362.00, 
2363.00, 
2364.00, 
2365.00, 
2366.00, 
2367.00, 
2368.00, 
2369.00, 
2370.00, 
2371.00, 
2372.00, 
2373.00, 
2374.00, 
2375.00, 
2376.00, 
2377.00, 
2378.00, 
2379.00, 
2380.00, 
2381.00, 
2382.00, 
2383.00, 
2384.00, 
2385.00, 
2386.00, 
2387.00, 
2388.00, 
2389.00, 
2390.00, 
2391.00, 
2392.00, 
2393.00, 
2394.00, 
2395.00, 
2396.00, 
2397.00, 
2398.00, 
2399.00, 
2400.00, 
2401.00, 
2402.00, 
2403.00, 
2404.00, 
2405.00, 
2406.00, 
2407.00, 
2408.00, 
2409.00, 
2410.00, 
2411.00, 
2412.00, 
2413.00, 
2414.00, 
2415.00, 
2416.00, 
2417.00, 
2418.00, 
2419.00, 
2420.00, 
2421.00, 
2422.00, 
2423.00, 
2424.00, 
2425.00, 
2426.00, 
2427.00, 
2428.00, 
2429.00, 
2430.00, 
2431.00, 
2432.00, 
2433.00, 
2434.00, 
2435.00, 
2436.00, 
2437.00, 
2438.00, 
2439.00, 
2440.00, 
2441.00, 
2442.00, 
2443.00, 
2444.00, 
2445.00, 
2446.00, 
2447.00, 
2448.00, 
2449.00, 
2450.00, 
2451.00, 
2452.00, 
2453.00, 
2454.00, 
2455.00, 
2456.00, 
2457.00, 
2458.00, 
2459.00, 
2460.00, 
2461.00, 
2462.00, 
2463.00, 
2464.00, 
2465.00, 
2466.00, 
2467.00, 
2468.00, 
2469.00, 
2470.00, 
2471.00, 
2472.00, 
2473.00, 
2474.00, 
2475.00, 
2476.00, 
2477.00, 
2478.00, 
2479.00, 
2480.00, 
2481.00, 
2482.00, 
2483.00, 
2484.00, 
2485.00, 
2486.00, 
2487.00, 
2488.00, 
2489.00, 
2490.00, 
2491.00, 
2492.00, 
2493.00, 
2494.00, 
2495.00, 
2496.00, 
2497.00, 
2498.00, 
2499.00, 
2500.00, 
2501.00, 
2502.00, 
2503.00, 
2504.00, 
2505.00, 
2506.00, 
2507.00, 
2508.00, 
2509.00, 
2510.00, 
2511.00, 
2512.00, 
2513.00, 
2514.00, 
2515.00, 
2516.00, 
2517.00, 
2518.00, 
2519.00, 
2520.00, 
2521.00, 
2522.00, 
2523.00, 
2524.00, 
2525.00, 
2526.00, 
2527.00, 
2528.00, 
2529.00, 
2530.00, 
2531.00, 
2532.00, 
2533.00, 
2534.00, 
2535.00, 
2536.00, 
2537.00, 
2538.00, 
2539.00, 
2540.00, 
2541.00, 
2542.00, 
2543.00, 
2544.00, 
2545.00, 
2546.00, 
2547.00, 
2548.00, 
2549.00, 
2550.00, 
2551.00, 
2552.00, 
2553.00, 
2554.00, 
2555.00, 
2556.00, 
2557.00, 
2558.00, 
2559.00, 
2560.00, 
2561.00, 
2562.00, 
2563.00, 
2564.00, 
2565.00, 
2566.00, 
2567.00, 
2568.00, 
2569.00, 
2570.00, 
2571.00, 
2572.00, 
2573.00, 
2574.00, 
2575.00, 
2576.00, 
2577.00, 
2578.00, 
2579.00, 
2580.00, 
2581.00, 
2582.00, 
2583.00, 
2584.00, 
2585.00, 
2586.00, 
2587.00, 
2588.00, 
2589.00, 
2590.00, 
2591.00, 
2592.00, 
2593.00, 
2594.00, 
2595.00, 
2596.00, 
2597.00, 
2598.00, 
2599.00, 
2600.00, 
