"1aP4 - RawData"
"Wavelength nm.","T%"
200.00,0.004
201.00,0.002
202.00,0.001
203.00,-0.002
204.00,0.001
205.00,-0.000
206.00,0.003
207.00,0.001
208.00,0.002
209.00,-0.003
210.00,0.001
211.00,-0.000
212.00,0.003
213.00,0.001
214.00,0.001
215.00,0.001
216.00,-0.001
217.00,-0.001
218.00,-0.000
219.00,-0.002
220.00,0.001
221.00,-0.004
222.00,0.001
223.00,0.001
224.00,-0.002
225.00,-0.001
226.00,0.002
227.00,-0.000
228.00,0.001
229.00,-0.001
230.00,0.001
231.00,-0.001
232.00,-0.001
233.00,-0.001
234.00,0.000
235.00,-0.002
236.00,0.002
237.00,0.001
238.00,-0.001
239.00,-0.001
240.00,0.000
241.00,0.002
242.00,0.001
243.00,0.000
244.00,0.001
245.00,-0.000
246.00,-0.001
247.00,-0.001
248.00,-0.000
249.00,0.000
250.00,-0.000
251.00,-0.001
252.00,0.001
253.00,0.001
254.00,0.001
255.00,-0.001
256.00,-0.001
257.00,-0.001
258.00,-0.000
259.00,-0.001
260.00,-0.000
261.00,0.002
262.00,0.001
263.00,0.001
264.00,0.000
265.00,0.001
266.00,-0.002
267.00,-0.000
268.00,0.000
269.00,0.000
270.00,-0.001
271.00,-0.000
272.00,0.001
273.00,-0.002
274.00,0.000
275.00,0.000
276.00,0.000
277.00,-0.001
278.00,-0.000
279.00,-0.001
280.00,0.001
281.00,-0.001
282.00,-0.001
283.00,-0.001
284.00,0.000
285.00,-0.000
286.00,0.000
287.00,0.001
288.00,-0.000
289.00,0.000
290.00,0.000
291.00,-0.002
292.00,0.000
293.00,0.000
294.00,0.000
295.00,-0.000
296.00,-0.000
297.00,-0.001
298.00,0.001
299.00,0.002
300.00,0.002
301.00,0.003
302.00,0.005
303.00,0.007
304.00,0.009
305.00,0.017
306.00,0.027
307.00,0.041
308.00,0.064
309.00,0.089
310.00,0.124
311.00,0.169
312.00,0.227
313.00,0.308
314.00,0.400
315.00,0.515
316.00,0.640
317.00,0.789
318.00,0.962
319.00,1.155
320.00,1.406
321.00,1.643
322.00,1.934
323.00,2.238
324.00,2.564
325.00,2.889
326.00,3.221
327.00,3.591
328.00,3.974
329.00,4.348
330.00,4.762
331.00,5.160
332.00,5.553
333.00,5.915
334.00,6.296
335.00,6.737
336.00,7.103
337.00,7.485
338.00,7.815
339.00,8.139
340.00,8.499
341.00,8.817
342.00,9.100
343.00,9.441
344.00,9.616
345.00,9.892
346.00,10.118
347.00,10.309
348.00,10.524
349.00,10.715
350.00,10.878
351.00,11.045
352.00,11.192
353.00,11.318
354.00,11.418
355.00,11.560
356.00,11.678
357.00,11.752
358.00,11.811
359.00,11.887
360.00,11.915
361.00,11.954
362.00,11.941
363.00,11.969
364.00,11.944
365.00,11.996
366.00,11.985
367.00,12.002
368.00,12.018
369.00,12.012
370.00,11.971
371.00,12.021
372.00,11.956
373.00,11.944
374.00,11.854
375.00,11.791
376.00,11.738
377.00,11.692
378.00,11.625
379.00,11.561
380.00,11.524
381.00,11.477
382.00,11.447
383.00,11.424
384.00,11.405
385.00,11.398
386.00,11.360
387.00,11.366
388.00,11.349
389.00,11.355
390.00,11.316
391.00,11.299
392.00,11.280
393.00,11.268
394.00,11.205
395.00,11.197
396.00,11.171
397.00,11.150
398.00,11.135
399.00,11.109
400.00,11.076
401.00,11.107
402.00,11.031
403.00,11.049
404.00,10.998
405.00,10.965
406.00,10.943
407.00,10.900
408.00,10.913
409.00,10.901
410.00,10.903
411.00,10.892
412.00,10.859
413.00,10.942
414.00,10.948
415.00,10.930
416.00,10.919
417.00,10.863
418.00,10.855
419.00,10.875
420.00,10.860
421.00,10.878
422.00,10.911
423.00,10.898
424.00,10.870
425.00,10.947
426.00,10.968
427.00,10.974
428.00,11.000
429.00,11.047
430.00,11.075
431.00,11.123
432.00,11.131
433.00,11.188
434.00,11.196
435.00,11.278
436.00,11.324
437.00,11.358
438.00,11.423
439.00,11.461
440.00,11.532
441.00,11.598
442.00,11.650
443.00,11.709
444.00,11.771
445.00,11.838
446.00,11.935
447.00,11.993
448.00,12.082
449.00,12.166
450.00,12.250
451.00,12.363
452.00,12.439
453.00,12.517
454.00,12.599
455.00,12.687
456.00,12.762
457.00,12.867
458.00,12.947
459.00,13.060
460.00,13.132
461.00,13.219
462.00,13.312
463.00,13.415
464.00,13.506
465.00,13.621
466.00,13.731
467.00,13.924
468.00,14.113
469.00,14.201
470.00,14.195
471.00,14.354
472.00,14.511
473.00,14.627
474.00,14.767
475.00,14.930
476.00,15.106
477.00,15.229
478.00,15.306
479.00,15.496
480.00,15.650
481.00,15.771
482.00,15.900
483.00,16.010
484.00,16.084
485.00,16.394
486.00,16.536
487.00,16.720
488.00,16.834
489.00,17.000
490.00,17.084
491.00,17.274
492.00,17.467
493.00,17.597
494.00,17.648
495.00,17.867
496.00,17.933
497.00,18.081
498.00,18.162
499.00,18.363
500.00,18.522
501.00,18.674
502.00,18.758
503.00,18.957
504.00,19.065
505.00,19.212
506.00,19.388
507.00,19.499
508.00,19.588
509.00,19.742
510.00,19.855
511.00,20.024
512.00,20.334
513.00,20.437
514.00,20.544
515.00,20.576
516.00,20.730
517.00,20.819
518.00,20.955
519.00,21.048
520.00,21.200
521.00,21.304
522.00,21.445
523.00,21.649
524.00,21.694
525.00,21.847
526.00,21.935
527.00,22.027
528.00,22.099
529.00,22.236
530.00,22.292
531.00,22.393
532.00,22.338
533.00,22.475
534.00,22.654
535.00,22.771
536.00,22.896
537.00,22.950
538.00,23.117
539.00,23.200
540.00,23.343
541.00,23.419
542.00,23.430
543.00,23.585
544.00,23.715
545.00,23.822
546.00,23.900
547.00,24.004
548.00,24.094
549.00,24.166
550.00,24.245
551.00,24.271
552.00,24.384
553.00,24.380
554.00,24.407
555.00,24.489
556.00,24.519
557.00,24.676
558.00,24.766
559.00,24.900
560.00,24.886
561.00,24.957
562.00,25.042
563.00,25.075
564.00,25.193
565.00,25.286
566.00,25.300
567.00,25.438
568.00,25.459
569.00,25.477
570.00,25.522
571.00,25.563
572.00,25.685
573.00,25.613
574.00,25.685
575.00,25.712
576.00,25.742
577.00,25.873
578.00,25.948
579.00,26.066
580.00,26.060
581.00,26.138
582.00,26.278
583.00,26.298
584.00,26.425
585.00,26.510
586.00,26.492
587.00,26.664
588.00,26.719
589.00,26.738
590.00,26.838
591.00,26.906
592.00,26.946
593.00,27.020
594.00,27.094
595.00,27.177
596.00,27.295
597.00,27.246
598.00,27.330
599.00,27.305
600.00,27.265
601.00,27.394
602.00,27.365
603.00,27.507
604.00,27.572
605.00,27.586
606.00,27.781
607.00,27.839
608.00,27.809
609.00,28.065
610.00,28.025
611.00,27.969
612.00,28.152
613.00,28.151
614.00,28.304
615.00,28.311
616.00,28.339
617.00,28.318
618.00,28.357
619.00,28.452
620.00,28.517
621.00,28.639
622.00,28.746
623.00,28.793
624.00,28.934
625.00,29.024
626.00,29.129
627.00,29.278
628.00,29.299
629.00,29.393
630.00,29.569
631.00,29.603
632.00,29.692
633.00,29.815
634.00,29.898
635.00,29.898
636.00,29.991
637.00,30.025
638.00,30.121
639.00,30.237
640.00,30.299
641.00,30.514
642.00,30.628
643.00,30.829
644.00,30.891
645.00,30.911
646.00,31.079
647.00,31.259
648.00,31.391
649.00,31.596
650.00,31.681
651.00,31.727
652.00,31.745
653.00,31.984
654.00,32.071
655.00,32.404
656.00,32.333
657.00,33.271
658.00,33.293
659.00,33.025
660.00,32.760
661.00,33.004
662.00,33.200
663.00,33.438
664.00,33.478
665.00,33.304
666.00,33.773
667.00,34.094
668.00,34.131
669.00,33.974
670.00,34.329
671.00,34.059
672.00,34.632
673.00,34.526
674.00,34.559
675.00,35.070
676.00,34.995
677.00,35.084
678.00,35.570
679.00,35.519
680.00,35.845
681.00,36.240
682.00,36.481
683.00,36.425
684.00,36.504
685.00,36.593
686.00,36.487
687.00,36.705
688.00,37.046
689.00,37.148
690.00,37.132
691.00,37.630
692.00,37.514
693.00,37.530
694.00,38.022
695.00,37.930
696.00,38.167
697.00,38.330
698.00,38.551
699.00,38.451
700.00,38.557
701.00,38.839
702.00,39.198
703.00,39.505
704.00,39.803
705.00,39.689
706.00,39.544
707.00,39.562
708.00,39.618
709.00,39.915
710.00,39.758
711.00,40.019
712.00,40.679
713.00,40.659
714.00,40.562
715.00,41.106
716.00,41.302
717.00,41.154
718.00,41.366
719.00,41.765
720.00,42.155
721.00,45.791
722.00,45.890
723.00,45.955
724.00,45.997
725.00,46.176
726.00,46.272
727.00,46.330
728.00,46.440
729.00,46.578
730.00,46.740
731.00,46.823
732.00,46.906
733.00,47.003
734.00,47.237
735.00,47.265
736.00,47.375
737.00,47.542
738.00,47.647
739.00,47.780
740.00,47.856
741.00,47.907
742.00,48.025
743.00,48.160
744.00,48.084
745.00,48.233
746.00,48.256
747.00,48.397
748.00,48.453
749.00,48.544
750.00,48.667
751.00,48.664
752.00,48.781
753.00,48.736
754.00,48.805
755.00,48.864
756.00,48.912
757.00,49.023
758.00,49.072
759.00,49.176
760.00,49.217
761.00,49.321
762.00,49.380
763.00,49.455
764.00,49.537
765.00,49.590
766.00,49.651
767.00,49.681
768.00,49.779
769.00,49.743
770.00,49.871
771.00,49.892
772.00,50.008
773.00,50.068
774.00,50.170
775.00,50.192
776.00,50.160
777.00,50.321
778.00,50.244
779.00,50.473
780.00,50.463
781.00,50.482
782.00,50.575
783.00,50.483
784.00,50.579
785.00,50.544
786.00,50.660
787.00,50.621
788.00,50.665
789.00,50.763
790.00,50.728
791.00,50.844
792.00,50.765
793.00,50.886
794.00,50.874
795.00,50.954
796.00,50.950
797.00,50.866
798.00,50.893
799.00,50.872
800.00,50.933
801.00,50.818
802.00,50.781
803.00,50.880
804.00,50.981
805.00,50.966
806.00,50.906
807.00,50.994
808.00,51.057
809.00,50.992
810.00,51.106
811.00,51.006
812.00,51.179
813.00,51.155
814.00,51.209
815.00,51.283
816.00,51.171
817.00,51.276
818.00,51.086
819.00,51.117
820.00,51.254
821.00,51.144
822.00,51.240
823.00,51.283
824.00,51.425
825.00,51.137
826.00,51.136
827.00,51.238
828.00,51.027
829.00,51.229
830.00,51.198
831.00,53.705
832.00,53.698
833.00,53.741
834.00,53.699
835.00,53.755
836.00,53.738
837.00,53.727
838.00,53.745
839.00,53.774
840.00,53.775
841.00,53.777
842.00,53.794
843.00,53.754
844.00,53.793
845.00,53.654
846.00,53.699
847.00,53.612
848.00,53.767
849.00,53.817
850.00,53.761
851.00,53.752
852.00,53.654
853.00,53.731
854.00,53.700
855.00,53.684
856.00,53.604
857.00,53.670
858.00,53.690
859.00,53.708
860.00,53.725
861.00,53.676
862.00,53.698
863.00,53.632
864.00,53.773
865.00,53.630
866.00,53.649
867.00,53.626
868.00,53.720
869.00,53.692
870.00,53.668
871.00,53.706
872.00,53.698
873.00,53.685
874.00,53.575
875.00,53.638
876.00,53.612
877.00,53.733
878.00,53.608
879.00,53.707
880.00,53.682
881.00,53.681
882.00,53.580
883.00,53.690
884.00,53.628
885.00,53.662
886.00,53.565
887.00,53.614
888.00,53.677
889.00,53.616
890.00,53.492
891.00,53.528
892.00,53.593
893.00,53.578
894.00,53.484
895.00,53.534
896.00,53.596
897.00,53.555
898.00,53.452
899.00,53.397
900.00,53.434
901.00,53.380
902.00,53.357
903.00,53.465
904.00,53.536
905.00,53.463
906.00,53.346
907.00,53.404
908.00,53.508
909.00,53.433
910.00,53.358
911.00,53.256
912.00,53.303
913.00,53.213
914.00,53.281
915.00,53.385
916.00,53.536
917.00,53.405
918.00,53.285
919.00,53.369
920.00,53.503
921.00,53.335
922.00,53.127
923.00,53.341
924.00,53.444
925.00,53.259
926.00,53.156
927.00,53.202
928.00,53.373
929.00,53.201
930.00,53.117
931.00,53.114
932.00,53.237
933.00,53.098
934.00,53.093
935.00,53.120
936.00,53.225
937.00,53.070
938.00,52.968
939.00,53.068
940.00,53.159
941.00,53.032
942.00,52.947
943.00,52.997
944.00,53.071
945.00,52.981
946.00,52.915
947.00,52.975
948.00,52.944
949.00,52.915
950.00,52.836
951.00,52.892
952.00,52.911
953.00,52.885
954.00,52.755
955.00,52.785
956.00,52.781
957.00,52.738
958.00,52.681
959.00,52.681
960.00,52.662
961.00,52.658
962.00,52.620
963.00,52.609
964.00,52.634
965.00,52.596
966.00,52.609
967.00,52.598
968.00,52.633
969.00,52.577
970.00,52.579
971.00,52.599
972.00,52.619
973.00,52.613
974.00,52.623
975.00,52.634
976.00,52.574
977.00,52.609
978.00,52.633
979.00,52.631
980.00,52.630
981.00,52.615
982.00,52.612
983.00,52.546
984.00,52.660
985.00,52.574
986.00,52.617
987.00,52.594
988.00,52.572
989.00,52.563
990.00,52.547
991.00,52.555
992.00,52.542
993.00,52.557
994.00,52.516
995.00,52.479
996.00,52.488
997.00,52.477
998.00,52.495
999.00,52.473
1000.00,52.475
1001.00,52.453
1002.00,52.436
1003.00,52.454
1004.00,52.411
1005.00,52.420
1006.00,52.404
1007.00,52.437
1008.00,52.394
1009.00,52.399
1010.00,52.364
1011.00,52.331
1012.00,52.332
1013.00,52.330
1014.00,52.343
1015.00,52.314
1016.00,52.285
1017.00,52.274
1018.00,52.263
1019.00,52.286
1020.00,52.248
1021.00,52.280
1022.00,52.254
1023.00,52.222
1024.00,52.199
1025.00,52.203
1026.00,52.224
1027.00,52.192
1028.00,52.166
1029.00,52.176
1030.00,52.227
1031.00,52.165
1032.00,52.122
1033.00,52.108
1034.00,52.107
1035.00,52.074
1036.00,52.015
1037.00,52.009
1038.00,52.009
1039.00,51.998
1040.00,51.923
1041.00,51.899
1042.00,51.907
1043.00,51.877
1044.00,51.962
1045.00,51.894
1046.00,51.885
1047.00,51.897
1048.00,51.942
1049.00,51.944
1050.00,51.970
1051.00,51.967
1052.00,52.014
1053.00,52.016
1054.00,52.040
1055.00,52.032
1056.00,52.027
1057.00,52.045
1058.00,52.047
1059.00,52.030
1060.00,52.013
1061.00,52.020
1062.00,51.997
1063.00,52.002
1064.00,51.985
1065.00,52.022
1066.00,52.001
1067.00,52.004
1068.00,51.991
1069.00,52.007
1070.00,51.950
1071.00,51.947
1072.00,51.955
1073.00,51.949
1074.00,51.944
1075.00,51.910
1076.00,51.917
1077.00,51.926
1078.00,51.921
1079.00,51.910
1080.00,51.908
1081.00,51.888
1082.00,51.894
1083.00,51.861
1084.00,51.876
1085.00,51.888
1086.00,51.870
1087.00,51.855
1088.00,51.863
1089.00,51.820
1090.00,51.877
1091.00,51.875
1092.00,51.845
1093.00,51.807
1094.00,51.800
1095.00,51.770
1096.00,51.787
1097.00,51.776
1098.00,51.783
1099.00,51.751
1100.00,51.757
1101.00,51.743
1102.00,51.727
1103.00,51.712
1104.00,51.759
1105.00,51.729
1106.00,51.717
1107.00,51.695
1108.00,51.695
1109.00,51.679
1110.00,51.686
1111.00,51.646
1112.00,51.651
1113.00,51.642
1114.00,51.657
1115.00,51.661
1116.00,51.655
1117.00,51.610
1118.00,51.613
1119.00,51.586
1120.00,51.589
1121.00,51.624
1122.00,51.618
1123.00,51.561
1124.00,51.569
1125.00,51.558
1126.00,51.592
1127.00,51.599
1128.00,51.595
1129.00,51.574
1130.00,51.578
1131.00,51.540
1132.00,51.530
1133.00,51.594
1134.00,51.566
1135.00,51.462
1136.00,51.519
1137.00,51.541
1138.00,51.558
1139.00,51.541
1140.00,51.535
1141.00,51.501
1142.00,51.524
1143.00,51.552
1144.00,51.506
1145.00,51.479
1146.00,51.476
1147.00,51.439
1148.00,51.480
1149.00,51.517
1150.00,51.516
1151.00,51.545
1152.00,51.535
1153.00,51.487
1154.00,51.490
1155.00,51.483
1156.00,51.498
1157.00,51.479
1158.00,51.458
1159.00,51.477
1160.00,51.473
1161.00,51.478
1162.00,51.463
1163.00,51.468
1164.00,51.443
1165.00,51.453
1166.00,51.434
1167.00,51.449
1168.00,51.461
1169.00,51.446
1170.00,51.445
1171.00,51.434
1172.00,51.429
1173.00,51.440
1174.00,51.441
1175.00,51.439
1176.00,51.450
1177.00,51.414
1178.00,51.434
1179.00,51.449
1180.00,51.455
1181.00,51.455
1182.00,51.447
1183.00,51.444
1184.00,51.437
1185.00,51.451
1186.00,51.446
1187.00,51.462
1188.00,51.424
1189.00,51.437
1190.00,51.407
1191.00,51.423
1192.00,51.452
1193.00,51.448
1194.00,51.441
1195.00,51.396
1196.00,51.425
1197.00,51.439
1198.00,51.438
1199.00,51.410
1200.00,51.421
1201.00,51.409
1202.00,51.396
1203.00,51.417
1204.00,51.422
1205.00,51.421
1206.00,51.411
1207.00,51.409
1208.00,51.383
1209.00,51.432
1210.00,51.424
1211.00,51.432
1212.00,51.437
1213.00,51.417
1214.00,51.423
1215.00,51.408
1216.00,51.431
1217.00,51.418
1218.00,51.410
1219.00,51.413
1220.00,51.408
1221.00,51.427
1222.00,51.440
1223.00,51.449
1224.00,51.423
1225.00,51.423
1226.00,51.426
1227.00,51.436
1228.00,51.420
1229.00,51.431
1230.00,51.465
1231.00,51.472
1232.00,51.476
1233.00,51.485
1234.00,51.491
1235.00,51.479
1236.00,51.493
1237.00,51.460
1238.00,51.462
1239.00,51.458
1240.00,51.460
1241.00,51.465
1242.00,51.472
1243.00,51.482
1244.00,51.452
1245.00,51.477
1246.00,51.478
1247.00,51.512
1248.00,51.511
1249.00,51.503
1250.00,51.495
1251.00,51.489
1252.00,51.498
1253.00,51.483
1254.00,51.500
1255.00,51.481
1256.00,51.423
1257.00,51.484
1258.00,51.556
1259.00,51.560
1260.00,51.550
1261.00,51.533
1262.00,51.540
1263.00,51.538
1264.00,51.563
1265.00,51.549
1266.00,51.568
1267.00,51.569
1268.00,51.551
1269.00,51.573
1270.00,51.614
1271.00,51.597
1272.00,51.597
1273.00,51.622
1274.00,51.635
1275.00,51.611
1276.00,51.614
1277.00,51.624
1278.00,51.652
1279.00,51.631
1280.00,51.622
1281.00,51.627
1282.00,51.636
1283.00,51.632
1284.00,51.584
1285.00,51.615
1286.00,51.650
1287.00,51.645
1288.00,51.657
1289.00,51.657
1290.00,51.696
1291.00,51.704
1292.00,51.695
1293.00,51.673
1294.00,51.674
1295.00,51.713
1296.00,51.713
1297.00,51.725
1298.00,51.730
1299.00,51.700
1300.00,51.719
1301.00,51.720
1302.00,51.780
1303.00,51.744
1304.00,51.716
1305.00,51.749
1306.00,51.738
1307.00,51.728
1308.00,51.732
1309.00,51.787
1310.00,51.823
1311.00,51.756
1312.00,51.736
1313.00,51.787
1314.00,51.824
1315.00,51.831
1316.00,51.836
1317.00,51.858
1318.00,51.875
1319.00,51.866
1320.00,51.882
1321.00,51.938
1322.00,51.988
1323.00,51.946
1324.00,51.927
1325.00,51.971
1326.00,52.031
1327.00,51.960
1328.00,51.905
1329.00,51.956
1330.00,52.002
1331.00,51.955
1332.00,51.906
1333.00,51.963
1334.00,52.043
1335.00,52.007
1336.00,51.967
1337.00,52.040
1338.00,52.149
1339.00,52.177
1340.00,52.231
1341.00,52.289
1342.00,52.344
1343.00,52.418
1344.00,52.495
1345.00,52.530
1346.00,52.544
1347.00,52.612
1348.00,52.646
1349.00,52.681
1350.00,52.596
1351.00,52.521
1352.00,52.422
1353.00,52.618
1354.00,52.869
1355.00,52.735
1356.00,52.706
1357.00,52.727
1358.00,52.614
1359.00,52.141
1360.00,51.861
1361.00,52.187
1362.00,52.153
1363.00,53.095
1364.00,53.707
1365.00,53.156
1366.00,52.667
1367.00,52.673
1368.00,52.635
1369.00,52.838
1370.00,52.940
1371.00,52.798
1372.00,52.797
1373.00,52.789
1374.00,52.661
1375.00,52.643
1376.00,52.626
1377.00,52.622
1378.00,52.686
1379.00,52.707
1380.00,52.473
1381.00,52.754
1382.00,52.904
1383.00,52.785
1384.00,53.066
1385.00,52.686
1386.00,52.618
1387.00,52.800
1388.00,52.953
1389.00,52.755
1390.00,52.425
1391.00,52.718
1392.00,52.787
1393.00,53.208
1394.00,52.463
1395.00,52.873
1396.00,53.254
1397.00,53.185
1398.00,52.807
1399.00,53.143
1400.00,53.183
1401.00,52.714
1402.00,52.663
1403.00,52.784
1404.00,52.737
1405.00,52.847
1406.00,52.572
1407.00,52.777
1408.00,52.856
1409.00,52.732
1410.00,52.671
1411.00,52.579
1412.00,52.579
1413.00,52.575
1414.00,52.621
1415.00,52.831
1416.00,52.819
1417.00,52.952
1418.00,52.871
1419.00,52.734
1420.00,52.864
1421.00,52.940
1422.00,52.858
1423.00,52.802
1424.00,52.957
1425.00,52.891
1426.00,52.882
1427.00,52.905
1428.00,52.934
1429.00,52.934
1430.00,52.926
1431.00,52.903
1432.00,52.977
1433.00,53.014
1434.00,52.973
1435.00,53.038
1436.00,52.998
1437.00,52.979
1438.00,53.036
1439.00,53.078
1440.00,53.074
1441.00,53.092
1442.00,53.078
1443.00,53.133
1444.00,53.133
1445.00,53.089
1446.00,53.113
1447.00,53.193
1448.00,53.246
1449.00,53.236
1450.00,53.196
1451.00,53.244
1452.00,53.236
1453.00,53.292
1454.00,53.331
1455.00,53.296
1456.00,53.299
1457.00,53.288
1458.00,53.287
1459.00,53.337
1460.00,53.360
1461.00,53.378
1462.00,53.419
1463.00,53.382
1464.00,53.386
1465.00,53.414
1466.00,53.413
1467.00,53.436
1468.00,53.479
1469.00,53.451
1470.00,53.477
1471.00,53.512
1472.00,53.523
1473.00,53.546
1474.00,53.560
1475.00,53.576
1476.00,53.563
1477.00,53.544
1478.00,53.584
1479.00,53.600
1480.00,53.607
1481.00,53.605
1482.00,53.614
1483.00,53.628
1484.00,53.671
1485.00,53.652
1486.00,53.664
1487.00,53.689
1488.00,53.693
1489.00,53.695
1490.00,53.709
1491.00,53.718
1492.00,53.738
1493.00,53.726
1494.00,53.744
1495.00,53.742
1496.00,53.758
1497.00,53.745
1498.00,53.738
1499.00,53.776
1500.00,53.789
1501.00, 
1502.00, 
1503.00, 
1504.00, 
1505.00, 
1506.00, 
1507.00, 
1508.00, 
1509.00, 
1510.00, 
1511.00, 
1512.00, 
1513.00, 
1514.00, 
1515.00, 
1516.00, 
1517.00, 
1518.00, 
1519.00, 
1520.00, 
1521.00, 
1522.00, 
1523.00, 
1524.00, 
1525.00, 
1526.00, 
1527.00, 
1528.00, 
1529.00, 
1530.00, 
1531.00, 
1532.00, 
1533.00, 
1534.00, 
1535.00, 
1536.00, 
1537.00, 
1538.00, 
1539.00, 
1540.00, 
1541.00, 
1542.00, 
1543.00, 
1544.00, 
1545.00, 
1546.00, 
1547.00, 
1548.00, 
1549.00, 
1550.00, 
1551.00, 
1552.00, 
1553.00, 
1554.00, 
1555.00, 
1556.00, 
1557.00, 
1558.00, 
1559.00, 
1560.00, 
1561.00, 
1562.00, 
1563.00, 
1564.00, 
1565.00, 
1566.00, 
1567.00, 
1568.00, 
1569.00, 
1570.00, 
1571.00, 
1572.00, 
1573.00, 
1574.00, 
1575.00, 
1576.00, 
1577.00, 
1578.00, 
1579.00, 
1580.00, 
1581.00, 
1582.00, 
1583.00, 
1584.00, 
1585.00, 
1586.00, 
1587.00, 
1588.00, 
1589.00, 
1590.00, 
1591.00, 
1592.00, 
1593.00, 
1594.00, 
1595.00, 
1596.00, 
1597.00, 
1598.00, 
1599.00, 
1600.00, 
1601.00, 
1602.00, 
1603.00, 
1604.00, 
1605.00, 
1606.00, 
1607.00, 
1608.00, 
1609.00, 
1610.00, 
1611.00, 
1612.00, 
1613.00, 
1614.00, 
1615.00, 
1616.00, 
1617.00, 
1618.00, 
1619.00, 
1620.00, 
1621.00, 
1622.00, 
1623.00, 
1624.00, 
1625.00, 
1626.00, 
1627.00, 
1628.00, 
1629.00, 
1630.00, 
1631.00, 
1632.00, 
1633.00, 
1634.00, 
1635.00, 
1636.00, 
1637.00, 
1638.00, 
1639.00, 
1640.00, 
1641.00, 
1642.00, 
1643.00, 
1644.00, 
1645.00, 
1646.00, 
1647.00, 
1648.00, 
1649.00, 
1650.00, 
1651.00, 
1652.00, 
1653.00, 
1654.00, 
1655.00, 
1656.00, 
1657.00, 
1658.00, 
1659.00, 
1660.00, 
1661.00, 
1662.00, 
1663.00, 
1664.00, 
1665.00, 
1666.00, 
1667.00, 
1668.00, 
1669.00, 
1670.00, 
1671.00, 
1672.00, 
1673.00, 
1674.00, 
1675.00, 
1676.00, 
1677.00, 
1678.00, 
1679.00, 
1680.00, 
1681.00, 
1682.00, 
1683.00, 
1684.00, 
1685.00, 
1686.00, 
1687.00, 
1688.00, 
1689.00, 
1690.00, 
1691.00, 
1692.00, 
1693.00, 
1694.00, 
1695.00, 
1696.00, 
1697.00, 
1698.00, 
1699.00, 
1700.00, 
1701.00, 
1702.00, 
1703.00, 
1704.00, 
1705.00, 
1706.00, 
1707.00, 
1708.00, 
1709.00, 
1710.00, 
1711.00, 
1712.00, 
1713.00, 
1714.00, 
1715.00, 
1716.00, 
1717.00, 
1718.00, 
1719.00, 
1720.00, 
1721.00, 
1722.00, 
1723.00, 
1724.00, 
1725.00, 
1726.00, 
1727.00, 
1728.00, 
1729.00, 
1730.00, 
1731.00, 
1732.00, 
1733.00, 
1734.00, 
1735.00, 
1736.00, 
1737.00, 
1738.00, 
1739.00, 
1740.00, 
1741.00, 
1742.00, 
1743.00, 
1744.00, 
1745.00, 
1746.00, 
1747.00, 
1748.00, 
1749.00, 
1750.00, 
1751.00, 
1752.00, 
1753.00, 
1754.00, 
1755.00, 
1756.00, 
1757.00, 
1758.00, 
1759.00, 
1760.00, 
1761.00, 
1762.00, 
1763.00, 
1764.00, 
1765.00, 
1766.00, 
1767.00, 
1768.00, 
1769.00, 
1770.00, 
1771.00, 
1772.00, 
1773.00, 
1774.00, 
1775.00, 
1776.00, 
1777.00, 
1778.00, 
1779.00, 
1780.00, 
1781.00, 
1782.00, 
1783.00, 
1784.00, 
1785.00, 
1786.00, 
1787.00, 
1788.00, 
1789.00, 
1790.00, 
1791.00, 
1792.00, 
1793.00, 
1794.00, 
1795.00, 
1796.00, 
1797.00, 
1798.00, 
1799.00, 
1800.00, 
1801.00, 
1802.00, 
1803.00, 
1804.00, 
1805.00, 
1806.00, 
1807.00, 
1808.00, 
1809.00, 
1810.00, 
1811.00, 
1812.00, 
1813.00, 
1814.00, 
1815.00, 
1816.00, 
1817.00, 
1818.00, 
1819.00, 
1820.00, 
1821.00, 
1822.00, 
1823.00, 
1824.00, 
1825.00, 
1826.00, 
1827.00, 
1828.00, 
1829.00, 
1830.00, 
1831.00, 
1832.00, 
1833.00, 
1834.00, 
1835.00, 
1836.00, 
1837.00, 
1838.00, 
1839.00, 
1840.00, 
1841.00, 
1842.00, 
1843.00, 
1844.00, 
1845.00, 
1846.00, 
1847.00, 
1848.00, 
1849.00, 
1850.00, 
1851.00, 
1852.00, 
1853.00, 
1854.00, 
1855.00, 
1856.00, 
1857.00, 
1858.00, 
1859.00, 
1860.00, 
1861.00, 
1862.00, 
1863.00, 
1864.00, 
1865.00, 
1866.00, 
1867.00, 
1868.00, 
1869.00, 
1870.00, 
1871.00, 
1872.00, 
1873.00, 
1874.00, 
1875.00, 
1876.00, 
1877.00, 
1878.00, 
1879.00, 
1880.00, 
1881.00, 
1882.00, 
1883.00, 
1884.00, 
1885.00, 
1886.00, 
1887.00, 
1888.00, 
1889.00, 
1890.00, 
1891.00, 
1892.00, 
1893.00, 
1894.00, 
1895.00, 
1896.00, 
1897.00, 
1898.00, 
1899.00, 
1900.00, 
1901.00, 
1902.00, 
1903.00, 
1904.00, 
1905.00, 
1906.00, 
1907.00, 
1908.00, 
1909.00, 
1910.00, 
1911.00, 
1912.00, 
1913.00, 
1914.00, 
1915.00, 
1916.00, 
1917.00, 
1918.00, 
1919.00, 
1920.00, 
1921.00, 
1922.00, 
1923.00, 
1924.00, 
1925.00, 
1926.00, 
1927.00, 
1928.00, 
1929.00, 
1930.00, 
1931.00, 
1932.00, 
1933.00, 
1934.00, 
1935.00, 
1936.00, 
1937.00, 
1938.00, 
1939.00, 
1940.00, 
1941.00, 
1942.00, 
1943.00, 
1944.00, 
1945.00, 
1946.00, 
1947.00, 
1948.00, 
1949.00, 
1950.00, 
1951.00, 
1952.00, 
1953.00, 
1954.00, 
1955.00, 
1956.00, 
1957.00, 
1958.00, 
1959.00, 
1960.00, 
1961.00, 
1962.00, 
1963.00, 
1964.00, 
1965.00, 
1966.00, 
1967.00, 
1968.00, 
1969.00, 
1970.00, 
1971.00, 
1972.00, 
1973.00, 
1974.00, 
1975.00, 
1976.00, 
1977.00, 
1978.00, 
1979.00, 
1980.00, 
1981.00, 
1982.00, 
1983.00, 
1984.00, 
1985.00, 
1986.00, 
1987.00, 
1988.00, 
1989.00, 
1990.00, 
1991.00, 
1992.00, 
1993.00, 
1994.00, 
1995.00, 
1996.00, 
1997.00, 
1998.00, 
1999.00, 
2000.00, 
2001.00, 
2002.00, 
2003.00, 
2004.00, 
2005.00, 
2006.00, 
2007.00, 
2008.00, 
2009.00, 
2010.00, 
2011.00, 
2012.00, 
2013.00, 
2014.00, 
2015.00, 
2016.00, 
2017.00, 
2018.00, 
2019.00, 
2020.00, 
2021.00, 
2022.00, 
2023.00, 
2024.00, 
2025.00, 
2026.00, 
2027.00, 
2028.00, 
2029.00, 
2030.00, 
2031.00, 
2032.00, 
2033.00, 
2034.00, 
2035.00, 
2036.00, 
2037.00, 
2038.00, 
2039.00, 
2040.00, 
2041.00, 
2042.00, 
2043.00, 
2044.00, 
2045.00, 
2046.00, 
2047.00, 
2048.00, 
2049.00, 
2050.00, 
2051.00, 
2052.00, 
2053.00, 
2054.00, 
2055.00, 
2056.00, 
2057.00, 
2058.00, 
2059.00, 
2060.00, 
2061.00, 
2062.00, 
2063.00, 
2064.00, 
2065.00, 
2066.00, 
2067.00, 
2068.00, 
2069.00, 
2070.00, 
2071.00, 
2072.00, 
2073.00, 
2074.00, 
2075.00, 
2076.00, 
2077.00, 
2078.00, 
2079.00, 
2080.00, 
2081.00, 
2082.00, 
2083.00, 
2084.00, 
2085.00, 
2086.00, 
2087.00, 
2088.00, 
2089.00, 
2090.00, 
2091.00, 
2092.00, 
2093.00, 
2094.00, 
2095.00, 
2096.00, 
2097.00, 
2098.00, 
2099.00, 
2100.00, 
2101.00, 
2102.00, 
2103.00, 
2104.00, 
2105.00, 
2106.00, 
2107.00, 
2108.00, 
2109.00, 
2110.00, 
2111.00, 
2112.00, 
2113.00, 
2114.00, 
2115.00, 
2116.00, 
2117.00, 
2118.00, 
2119.00, 
2120.00, 
2121.00, 
2122.00, 
2123.00, 
2124.00, 
2125.00, 
2126.00, 
2127.00, 
2128.00, 
2129.00, 
2130.00, 
2131.00, 
2132.00, 
2133.00, 
2134.00, 
2135.00, 
2136.00, 
2137.00, 
2138.00, 
2139.00, 
2140.00, 
2141.00, 
2142.00, 
2143.00, 
2144.00, 
2145.00, 
2146.00, 
2147.00, 
2148.00, 
2149.00, 
2150.00, 
2151.00, 
2152.00, 
2153.00, 
2154.00, 
2155.00, 
2156.00, 
2157.00, 
2158.00, 
2159.00, 
2160.00, 
2161.00, 
2162.00, 
2163.00, 
2164.00, 
2165.00, 
2166.00, 
2167.00, 
2168.00, 
2169.00, 
2170.00, 
2171.00, 
2172.00, 
2173.00, 
2174.00, 
2175.00, 
2176.00, 
2177.00, 
2178.00, 
2179.00, 
2180.00, 
2181.00, 
2182.00, 
2183.00, 
2184.00, 
2185.00, 
2186.00, 
2187.00, 
2188.00, 
2189.00, 
2190.00, 
2191.00, 
2192.00, 
2193.00, 
2194.00, 
2195.00, 
2196.00, 
2197.00, 
2198.00, 
2199.00, 
2200.00, 
2201.00, 
2202.00, 
2203.00, 
2204.00, 
2205.00, 
2206.00, 
2207.00, 
2208.00, 
2209.00, 
2210.00, 
2211.00, 
2212.00, 
2213.00, 
2214.00, 
2215.00, 
2216.00, 
2217.00, 
2218.00, 
2219.00, 
2220.00, 
2221.00, 
2222.00, 
2223.00, 
2224.00, 
2225.00, 
2226.00, 
2227.00, 
2228.00, 
2229.00, 
2230.00, 
2231.00, 
2232.00, 
2233.00, 
2234.00, 
2235.00, 
2236.00, 
2237.00, 
2238.00, 
2239.00, 
2240.00, 
2241.00, 
2242.00, 
2243.00, 
2244.00, 
2245.00, 
2246.00, 
2247.00, 
2248.00, 
2249.00, 
2250.00, 
2251.00, 
2252.00, 
2253.00, 
2254.00, 
2255.00, 
2256.00, 
2257.00, 
2258.00, 
2259.00, 
2260.00, 
2261.00, 
2262.00, 
2263.00, 
2264.00, 
2265.00, 
2266.00, 
2267.00, 
2268.00, 
2269.00, 
2270.00, 
2271.00, 
2272.00, 
2273.00, 
2274.00, 
2275.00, 
2276.00, 
2277.00, 
2278.00, 
2279.00, 
2280.00, 
2281.00, 
2282.00, 
2283.00, 
2284.00, 
2285.00, 
2286.00, 
2287.00, 
2288.00, 
2289.00, 
2290.00, 
2291.00, 
2292.00, 
2293.00, 
2294.00, 
2295.00, 
2296.00, 
2297.00, 
2298.00, 
2299.00, 
2300.00, 
2301.00, 
2302.00, 
2303.00, 
2304.00, 
2305.00, 
2306.00, 
2307.00, 
2308.00, 
2309.00, 
2310.00, 
2311.00, 
2312.00, 
2313.00, 
2314.00, 
2315.00, 
2316.00, 
2317.00, 
2318.00, 
2319.00, 
2320.00, 
2321.00, 
2322.00, 
2323.00, 
2324.00, 
2325.00, 
2326.00, 
2327.00, 
2328.00, 
2329.00, 
2330.00, 
2331.00, 
2332.00, 
2333.00, 
2334.00, 
2335.00, 
2336.00, 
2337.00, 
2338.00, 
2339.00, 
2340.00, 
2341.00, 
2342.00, 
2343.00, 
2344.00, 
2345.00, 
2346.00, 
2347.00, 
2348.00, 
2349.00, 
2350.00, 
2351.00, 
2352.00, 
2353.00, 
2354.00, 
2355.00, 
2356.00, 
2357.00, 
2358.00, 
2359.00, 
2360.00, 
2361.00, 
2362.00, 
2363.00, 
2364.00, 
2365.00, 
2366.00, 
2367.00, 
2368.00, 
2369.00, 
2370.00, 
2371.00, 
2372.00, 
2373.00, 
2374.00, 
2375.00, 
2376.00, 
2377.00, 
2378.00, 
2379.00, 
2380.00, 
2381.00, 
2382.00, 
2383.00, 
2384.00, 
2385.00, 
2386.00, 
2387.00, 
2388.00, 
2389.00, 
2390.00, 
2391.00, 
2392.00, 
2393.00, 
2394.00, 
2395.00, 
2396.00, 
2397.00, 
2398.00, 
2399.00, 
2400.00, 
2401.00, 
2402.00, 
2403.00, 
2404.00, 
2405.00, 
2406.00, 
2407.00, 
2408.00, 
2409.00, 
2410.00, 
2411.00, 
2412.00, 
2413.00, 
2414.00, 
2415.00, 
2416.00, 
2417.00, 
2418.00, 
2419.00, 
2420.00, 
2421.00, 
2422.00, 
2423.00, 
2424.00, 
2425.00, 
2426.00, 
2427.00, 
2428.00, 
2429.00, 
2430.00, 
2431.00, 
2432.00, 
2433.00, 
2434.00, 
2435.00, 
2436.00, 
2437.00, 
2438.00, 
2439.00, 
2440.00, 
2441.00, 
2442.00, 
2443.00, 
2444.00, 
2445.00, 
2446.00, 
2447.00, 
2448.00, 
2449.00, 
2450.00, 
2451.00, 
2452.00, 
2453.00, 
2454.00, 
2455.00, 
2456.00, 
2457.00, 
2458.00, 
2459.00, 
2460.00, 
2461.00, 
2462.00, 
2463.00, 
2464.00, 
2465.00, 
2466.00, 
2467.00, 
2468.00, 
2469.00, 
2470.00, 
2471.00, 
2472.00, 
2473.00, 
2474.00, 
2475.00, 
2476.00, 
2477.00, 
2478.00, 
2479.00, 
2480.00, 
2481.00, 
2482.00, 
2483.00, 
2484.00, 
2485.00, 
2486.00, 
2487.00, 
2488.00, 
2489.00, 
2490.00, 
2491.00, 
2492.00, 
2493.00, 
2494.00, 
2495.00, 
2496.00, 
2497.00, 
2498.00, 
2499.00, 
2500.00, 
2501.00, 
2502.00, 
2503.00, 
2504.00, 
2505.00, 
2506.00, 
2507.00, 
2508.00, 
2509.00, 
2510.00, 
2511.00, 
2512.00, 
2513.00, 
2514.00, 
2515.00, 
2516.00, 
2517.00, 
2518.00, 
2519.00, 
2520.00, 
2521.00, 
2522.00, 
2523.00, 
2524.00, 
2525.00, 
2526.00, 
2527.00, 
2528.00, 
2529.00, 
2530.00, 
2531.00, 
2532.00, 
2533.00, 
2534.00, 
2535.00, 
2536.00, 
2537.00, 
2538.00, 
2539.00, 
2540.00, 
2541.00, 
2542.00, 
2543.00, 
2544.00, 
2545.00, 
2546.00, 
2547.00, 
2548.00, 
2549.00, 
2550.00, 
2551.00, 
2552.00, 
2553.00, 
2554.00, 
2555.00, 
2556.00, 
2557.00, 
2558.00, 
2559.00, 
2560.00, 
2561.00, 
2562.00, 
2563.00, 
2564.00, 
2565.00, 
2566.00, 
2567.00, 
2568.00, 
2569.00, 
2570.00, 
2571.00, 
2572.00, 
2573.00, 
2574.00, 
2575.00, 
2576.00, 
2577.00, 
2578.00, 
2579.00, 
2580.00, 
2581.00, 
2582.00, 
2583.00, 
2584.00, 
2585.00, 
2586.00, 
2587.00, 
2588.00, 
2589.00, 
2590.00, 
2591.00, 
2592.00, 
2593.00, 
2594.00, 
2595.00, 
2596.00, 
2597.00, 
2598.00, 
2599.00, 
2600.00, 
