"1aP5 - RawData"
"Wavelength nm.","T%"
200.00,0.001
201.00,0.002
202.00,0.001
203.00,0.001
204.00,0.002
205.00,0.002
206.00,0.002
207.00,0.003
208.00,-0.002
209.00,-0.002
210.00,0.000
211.00,-0.003
212.00,0.000
213.00,0.001
214.00,0.000
215.00,0.001
216.00,0.003
217.00,-0.002
218.00,0.001
219.00,0.001
220.00,0.003
221.00,0.000
222.00,-0.002
223.00,0.001
224.00,0.002
225.00,-0.000
226.00,0.001
227.00,0.001
228.00,-0.001
229.00,-0.001
230.00,-0.000
231.00,-0.000
232.00,0.000
233.00,0.002
234.00,-0.001
235.00,-0.001
236.00,0.000
237.00,-0.002
238.00,0.000
239.00,-0.002
240.00,-0.001
241.00,0.001
242.00,0.001
243.00,0.001
244.00,0.000
245.00,-0.000
246.00,-0.002
247.00,-0.001
248.00,0.000
249.00,0.000
250.00,0.002
251.00,0.002
252.00,0.000
253.00,-0.002
254.00,-0.002
255.00,0.001
256.00,0.000
257.00,-0.000
258.00,-0.000
259.00,-0.001
260.00,-0.001
261.00,0.000
262.00,-0.001
263.00,-0.001
264.00,-0.001
265.00,0.001
266.00,-0.002
267.00,-0.001
268.00,-0.001
269.00,0.000
270.00,-0.001
271.00,-0.001
272.00,-0.001
273.00,-0.001
274.00,-0.000
275.00,0.001
276.00,0.000
277.00,0.001
278.00,-0.001
279.00,-0.001
280.00,-0.001
281.00,-0.001
282.00,-0.002
283.00,0.001
284.00,0.001
285.00,-0.001
286.00,-0.001
287.00,0.001
288.00,-0.001
289.00,0.001
290.00,-0.001
291.00,-0.000
292.00,0.000
293.00,-0.002
294.00,-0.000
295.00,-0.001
296.00,0.001
297.00,-0.001
298.00,0.000
299.00,0.002
300.00,0.002
301.00,0.004
302.00,0.005
303.00,0.007
304.00,0.011
305.00,0.019
306.00,0.028
307.00,0.039
308.00,0.063
309.00,0.091
310.00,0.123
311.00,0.176
312.00,0.226
313.00,0.314
314.00,0.399
315.00,0.519
316.00,0.641
317.00,0.794
318.00,0.967
319.00,1.178
320.00,1.405
321.00,1.664
322.00,1.945
323.00,2.267
324.00,2.585
325.00,2.915
326.00,3.239
327.00,3.649
328.00,4.004
329.00,4.380
330.00,4.800
331.00,5.164
332.00,5.580
333.00,5.989
334.00,6.361
335.00,6.768
336.00,7.137
337.00,7.515
338.00,7.871
339.00,8.181
340.00,8.546
341.00,8.868
342.00,9.169
343.00,9.472
344.00,9.687
345.00,9.952
346.00,10.160
347.00,10.382
348.00,10.593
349.00,10.761
350.00,10.915
351.00,11.106
352.00,11.257
353.00,11.373
354.00,11.494
355.00,11.600
356.00,11.713
357.00,11.808
358.00,11.863
359.00,11.957
360.00,11.977
361.00,12.013
362.00,11.989
363.00,11.994
364.00,12.018
365.00,12.043
366.00,12.035
367.00,12.060
368.00,12.069
369.00,12.039
370.00,11.988
371.00,12.071
372.00,12.029
373.00,12.001
374.00,11.916
375.00,11.847
376.00,11.793
377.00,11.728
378.00,11.690
379.00,11.616
380.00,11.553
381.00,11.541
382.00,11.495
383.00,11.472
384.00,11.454
385.00,11.444
386.00,11.415
387.00,11.401
388.00,11.423
389.00,11.399
390.00,11.370
391.00,11.348
392.00,11.321
393.00,11.309
394.00,11.271
395.00,11.256
396.00,11.220
397.00,11.189
398.00,11.178
399.00,11.171
400.00,11.135
401.00,11.144
402.00,11.087
403.00,11.092
404.00,11.056
405.00,11.011
406.00,10.996
407.00,10.955
408.00,10.955
409.00,10.943
410.00,10.947
411.00,10.947
412.00,10.906
413.00,10.972
414.00,10.984
415.00,10.960
416.00,10.968
417.00,10.911
418.00,10.897
419.00,10.922
420.00,10.901
421.00,10.937
422.00,10.951
423.00,10.941
424.00,10.974
425.00,10.986
426.00,11.010
427.00,11.030
428.00,11.054
429.00,11.090
430.00,11.129
431.00,11.148
432.00,11.194
433.00,11.225
434.00,11.247
435.00,11.305
436.00,11.332
437.00,11.400
438.00,11.458
439.00,11.501
440.00,11.573
441.00,11.631
442.00,11.693
443.00,11.746
444.00,11.809
445.00,11.873
446.00,11.975
447.00,12.031
448.00,12.109
449.00,12.220
450.00,12.305
451.00,12.379
452.00,12.489
453.00,12.577
454.00,12.649
455.00,12.749
456.00,12.813
457.00,12.924
458.00,12.995
459.00,13.108
460.00,13.175
461.00,13.275
462.00,13.359
463.00,13.458
464.00,13.553
465.00,13.658
466.00,13.757
467.00,13.963
468.00,14.149
469.00,14.260
470.00,14.239
471.00,14.412
472.00,14.564
473.00,14.683
474.00,14.838
475.00,15.004
476.00,15.158
477.00,15.287
478.00,15.365
479.00,15.552
480.00,15.700
481.00,15.829
482.00,15.984
483.00,16.081
484.00,16.184
485.00,16.471
486.00,16.604
487.00,16.788
488.00,16.904
489.00,17.062
490.00,17.150
491.00,17.316
492.00,17.525
493.00,17.655
494.00,17.697
495.00,17.922
496.00,18.003
497.00,18.155
498.00,18.253
499.00,18.436
500.00,18.571
501.00,18.741
502.00,18.835
503.00,19.017
504.00,19.131
505.00,19.295
506.00,19.438
507.00,19.551
508.00,19.620
509.00,19.830
510.00,19.956
511.00,20.156
512.00,20.425
513.00,20.516
514.00,20.609
515.00,20.665
516.00,20.824
517.00,20.917
518.00,21.040
519.00,21.147
520.00,21.298
521.00,21.387
522.00,21.564
523.00,21.719
524.00,21.784
525.00,21.961
526.00,22.030
527.00,22.146
528.00,22.186
529.00,22.340
530.00,22.389
531.00,22.501
532.00,22.404
533.00,22.582
534.00,22.769
535.00,22.874
536.00,23.010
537.00,23.054
538.00,23.231
539.00,23.316
540.00,23.421
541.00,23.554
542.00,23.562
543.00,23.692
544.00,23.786
545.00,23.934
546.00,23.994
547.00,24.060
548.00,24.179
549.00,24.248
550.00,24.310
551.00,24.349
552.00,24.405
553.00,24.491
554.00,24.515
555.00,24.580
556.00,24.620
557.00,24.789
558.00,24.885
559.00,24.978
560.00,25.029
561.00,25.069
562.00,25.155
563.00,25.201
564.00,25.335
565.00,25.371
566.00,25.410
567.00,25.549
568.00,25.578
569.00,25.680
570.00,25.660
571.00,25.678
572.00,25.815
573.00,25.697
574.00,25.841
575.00,25.838
576.00,25.870
577.00,26.026
578.00,26.083
579.00,26.180
580.00,26.220
581.00,26.267
582.00,26.432
583.00,26.464
584.00,26.598
585.00,26.632
586.00,26.633
587.00,26.815
588.00,26.867
589.00,26.883
590.00,26.995
591.00,27.054
592.00,27.074
593.00,27.177
594.00,27.218
595.00,27.305
596.00,27.433
597.00,27.386
598.00,27.454
599.00,27.428
600.00,27.431
601.00,27.543
602.00,27.495
603.00,27.634
604.00,27.695
605.00,27.745
606.00,27.873
607.00,27.961
608.00,27.987
609.00,28.196
610.00,28.170
611.00,28.133
612.00,28.289
613.00,28.280
614.00,28.450
615.00,28.447
616.00,28.491
617.00,28.475
618.00,28.499
619.00,28.564
620.00,28.639
621.00,28.765
622.00,28.847
623.00,28.952
624.00,29.014
625.00,29.198
626.00,29.241
627.00,29.423
628.00,29.482
629.00,29.503
630.00,29.701
631.00,29.762
632.00,29.828
633.00,29.973
634.00,30.063
635.00,30.067
636.00,30.164
637.00,30.185
638.00,30.316
639.00,30.383
640.00,30.577
641.00,30.711
642.00,30.864
643.00,30.967
644.00,31.054
645.00,31.086
646.00,31.221
647.00,31.421
648.00,31.524
649.00,31.757
650.00,31.843
651.00,31.893
652.00,31.908
653.00,32.144
654.00,32.217
655.00,32.584
656.00,32.481
657.00,33.415
658.00,33.397
659.00,33.124
660.00,32.978
661.00,33.228
662.00,33.402
663.00,33.600
664.00,33.616
665.00,33.448
666.00,33.937
667.00,34.326
668.00,34.302
669.00,34.062
670.00,34.520
671.00,34.245
672.00,34.753
673.00,34.809
674.00,34.725
675.00,35.126
676.00,35.150
677.00,35.213
678.00,35.771
679.00,35.743
680.00,36.096
681.00,36.413
682.00,36.838
683.00,36.722
684.00,36.666
685.00,36.767
686.00,36.701
687.00,36.982
688.00,37.188
689.00,37.345
690.00,37.313
691.00,37.738
692.00,37.698
693.00,37.695
694.00,38.115
695.00,38.054
696.00,38.387
697.00,38.490
698.00,38.790
699.00,38.638
700.00,38.733
701.00,39.125
702.00,39.345
703.00,39.679
704.00,40.037
705.00,39.841
706.00,39.738
707.00,39.803
708.00,39.814
709.00,40.090
710.00,40.045
711.00,40.183
712.00,40.920
713.00,40.854
714.00,40.804
715.00,41.233
716.00,41.476
717.00,41.400
718.00,41.588
719.00,41.952
720.00,42.347
721.00,45.929
722.00,46.084
723.00,46.077
724.00,46.221
725.00,46.326
726.00,46.404
727.00,46.463
728.00,46.677
729.00,46.728
730.00,46.938
731.00,46.968
732.00,47.090
733.00,47.275
734.00,47.427
735.00,47.468
736.00,47.567
737.00,47.680
738.00,47.800
739.00,47.925
740.00,47.997
741.00,48.139
742.00,48.243
743.00,48.317
744.00,48.304
745.00,48.395
746.00,48.451
747.00,48.618
748.00,48.635
749.00,48.700
750.00,48.789
751.00,48.851
752.00,48.965
753.00,48.973
754.00,48.998
755.00,49.012
756.00,49.127
757.00,49.163
758.00,49.236
759.00,49.370
760.00,49.371
761.00,49.430
762.00,49.556
763.00,49.678
764.00,49.718
765.00,49.760
766.00,49.808
767.00,49.879
768.00,49.899
769.00,49.949
770.00,50.070
771.00,50.063
772.00,50.169
773.00,50.200
774.00,50.399
775.00,50.458
776.00,50.368
777.00,50.490
778.00,50.442
779.00,50.590
780.00,50.617
781.00,50.729
782.00,50.692
783.00,50.755
784.00,50.725
785.00,50.771
786.00,50.912
787.00,50.843
788.00,50.901
789.00,51.017
790.00,50.907
791.00,51.042
792.00,50.957
793.00,51.110
794.00,51.071
795.00,51.145
796.00,51.178
797.00,51.091
798.00,51.175
799.00,51.071
800.00,51.109
801.00,51.089
802.00,50.985
803.00,51.157
804.00,51.117
805.00,51.228
806.00,51.106
807.00,51.247
808.00,51.253
809.00,51.160
810.00,51.276
811.00,51.219
812.00,51.389
813.00,51.362
814.00,51.344
815.00,51.468
816.00,51.333
817.00,51.446
818.00,51.282
819.00,51.406
820.00,51.352
821.00,51.298
822.00,51.394
823.00,51.452
824.00,51.620
825.00,51.318
826.00,51.290
827.00,51.470
828.00,51.300
829.00,51.394
830.00,51.438
831.00,53.921
832.00,53.964
833.00,53.966
834.00,53.896
835.00,53.982
836.00,53.953
837.00,53.975
838.00,53.954
839.00,53.971
840.00,54.010
841.00,53.984
842.00,53.962
843.00,53.961
844.00,54.010
845.00,53.902
846.00,53.913
847.00,53.859
848.00,53.969
849.00,54.036
850.00,53.976
851.00,53.991
852.00,53.896
853.00,53.961
854.00,53.925
855.00,53.925
856.00,53.825
857.00,53.869
858.00,53.915
859.00,53.922
860.00,53.926
861.00,53.869
862.00,53.893
863.00,53.872
864.00,53.975
865.00,53.857
866.00,53.893
867.00,53.862
868.00,53.939
869.00,53.937
870.00,53.887
871.00,53.909
872.00,53.956
873.00,53.922
874.00,53.835
875.00,53.863
876.00,53.812
877.00,53.955
878.00,53.866
879.00,53.934
880.00,53.863
881.00,53.990
882.00,53.798
883.00,53.942
884.00,53.895
885.00,53.881
886.00,53.796
887.00,53.826
888.00,53.888
889.00,53.856
890.00,53.742
891.00,53.759
892.00,53.827
893.00,53.774
894.00,53.713
895.00,53.745
896.00,53.817
897.00,53.767
898.00,53.666
899.00,53.614
900.00,53.687
901.00,53.609
902.00,53.566
903.00,53.696
904.00,53.759
905.00,53.684
906.00,53.588
907.00,53.644
908.00,53.725
909.00,53.605
910.00,53.687
911.00,53.490
912.00,53.552
913.00,53.462
914.00,53.509
915.00,53.637
916.00,53.755
917.00,53.648
918.00,53.539
919.00,53.591
920.00,53.647
921.00,53.636
922.00,53.452
923.00,53.513
924.00,53.661
925.00,53.486
926.00,53.395
927.00,53.415
928.00,53.572
929.00,53.440
930.00,53.345
931.00,53.338
932.00,53.476
933.00,53.332
934.00,53.335
935.00,53.339
936.00,53.452
937.00,53.332
938.00,53.177
939.00,53.293
940.00,53.391
941.00,53.271
942.00,53.169
943.00,53.225
944.00,53.320
945.00,53.221
946.00,53.159
947.00,53.194
948.00,53.164
949.00,53.140
950.00,53.067
951.00,53.133
952.00,53.147
953.00,53.112
954.00,52.982
955.00,53.015
956.00,53.009
957.00,52.971
958.00,52.922
959.00,52.926
960.00,52.921
961.00,52.898
962.00,52.863
963.00,52.869
964.00,52.885
965.00,52.840
966.00,52.864
967.00,52.832
968.00,52.889
969.00,52.804
970.00,52.825
971.00,52.854
972.00,52.864
973.00,52.841
974.00,52.847
975.00,52.870
976.00,52.805
977.00,52.838
978.00,52.851
979.00,52.861
980.00,52.841
981.00,52.833
982.00,52.844
983.00,52.812
984.00,52.861
985.00,52.813
986.00,52.858
987.00,52.844
988.00,52.815
989.00,52.798
990.00,52.792
991.00,52.784
992.00,52.777
993.00,52.799
994.00,52.749
995.00,52.719
996.00,52.733
997.00,52.723
998.00,52.726
999.00,52.713
1000.00,52.741
1001.00,52.693
1002.00,52.670
1003.00,52.712
1004.00,52.648
1005.00,52.638
1006.00,52.634
1007.00,52.680
1008.00,52.646
1009.00,52.631
1010.00,52.621
1011.00,52.591
1012.00,52.593
1013.00,52.567
1014.00,52.594
1015.00,52.566
1016.00,52.538
1017.00,52.534
1018.00,52.520
1019.00,52.528
1020.00,52.475
1021.00,52.519
1022.00,52.493
1023.00,52.466
1024.00,52.415
1025.00,52.431
1026.00,52.451
1027.00,52.409
1028.00,52.407
1029.00,52.398
1030.00,52.417
1031.00,52.377
1032.00,52.324
1033.00,52.330
1034.00,52.325
1035.00,52.300
1036.00,52.255
1037.00,52.237
1038.00,52.214
1039.00,52.194
1040.00,52.157
1041.00,52.117
1042.00,52.116
1043.00,52.125
1044.00,52.183
1045.00,52.121
1046.00,52.117
1047.00,52.148
1048.00,52.183
1049.00,52.177
1050.00,52.211
1051.00,52.202
1052.00,52.247
1053.00,52.249
1054.00,52.280
1055.00,52.253
1056.00,52.247
1057.00,52.264
1058.00,52.258
1059.00,52.256
1060.00,52.237
1061.00,52.263
1062.00,52.244
1063.00,52.243
1064.00,52.208
1065.00,52.242
1066.00,52.224
1067.00,52.217
1068.00,52.200
1069.00,52.232
1070.00,52.170
1071.00,52.158
1072.00,52.189
1073.00,52.208
1074.00,52.160
1075.00,52.148
1076.00,52.156
1077.00,52.153
1078.00,52.144
1079.00,52.122
1080.00,52.135
1081.00,52.116
1082.00,52.128
1083.00,52.109
1084.00,52.138
1085.00,52.121
1086.00,52.103
1087.00,52.091
1088.00,52.110
1089.00,52.078
1090.00,52.091
1091.00,52.076
1092.00,52.083
1093.00,52.043
1094.00,52.058
1095.00,52.036
1096.00,52.041
1097.00,52.033
1098.00,52.029
1099.00,51.992
1100.00,52.003
1101.00,51.982
1102.00,51.991
1103.00,51.976
1104.00,51.975
1105.00,51.948
1106.00,51.946
1107.00,51.911
1108.00,51.922
1109.00,51.909
1110.00,51.910
1111.00,51.880
1112.00,51.882
1113.00,51.891
1114.00,51.886
1115.00,51.881
1116.00,51.878
1117.00,51.837
1118.00,51.837
1119.00,51.817
1120.00,51.814
1121.00,51.842
1122.00,51.848
1123.00,51.786
1124.00,51.802
1125.00,51.788
1126.00,51.819
1127.00,51.834
1128.00,51.825
1129.00,51.792
1130.00,51.795
1131.00,51.749
1132.00,51.738
1133.00,51.822
1134.00,51.788
1135.00,51.690
1136.00,51.752
1137.00,51.747
1138.00,51.767
1139.00,51.760
1140.00,51.765
1141.00,51.729
1142.00,51.748
1143.00,51.779
1144.00,51.738
1145.00,51.705
1146.00,51.707
1147.00,51.658
1148.00,51.692
1149.00,51.722
1150.00,51.731
1151.00,51.741
1152.00,51.738
1153.00,51.713
1154.00,51.703
1155.00,51.720
1156.00,51.731
1157.00,51.717
1158.00,51.700
1159.00,51.681
1160.00,51.687
1161.00,51.719
1162.00,51.714
1163.00,51.728
1164.00,51.707
1165.00,51.674
1166.00,51.667
1167.00,51.682
1168.00,51.698
1169.00,51.694
1170.00,51.682
1171.00,51.682
1172.00,51.664
1173.00,51.664
1174.00,51.677
1175.00,51.652
1176.00,51.669
1177.00,51.659
1178.00,51.652
1179.00,51.670
1180.00,51.666
1181.00,51.657
1182.00,51.652
1183.00,51.651
1184.00,51.648
1185.00,51.667
1186.00,51.657
1187.00,51.673
1188.00,51.664
1189.00,51.670
1190.00,51.646
1191.00,51.664
1192.00,51.675
1193.00,51.673
1194.00,51.666
1195.00,51.638
1196.00,51.646
1197.00,51.665
1198.00,51.676
1199.00,51.670
1200.00,51.669
1201.00,51.671
1202.00,51.665
1203.00,51.662
1204.00,51.670
1205.00,51.670
1206.00,51.654
1207.00,51.661
1208.00,51.634
1209.00,51.679
1210.00,51.676
1211.00,51.670
1212.00,51.671
1213.00,51.642
1214.00,51.666
1215.00,51.650
1216.00,51.673
1217.00,51.652
1218.00,51.663
1219.00,51.666
1220.00,51.654
1221.00,51.687
1222.00,51.675
1223.00,51.688
1224.00,51.665
1225.00,51.656
1226.00,51.660
1227.00,51.679
1228.00,51.668
1229.00,51.675
1230.00,51.721
1231.00,51.715
1232.00,51.711
1233.00,51.706
1234.00,51.711
1235.00,51.721
1236.00,51.735
1237.00,51.723
1238.00,51.743
1239.00,51.736
1240.00,51.728
1241.00,51.733
1242.00,51.742
1243.00,51.739
1244.00,51.700
1245.00,51.750
1246.00,51.773
1247.00,51.758
1248.00,51.751
1249.00,51.760
1250.00,51.728
1251.00,51.732
1252.00,51.729
1253.00,51.738
1254.00,51.736
1255.00,51.724
1256.00,51.767
1257.00,51.734
1258.00,51.802
1259.00,51.826
1260.00,51.808
1261.00,51.780
1262.00,51.787
1263.00,51.794
1264.00,51.804
1265.00,51.809
1266.00,51.823
1267.00,51.833
1268.00,51.825
1269.00,51.814
1270.00,51.871
1271.00,51.842
1272.00,51.834
1273.00,51.858
1274.00,51.868
1275.00,51.862
1276.00,51.868
1277.00,51.860
1278.00,51.888
1279.00,51.887
1280.00,51.863
1281.00,51.870
1282.00,51.884
1283.00,51.888
1284.00,51.858
1285.00,51.867
1286.00,51.905
1287.00,51.895
1288.00,51.881
1289.00,51.892
1290.00,51.936
1291.00,51.913
1292.00,51.919
1293.00,51.919
1294.00,51.908
1295.00,51.947
1296.00,51.967
1297.00,51.964
1298.00,51.959
1299.00,51.954
1300.00,51.968
1301.00,51.995
1302.00,52.047
1303.00,51.998
1304.00,51.970
1305.00,51.985
1306.00,51.994
1307.00,52.000
1308.00,51.977
1309.00,52.033
1310.00,52.068
1311.00,52.035
1312.00,52.001
1313.00,52.040
1314.00,52.092
1315.00,52.070
1316.00,52.093
1317.00,52.123
1318.00,52.113
1319.00,52.108
1320.00,52.119
1321.00,52.192
1322.00,52.245
1323.00,52.200
1324.00,52.228
1325.00,52.263
1326.00,52.365
1327.00,52.181
1328.00,52.167
1329.00,52.207
1330.00,52.239
1331.00,52.176
1332.00,52.116
1333.00,52.172
1334.00,52.258
1335.00,52.203
1336.00,52.188
1337.00,52.265
1338.00,52.371
1339.00,52.417
1340.00,52.475
1341.00,52.531
1342.00,52.584
1343.00,52.669
1344.00,52.746
1345.00,52.762
1346.00,52.764
1347.00,52.863
1348.00,52.879
1349.00,52.880
1350.00,52.834
1351.00,52.745
1352.00,52.645
1353.00,52.815
1354.00,53.060
1355.00,52.986
1356.00,52.926
1357.00,52.937
1358.00,52.853
1359.00,52.367
1360.00,51.989
1361.00,52.419
1362.00,52.588
1363.00,53.387
1364.00,54.042
1365.00,53.381
1366.00,52.867
1367.00,52.917
1368.00,52.907
1369.00,53.099
1370.00,53.189
1371.00,53.046
1372.00,53.040
1373.00,53.053
1374.00,52.895
1375.00,52.891
1376.00,52.942
1377.00,52.823
1378.00,52.873
1379.00,52.815
1380.00,52.701
1381.00,52.951
1382.00,53.235
1383.00,53.121
1384.00,53.319
1385.00,52.961
1386.00,52.813
1387.00,53.052
1388.00,53.257
1389.00,53.022
1390.00,52.597
1391.00,52.967
1392.00,53.044
1393.00,53.234
1394.00,52.964
1395.00,53.171
1396.00,53.519
1397.00,53.364
1398.00,53.020
1399.00,53.393
1400.00,53.462
1401.00,52.927
1402.00,52.831
1403.00,53.010
1404.00,53.006
1405.00,53.059
1406.00,52.812
1407.00,52.994
1408.00,53.117
1409.00,53.011
1410.00,52.929
1411.00,52.846
1412.00,52.823
1413.00,52.825
1414.00,52.884
1415.00,53.078
1416.00,53.092
1417.00,53.215
1418.00,53.125
1419.00,52.983
1420.00,53.095
1421.00,53.194
1422.00,53.092
1423.00,53.023
1424.00,53.139
1425.00,53.114
1426.00,53.099
1427.00,53.167
1428.00,53.173
1429.00,53.176
1430.00,53.208
1431.00,53.156
1432.00,53.209
1433.00,53.245
1434.00,53.201
1435.00,53.288
1436.00,53.247
1437.00,53.226
1438.00,53.283
1439.00,53.314
1440.00,53.315
1441.00,53.329
1442.00,53.315
1443.00,53.373
1444.00,53.367
1445.00,53.325
1446.00,53.353
1447.00,53.437
1448.00,53.475
1449.00,53.504
1450.00,53.431
1451.00,53.462
1452.00,53.481
1453.00,53.517
1454.00,53.526
1455.00,53.523
1456.00,53.527
1457.00,53.517
1458.00,53.534
1459.00,53.563
1460.00,53.584
1461.00,53.609
1462.00,53.649
1463.00,53.630
1464.00,53.638
1465.00,53.686
1466.00,53.672
1467.00,53.684
1468.00,53.750
1469.00,53.705
1470.00,53.711
1471.00,53.750
1472.00,53.781
1473.00,53.787
1474.00,53.796
1475.00,53.828
1476.00,53.784
1477.00,53.784
1478.00,53.823
1479.00,53.853
1480.00,53.845
1481.00,53.825
1482.00,53.869
1483.00,53.876
1484.00,53.895
1485.00,53.905
1486.00,53.914
1487.00,53.939
1488.00,53.940
1489.00,53.933
1490.00,53.953
1491.00,53.978
1492.00,53.989
1493.00,53.990
1494.00,53.999
1495.00,54.001
1496.00,54.024
1497.00,54.041
1498.00,54.040
1499.00,54.071
1500.00,54.078
1501.00, 
1502.00, 
1503.00, 
1504.00, 
1505.00, 
1506.00, 
1507.00, 
1508.00, 
1509.00, 
1510.00, 
1511.00, 
1512.00, 
1513.00, 
1514.00, 
1515.00, 
1516.00, 
1517.00, 
1518.00, 
1519.00, 
1520.00, 
1521.00, 
1522.00, 
1523.00, 
1524.00, 
1525.00, 
1526.00, 
1527.00, 
1528.00, 
1529.00, 
1530.00, 
1531.00, 
1532.00, 
1533.00, 
1534.00, 
1535.00, 
1536.00, 
1537.00, 
1538.00, 
1539.00, 
1540.00, 
1541.00, 
1542.00, 
1543.00, 
1544.00, 
1545.00, 
1546.00, 
1547.00, 
1548.00, 
1549.00, 
1550.00, 
1551.00, 
1552.00, 
1553.00, 
1554.00, 
1555.00, 
1556.00, 
1557.00, 
1558.00, 
1559.00, 
1560.00, 
1561.00, 
1562.00, 
1563.00, 
1564.00, 
1565.00, 
1566.00, 
1567.00, 
1568.00, 
1569.00, 
1570.00, 
1571.00, 
1572.00, 
1573.00, 
1574.00, 
1575.00, 
1576.00, 
1577.00, 
1578.00, 
1579.00, 
1580.00, 
1581.00, 
1582.00, 
1583.00, 
1584.00, 
1585.00, 
1586.00, 
1587.00, 
1588.00, 
1589.00, 
1590.00, 
1591.00, 
1592.00, 
1593.00, 
1594.00, 
1595.00, 
1596.00, 
1597.00, 
1598.00, 
1599.00, 
1600.00, 
1601.00, 
1602.00, 
1603.00, 
1604.00, 
1605.00, 
1606.00, 
1607.00, 
1608.00, 
1609.00, 
1610.00, 
1611.00, 
1612.00, 
1613.00, 
1614.00, 
1615.00, 
1616.00, 
1617.00, 
1618.00, 
1619.00, 
1620.00, 
1621.00, 
1622.00, 
1623.00, 
1624.00, 
1625.00, 
1626.00, 
1627.00, 
1628.00, 
1629.00, 
1630.00, 
1631.00, 
1632.00, 
1633.00, 
1634.00, 
1635.00, 
1636.00, 
1637.00, 
1638.00, 
1639.00, 
1640.00, 
1641.00, 
1642.00, 
1643.00, 
1644.00, 
1645.00, 
1646.00, 
1647.00, 
1648.00, 
1649.00, 
1650.00, 
1651.00, 
1652.00, 
1653.00, 
1654.00, 
1655.00, 
1656.00, 
1657.00, 
1658.00, 
1659.00, 
1660.00, 
1661.00, 
1662.00, 
1663.00, 
1664.00, 
1665.00, 
1666.00, 
1667.00, 
1668.00, 
1669.00, 
1670.00, 
1671.00, 
1672.00, 
1673.00, 
1674.00, 
1675.00, 
1676.00, 
1677.00, 
1678.00, 
1679.00, 
1680.00, 
1681.00, 
1682.00, 
1683.00, 
1684.00, 
1685.00, 
1686.00, 
1687.00, 
1688.00, 
1689.00, 
1690.00, 
1691.00, 
1692.00, 
1693.00, 
1694.00, 
1695.00, 
1696.00, 
1697.00, 
1698.00, 
1699.00, 
1700.00, 
1701.00, 
1702.00, 
1703.00, 
1704.00, 
1705.00, 
1706.00, 
1707.00, 
1708.00, 
1709.00, 
1710.00, 
1711.00, 
1712.00, 
1713.00, 
1714.00, 
1715.00, 
1716.00, 
1717.00, 
1718.00, 
1719.00, 
1720.00, 
1721.00, 
1722.00, 
1723.00, 
1724.00, 
1725.00, 
1726.00, 
1727.00, 
1728.00, 
1729.00, 
1730.00, 
1731.00, 
1732.00, 
1733.00, 
1734.00, 
1735.00, 
1736.00, 
1737.00, 
1738.00, 
1739.00, 
1740.00, 
1741.00, 
1742.00, 
1743.00, 
1744.00, 
1745.00, 
1746.00, 
1747.00, 
1748.00, 
1749.00, 
1750.00, 
1751.00, 
1752.00, 
1753.00, 
1754.00, 
1755.00, 
1756.00, 
1757.00, 
1758.00, 
1759.00, 
1760.00, 
1761.00, 
1762.00, 
1763.00, 
1764.00, 
1765.00, 
1766.00, 
1767.00, 
1768.00, 
1769.00, 
1770.00, 
1771.00, 
1772.00, 
1773.00, 
1774.00, 
1775.00, 
1776.00, 
1777.00, 
1778.00, 
1779.00, 
1780.00, 
1781.00, 
1782.00, 
1783.00, 
1784.00, 
1785.00, 
1786.00, 
1787.00, 
1788.00, 
1789.00, 
1790.00, 
1791.00, 
1792.00, 
1793.00, 
1794.00, 
1795.00, 
1796.00, 
1797.00, 
1798.00, 
1799.00, 
1800.00, 
1801.00, 
1802.00, 
1803.00, 
1804.00, 
1805.00, 
1806.00, 
1807.00, 
1808.00, 
1809.00, 
1810.00, 
1811.00, 
1812.00, 
1813.00, 
1814.00, 
1815.00, 
1816.00, 
1817.00, 
1818.00, 
1819.00, 
1820.00, 
1821.00, 
1822.00, 
1823.00, 
1824.00, 
1825.00, 
1826.00, 
1827.00, 
1828.00, 
1829.00, 
1830.00, 
1831.00, 
1832.00, 
1833.00, 
1834.00, 
1835.00, 
1836.00, 
1837.00, 
1838.00, 
1839.00, 
1840.00, 
1841.00, 
1842.00, 
1843.00, 
1844.00, 
1845.00, 
1846.00, 
1847.00, 
1848.00, 
1849.00, 
1850.00, 
1851.00, 
1852.00, 
1853.00, 
1854.00, 
1855.00, 
1856.00, 
1857.00, 
1858.00, 
1859.00, 
1860.00, 
1861.00, 
1862.00, 
1863.00, 
1864.00, 
1865.00, 
1866.00, 
1867.00, 
1868.00, 
1869.00, 
1870.00, 
1871.00, 
1872.00, 
1873.00, 
1874.00, 
1875.00, 
1876.00, 
1877.00, 
1878.00, 
1879.00, 
1880.00, 
1881.00, 
1882.00, 
1883.00, 
1884.00, 
1885.00, 
1886.00, 
1887.00, 
1888.00, 
1889.00, 
1890.00, 
1891.00, 
1892.00, 
1893.00, 
1894.00, 
1895.00, 
1896.00, 
1897.00, 
1898.00, 
1899.00, 
1900.00, 
1901.00, 
1902.00, 
1903.00, 
1904.00, 
1905.00, 
1906.00, 
1907.00, 
1908.00, 
1909.00, 
1910.00, 
1911.00, 
1912.00, 
1913.00, 
1914.00, 
1915.00, 
1916.00, 
1917.00, 
1918.00, 
1919.00, 
1920.00, 
1921.00, 
1922.00, 
1923.00, 
1924.00, 
1925.00, 
1926.00, 
1927.00, 
1928.00, 
1929.00, 
1930.00, 
1931.00, 
1932.00, 
1933.00, 
1934.00, 
1935.00, 
1936.00, 
1937.00, 
1938.00, 
1939.00, 
1940.00, 
1941.00, 
1942.00, 
1943.00, 
1944.00, 
1945.00, 
1946.00, 
1947.00, 
1948.00, 
1949.00, 
1950.00, 
1951.00, 
1952.00, 
1953.00, 
1954.00, 
1955.00, 
1956.00, 
1957.00, 
1958.00, 
1959.00, 
1960.00, 
1961.00, 
1962.00, 
1963.00, 
1964.00, 
1965.00, 
1966.00, 
1967.00, 
1968.00, 
1969.00, 
1970.00, 
1971.00, 
1972.00, 
1973.00, 
1974.00, 
1975.00, 
1976.00, 
1977.00, 
1978.00, 
1979.00, 
1980.00, 
1981.00, 
1982.00, 
1983.00, 
1984.00, 
1985.00, 
1986.00, 
1987.00, 
1988.00, 
1989.00, 
1990.00, 
1991.00, 
1992.00, 
1993.00, 
1994.00, 
1995.00, 
1996.00, 
1997.00, 
1998.00, 
1999.00, 
2000.00, 
2001.00, 
2002.00, 
2003.00, 
2004.00, 
2005.00, 
2006.00, 
2007.00, 
2008.00, 
2009.00, 
2010.00, 
2011.00, 
2012.00, 
2013.00, 
2014.00, 
2015.00, 
2016.00, 
2017.00, 
2018.00, 
2019.00, 
2020.00, 
2021.00, 
2022.00, 
2023.00, 
2024.00, 
2025.00, 
2026.00, 
2027.00, 
2028.00, 
2029.00, 
2030.00, 
2031.00, 
2032.00, 
2033.00, 
2034.00, 
2035.00, 
2036.00, 
2037.00, 
2038.00, 
2039.00, 
2040.00, 
2041.00, 
2042.00, 
2043.00, 
2044.00, 
2045.00, 
2046.00, 
2047.00, 
2048.00, 
2049.00, 
2050.00, 
2051.00, 
2052.00, 
2053.00, 
2054.00, 
2055.00, 
2056.00, 
2057.00, 
2058.00, 
2059.00, 
2060.00, 
2061.00, 
2062.00, 
2063.00, 
2064.00, 
2065.00, 
2066.00, 
2067.00, 
2068.00, 
2069.00, 
2070.00, 
2071.00, 
2072.00, 
2073.00, 
2074.00, 
2075.00, 
2076.00, 
2077.00, 
2078.00, 
2079.00, 
2080.00, 
2081.00, 
2082.00, 
2083.00, 
2084.00, 
2085.00, 
2086.00, 
2087.00, 
2088.00, 
2089.00, 
2090.00, 
2091.00, 
2092.00, 
2093.00, 
2094.00, 
2095.00, 
2096.00, 
2097.00, 
2098.00, 
2099.00, 
2100.00, 
2101.00, 
2102.00, 
2103.00, 
2104.00, 
2105.00, 
2106.00, 
2107.00, 
2108.00, 
2109.00, 
2110.00, 
2111.00, 
2112.00, 
2113.00, 
2114.00, 
2115.00, 
2116.00, 
2117.00, 
2118.00, 
2119.00, 
2120.00, 
2121.00, 
2122.00, 
2123.00, 
2124.00, 
2125.00, 
2126.00, 
2127.00, 
2128.00, 
2129.00, 
2130.00, 
2131.00, 
2132.00, 
2133.00, 
2134.00, 
2135.00, 
2136.00, 
2137.00, 
2138.00, 
2139.00, 
2140.00, 
2141.00, 
2142.00, 
2143.00, 
2144.00, 
2145.00, 
2146.00, 
2147.00, 
2148.00, 
2149.00, 
2150.00, 
2151.00, 
2152.00, 
2153.00, 
2154.00, 
2155.00, 
2156.00, 
2157.00, 
2158.00, 
2159.00, 
2160.00, 
2161.00, 
2162.00, 
2163.00, 
2164.00, 
2165.00, 
2166.00, 
2167.00, 
2168.00, 
2169.00, 
2170.00, 
2171.00, 
2172.00, 
2173.00, 
2174.00, 
2175.00, 
2176.00, 
2177.00, 
2178.00, 
2179.00, 
2180.00, 
2181.00, 
2182.00, 
2183.00, 
2184.00, 
2185.00, 
2186.00, 
2187.00, 
2188.00, 
2189.00, 
2190.00, 
2191.00, 
2192.00, 
2193.00, 
2194.00, 
2195.00, 
2196.00, 
2197.00, 
2198.00, 
2199.00, 
2200.00, 
2201.00, 
2202.00, 
2203.00, 
2204.00, 
2205.00, 
2206.00, 
2207.00, 
2208.00, 
2209.00, 
2210.00, 
2211.00, 
2212.00, 
2213.00, 
2214.00, 
2215.00, 
2216.00, 
2217.00, 
2218.00, 
2219.00, 
2220.00, 
2221.00, 
2222.00, 
2223.00, 
2224.00, 
2225.00, 
2226.00, 
2227.00, 
2228.00, 
2229.00, 
2230.00, 
2231.00, 
2232.00, 
2233.00, 
2234.00, 
2235.00, 
2236.00, 
2237.00, 
2238.00, 
2239.00, 
2240.00, 
2241.00, 
2242.00, 
2243.00, 
2244.00, 
2245.00, 
2246.00, 
2247.00, 
2248.00, 
2249.00, 
2250.00, 
2251.00, 
2252.00, 
2253.00, 
2254.00, 
2255.00, 
2256.00, 
2257.00, 
2258.00, 
2259.00, 
2260.00, 
2261.00, 
2262.00, 
2263.00, 
2264.00, 
2265.00, 
2266.00, 
2267.00, 
2268.00, 
2269.00, 
2270.00, 
2271.00, 
2272.00, 
2273.00, 
2274.00, 
2275.00, 
2276.00, 
2277.00, 
2278.00, 
2279.00, 
2280.00, 
2281.00, 
2282.00, 
2283.00, 
2284.00, 
2285.00, 
2286.00, 
2287.00, 
2288.00, 
2289.00, 
2290.00, 
2291.00, 
2292.00, 
2293.00, 
2294.00, 
2295.00, 
2296.00, 
2297.00, 
2298.00, 
2299.00, 
2300.00, 
2301.00, 
2302.00, 
2303.00, 
2304.00, 
2305.00, 
2306.00, 
2307.00, 
2308.00, 
2309.00, 
2310.00, 
2311.00, 
2312.00, 
2313.00, 
2314.00, 
2315.00, 
2316.00, 
2317.00, 
2318.00, 
2319.00, 
2320.00, 
2321.00, 
2322.00, 
2323.00, 
2324.00, 
2325.00, 
2326.00, 
2327.00, 
2328.00, 
2329.00, 
2330.00, 
2331.00, 
2332.00, 
2333.00, 
2334.00, 
2335.00, 
2336.00, 
2337.00, 
2338.00, 
2339.00, 
2340.00, 
2341.00, 
2342.00, 
2343.00, 
2344.00, 
2345.00, 
2346.00, 
2347.00, 
2348.00, 
2349.00, 
2350.00, 
2351.00, 
2352.00, 
2353.00, 
2354.00, 
2355.00, 
2356.00, 
2357.00, 
2358.00, 
2359.00, 
2360.00, 
2361.00, 
2362.00, 
2363.00, 
2364.00, 
2365.00, 
2366.00, 
2367.00, 
2368.00, 
2369.00, 
2370.00, 
2371.00, 
2372.00, 
2373.00, 
2374.00, 
2375.00, 
2376.00, 
2377.00, 
2378.00, 
2379.00, 
2380.00, 
2381.00, 
2382.00, 
2383.00, 
2384.00, 
2385.00, 
2386.00, 
2387.00, 
2388.00, 
2389.00, 
2390.00, 
2391.00, 
2392.00, 
2393.00, 
2394.00, 
2395.00, 
2396.00, 
2397.00, 
2398.00, 
2399.00, 
2400.00, 
2401.00, 
2402.00, 
2403.00, 
2404.00, 
2405.00, 
2406.00, 
2407.00, 
2408.00, 
2409.00, 
2410.00, 
2411.00, 
2412.00, 
2413.00, 
2414.00, 
2415.00, 
2416.00, 
2417.00, 
2418.00, 
2419.00, 
2420.00, 
2421.00, 
2422.00, 
2423.00, 
2424.00, 
2425.00, 
2426.00, 
2427.00, 
2428.00, 
2429.00, 
2430.00, 
2431.00, 
2432.00, 
2433.00, 
2434.00, 
2435.00, 
2436.00, 
2437.00, 
2438.00, 
2439.00, 
2440.00, 
2441.00, 
2442.00, 
2443.00, 
2444.00, 
2445.00, 
2446.00, 
2447.00, 
2448.00, 
2449.00, 
2450.00, 
2451.00, 
2452.00, 
2453.00, 
2454.00, 
2455.00, 
2456.00, 
2457.00, 
2458.00, 
2459.00, 
2460.00, 
2461.00, 
2462.00, 
2463.00, 
2464.00, 
2465.00, 
2466.00, 
2467.00, 
2468.00, 
2469.00, 
2470.00, 
2471.00, 
2472.00, 
2473.00, 
2474.00, 
2475.00, 
2476.00, 
2477.00, 
2478.00, 
2479.00, 
2480.00, 
2481.00, 
2482.00, 
2483.00, 
2484.00, 
2485.00, 
2486.00, 
2487.00, 
2488.00, 
2489.00, 
2490.00, 
2491.00, 
2492.00, 
2493.00, 
2494.00, 
2495.00, 
2496.00, 
2497.00, 
2498.00, 
2499.00, 
2500.00, 
2501.00, 
2502.00, 
2503.00, 
2504.00, 
2505.00, 
2506.00, 
2507.00, 
2508.00, 
2509.00, 
2510.00, 
2511.00, 
2512.00, 
2513.00, 
2514.00, 
2515.00, 
2516.00, 
2517.00, 
2518.00, 
2519.00, 
2520.00, 
2521.00, 
2522.00, 
2523.00, 
2524.00, 
2525.00, 
2526.00, 
2527.00, 
2528.00, 
2529.00, 
2530.00, 
2531.00, 
2532.00, 
2533.00, 
2534.00, 
2535.00, 
2536.00, 
2537.00, 
2538.00, 
2539.00, 
2540.00, 
2541.00, 
2542.00, 
2543.00, 
2544.00, 
2545.00, 
2546.00, 
2547.00, 
2548.00, 
2549.00, 
2550.00, 
2551.00, 
2552.00, 
2553.00, 
2554.00, 
2555.00, 
2556.00, 
2557.00, 
2558.00, 
2559.00, 
2560.00, 
2561.00, 
2562.00, 
2563.00, 
2564.00, 
2565.00, 
2566.00, 
2567.00, 
2568.00, 
2569.00, 
2570.00, 
2571.00, 
2572.00, 
2573.00, 
2574.00, 
2575.00, 
2576.00, 
2577.00, 
2578.00, 
2579.00, 
2580.00, 
2581.00, 
2582.00, 
2583.00, 
2584.00, 
2585.00, 
2586.00, 
2587.00, 
2588.00, 
2589.00, 
2590.00, 
2591.00, 
2592.00, 
2593.00, 
2594.00, 
2595.00, 
2596.00, 
2597.00, 
2598.00, 
2599.00, 
2600.00, 
