"1cP2 - RawData"
"Wavelength nm.","T%"
200.00,0.001
201.00,0.003
202.00,0.001
203.00,0.001
204.00,-0.000
205.00,0.001
206.00,0.000
207.00,0.002
208.00,-0.002
209.00,-0.001
210.00,-0.002
211.00,-0.001
212.00,-0.002
213.00,0.001
214.00,0.002
215.00,-0.002
216.00,0.002
217.00,0.000
218.00,-0.003
219.00,-0.000
220.00,-0.000
221.00,0.000
222.00,-0.000
223.00,-0.000
224.00,0.003
225.00,-0.001
226.00,-0.002
227.00,0.001
228.00,0.000
229.00,-0.002
230.00,-0.001
231.00,-0.001
232.00,-0.001
233.00,0.001
234.00,0.000
235.00,0.000
236.00,-0.000
237.00,0.001
238.00,-0.001
239.00,0.000
240.00,0.000
241.00,-0.000
242.00,0.000
243.00,0.001
244.00,0.001
245.00,-0.000
246.00,-0.002
247.00,-0.000
248.00,-0.000
249.00,-0.001
250.00,0.000
251.00,-0.001
252.00,-0.001
253.00,-0.001
254.00,-0.000
255.00,-0.001
256.00,-0.001
257.00,0.001
258.00,0.002
259.00,0.001
260.00,0.000
261.00,0.001
262.00,0.000
263.00,-0.001
264.00,-0.001
265.00,-0.000
266.00,-0.000
267.00,0.001
268.00,0.001
269.00,-0.001
270.00,0.001
271.00,-0.000
272.00,-0.000
273.00,-0.000
274.00,-0.001
275.00,-0.002
276.00,-0.001
277.00,-0.001
278.00,0.001
279.00,0.000
280.00,0.001
281.00,-0.002
282.00,-0.001
283.00,0.001
284.00,0.001
285.00,0.002
286.00,-0.001
287.00,-0.000
288.00,0.000
289.00,-0.001
290.00,-0.000
291.00,-0.001
292.00,-0.001
293.00,-0.001
294.00,0.001
295.00,-0.000
296.00,0.001
297.00,0.001
298.00,-0.000
299.00,-0.001
300.00,-0.000
301.00,-0.000
302.00,-0.001
303.00,0.000
304.00,0.000
305.00,-0.000
306.00,0.001
307.00,0.002
308.00,0.003
309.00,0.005
310.00,0.007
311.00,0.012
312.00,0.018
313.00,0.028
314.00,0.039
315.00,0.059
316.00,0.082
317.00,0.112
318.00,0.153
319.00,0.203
320.00,0.265
321.00,0.353
322.00,0.436
323.00,0.548
324.00,0.674
325.00,0.820
326.00,0.953
327.00,1.138
328.00,1.314
329.00,1.510
330.00,1.714
331.00,1.943
332.00,2.171
333.00,2.420
334.00,2.656
335.00,2.928
336.00,3.155
337.00,3.413
338.00,3.658
339.00,3.881
340.00,4.137
341.00,4.382
342.00,4.585
343.00,4.826
344.00,4.988
345.00,5.189
346.00,5.370
347.00,5.532
348.00,5.705
349.00,5.854
350.00,5.984
351.00,6.111
352.00,6.230
353.00,6.345
354.00,6.427
355.00,6.528
356.00,6.626
357.00,6.695
358.00,6.745
359.00,6.793
360.00,6.836
361.00,6.876
362.00,6.876
363.00,6.901
364.00,6.885
365.00,6.905
366.00,6.917
367.00,6.912
368.00,6.928
369.00,6.901
370.00,6.896
371.00,6.896
372.00,6.861
373.00,6.841
374.00,6.773
375.00,6.709
376.00,6.671
377.00,6.605
378.00,6.558
379.00,6.514
380.00,6.480
381.00,6.437
382.00,6.411
383.00,6.402
384.00,6.389
385.00,6.379
386.00,6.344
387.00,6.346
388.00,6.346
389.00,6.341
390.00,6.322
391.00,6.316
392.00,6.298
393.00,6.286
394.00,6.250
395.00,6.236
396.00,6.224
397.00,6.192
398.00,6.172
399.00,6.166
400.00,6.149
401.00,6.143
402.00,6.105
403.00,6.103
404.00,6.077
405.00,6.049
406.00,6.035
407.00,5.996
408.00,5.986
409.00,5.988
410.00,5.977
411.00,5.960
412.00,5.946
413.00,5.968
414.00,5.972
415.00,5.972
416.00,5.957
417.00,5.922
418.00,5.913
419.00,5.935
420.00,5.926
421.00,5.926
422.00,5.956
423.00,5.943
424.00,5.956
425.00,5.970
426.00,5.987
427.00,5.996
428.00,6.013
429.00,6.035
430.00,6.056
431.00,6.074
432.00,6.100
433.00,6.127
434.00,6.147
435.00,6.189
436.00,6.231
437.00,6.254
438.00,6.293
439.00,6.329
440.00,6.378
441.00,6.413
442.00,6.459
443.00,6.502
444.00,6.556
445.00,6.613
446.00,6.672
447.00,6.715
448.00,6.777
449.00,6.834
450.00,6.907
451.00,6.983
452.00,7.015
453.00,7.108
454.00,7.178
455.00,7.244
456.00,7.301
457.00,7.382
458.00,7.443
459.00,7.529
460.00,7.590
461.00,7.658
462.00,7.726
463.00,7.805
464.00,7.900
465.00,7.982
466.00,8.087
467.00,8.191
468.00,8.348
469.00,8.429
470.00,8.446
471.00,8.561
472.00,8.674
473.00,8.771
474.00,8.868
475.00,8.998
476.00,9.116
477.00,9.224
478.00,9.303
479.00,9.430
480.00,9.520
481.00,9.616
482.00,9.774
483.00,9.884
484.00,9.967
485.00,10.173
486.00,10.279
487.00,10.436
488.00,10.528
489.00,10.667
490.00,10.756
491.00,10.898
492.00,11.051
493.00,11.164
494.00,11.236
495.00,11.413
496.00,11.477
497.00,11.596
498.00,11.694
499.00,11.864
500.00,11.969
501.00,12.107
502.00,12.214
503.00,12.345
504.00,12.462
505.00,12.586
506.00,12.746
507.00,12.829
508.00,12.905
509.00,13.026
510.00,13.195
511.00,13.388
512.00,13.568
513.00,13.663
514.00,13.776
515.00,13.834
516.00,13.961
517.00,14.059
518.00,14.179
519.00,14.247
520.00,14.394
521.00,14.486
522.00,14.609
523.00,14.783
524.00,14.846
525.00,14.982
526.00,15.071
527.00,15.130
528.00,15.220
529.00,15.343
530.00,15.412
531.00,15.537
532.00,15.505
533.00,15.654
534.00,15.787
535.00,15.895
536.00,15.993
537.00,16.071
538.00,16.215
539.00,16.302
540.00,16.417
541.00,16.516
542.00,16.556
543.00,16.672
544.00,16.761
545.00,16.873
546.00,16.965
547.00,17.058
548.00,17.131
549.00,17.212
550.00,17.294
551.00,17.332
552.00,17.402
553.00,17.452
554.00,17.504
555.00,17.561
556.00,17.617
557.00,17.762
558.00,17.836
559.00,17.937
560.00,17.981
561.00,18.036
562.00,18.091
563.00,18.170
564.00,18.255
565.00,18.314
566.00,18.344
567.00,18.439
568.00,18.506
569.00,18.590
570.00,18.569
571.00,18.621
572.00,18.710
573.00,18.696
574.00,18.769
575.00,18.817
576.00,18.830
577.00,18.954
578.00,19.028
579.00,19.105
580.00,19.132
581.00,19.222
582.00,19.293
583.00,19.370
584.00,19.495
585.00,19.513
586.00,19.523
587.00,19.679
588.00,19.721
589.00,19.787
590.00,19.847
591.00,19.912
592.00,19.944
593.00,20.022
594.00,20.098
595.00,20.146
596.00,20.288
597.00,20.281
598.00,20.347
599.00,20.342
600.00,20.343
601.00,20.444
602.00,20.420
603.00,20.557
604.00,20.605
605.00,20.653
606.00,20.759
607.00,20.864
608.00,20.863
609.00,21.057
610.00,21.057
611.00,21.037
612.00,21.160
613.00,21.182
614.00,21.343
615.00,21.381
616.00,21.431
617.00,21.388
618.00,21.471
619.00,21.530
620.00,21.564
621.00,21.709
622.00,21.815
623.00,21.823
624.00,21.966
625.00,22.081
626.00,22.182
627.00,22.324
628.00,22.379
629.00,22.460
630.00,22.615
631.00,22.680
632.00,22.752
633.00,22.888
634.00,23.008
635.00,22.987
636.00,23.088
637.00,23.211
638.00,23.269
639.00,23.409
640.00,23.578
641.00,23.702
642.00,23.866
643.00,23.990
644.00,24.004
645.00,24.096
646.00,24.267
647.00,24.416
648.00,24.523
649.00,24.715
650.00,24.823
651.00,24.900
652.00,25.002
653.00,25.218
654.00,25.324
655.00,25.632
656.00,25.631
657.00,26.487
658.00,26.509
659.00,26.353
660.00,26.172
661.00,26.396
662.00,26.585
663.00,26.799
664.00,26.831
665.00,26.771
666.00,27.180
667.00,27.546
668.00,27.597
669.00,27.463
670.00,27.837
671.00,27.675
672.00,27.939
673.00,28.164
674.00,28.152
675.00,28.507
676.00,28.619
677.00,28.743
678.00,29.210
679.00,29.261
680.00,29.633
681.00,29.948
682.00,30.361
683.00,30.337
684.00,30.250
685.00,30.387
686.00,30.461
687.00,30.695
688.00,30.918
689.00,31.088
690.00,31.138
691.00,31.535
692.00,31.522
693.00,31.576
694.00,32.007
695.00,32.117
696.00,32.328
697.00,32.501
698.00,32.816
699.00,32.666
700.00,32.820
701.00,33.239
702.00,33.489
703.00,33.805
704.00,34.173
705.00,34.064
706.00,33.963
707.00,34.047
708.00,34.084
709.00,34.240
710.00,34.322
711.00,34.837
712.00,35.307
713.00,35.371
714.00,35.309
715.00,35.699
716.00,36.038
717.00,35.964
718.00,36.217
719.00,36.635
720.00,36.935
721.00,40.330
722.00,40.549
723.00,40.632
724.00,40.769
725.00,40.894
726.00,41.015
727.00,41.122
728.00,41.337
729.00,41.441
730.00,41.689
731.00,41.819
732.00,41.909
733.00,42.059
734.00,42.212
735.00,42.346
736.00,42.483
737.00,42.612
738.00,42.777
739.00,42.923
740.00,42.995
741.00,43.202
742.00,43.311
743.00,43.429
744.00,43.449
745.00,43.584
746.00,43.656
747.00,43.873
748.00,43.955
749.00,44.019
750.00,44.172
751.00,44.230
752.00,44.367
753.00,44.392
754.00,44.465
755.00,44.527
756.00,44.673
757.00,44.757
758.00,44.833
759.00,44.940
760.00,45.031
761.00,45.186
762.00,45.251
763.00,45.416
764.00,45.455
765.00,45.512
766.00,45.596
767.00,45.694
768.00,45.797
769.00,45.823
770.00,45.958
771.00,45.988
772.00,46.098
773.00,46.161
774.00,46.285
775.00,46.398
776.00,46.425
777.00,46.534
778.00,46.464
779.00,46.653
780.00,46.725
781.00,46.798
782.00,46.844
783.00,46.842
784.00,46.921
785.00,46.884
786.00,47.008
787.00,47.068
788.00,47.186
789.00,47.171
790.00,47.142
791.00,47.304
792.00,47.232
793.00,47.417
794.00,47.439
795.00,47.404
796.00,47.549
797.00,47.433
798.00,47.496
799.00,47.496
800.00,47.536
801.00,47.487
802.00,47.443
803.00,47.560
804.00,47.594
805.00,47.651
806.00,47.600
807.00,47.652
808.00,47.806
809.00,47.676
810.00,47.827
811.00,47.773
812.00,47.912
813.00,47.934
814.00,47.920
815.00,48.043
816.00,47.925
817.00,48.056
818.00,47.847
819.00,47.998
820.00,48.059
821.00,47.915
822.00,48.090
823.00,48.105
824.00,48.342
825.00,48.022
826.00,47.983
827.00,48.200
828.00,47.959
829.00,48.179
830.00,48.092
831.00,50.635
832.00,50.675
833.00,50.722
834.00,50.659
835.00,50.724
836.00,50.728
837.00,50.727
838.00,50.744
839.00,50.787
840.00,50.807
841.00,50.795
842.00,50.829
843.00,50.781
844.00,50.800
845.00,50.699
846.00,50.763
847.00,50.682
848.00,50.779
849.00,50.835
850.00,50.792
851.00,50.824
852.00,50.743
853.00,50.791
854.00,50.775
855.00,50.773
856.00,50.704
857.00,50.751
858.00,50.816
859.00,50.801
860.00,50.803
861.00,50.756
862.00,50.770
863.00,50.750
864.00,50.876
865.00,50.728
866.00,50.705
867.00,50.738
868.00,50.825
869.00,50.814
870.00,50.770
871.00,50.794
872.00,50.851
873.00,50.841
874.00,50.750
875.00,50.805
876.00,50.754
877.00,50.880
878.00,50.793
879.00,50.853
880.00,50.848
881.00,50.858
882.00,50.711
883.00,50.872
884.00,50.820
885.00,50.826
886.00,50.749
887.00,50.789
888.00,50.828
889.00,50.794
890.00,50.678
891.00,50.720
892.00,50.771
893.00,50.732
894.00,50.678
895.00,50.719
896.00,50.791
897.00,50.737
898.00,50.631
899.00,50.569
900.00,50.645
901.00,50.556
902.00,50.555
903.00,50.681
904.00,50.748
905.00,50.662
906.00,50.558
907.00,50.595
908.00,50.708
909.00,50.601
910.00,50.583
911.00,50.461
912.00,50.530
913.00,50.468
914.00,50.503
915.00,50.629
916.00,50.736
917.00,50.598
918.00,50.501
919.00,50.582
920.00,50.697
921.00,50.551
922.00,50.405
923.00,50.472
924.00,50.643
925.00,50.446
926.00,50.337
927.00,50.415
928.00,50.570
929.00,50.400
930.00,50.344
931.00,50.346
932.00,50.461
933.00,50.332
934.00,50.341
935.00,50.379
936.00,50.432
937.00,50.311
938.00,50.178
939.00,50.264
940.00,50.350
941.00,50.219
942.00,50.194
943.00,50.228
944.00,50.290
945.00,50.207
946.00,50.153
947.00,50.182
948.00,50.168
949.00,50.128
950.00,50.038
951.00,50.101
952.00,50.117
953.00,50.102
954.00,49.980
955.00,50.002
956.00,50.001
957.00,49.961
958.00,49.905
959.00,49.914
960.00,49.901
961.00,49.885
962.00,49.857
963.00,49.867
964.00,49.878
965.00,49.844
966.00,49.843
967.00,49.837
968.00,49.875
969.00,49.808
970.00,49.843
971.00,49.852
972.00,49.835
973.00,49.858
974.00,49.860
975.00,49.889
976.00,49.822
977.00,49.840
978.00,49.864
979.00,49.877
980.00,49.880
981.00,49.849
982.00,49.860
983.00,49.801
984.00,49.848
985.00,49.812
986.00,49.847
987.00,49.836
988.00,49.843
989.00,49.803
990.00,49.790
991.00,49.782
992.00,49.789
993.00,49.782
994.00,49.736
995.00,49.714
996.00,49.744
997.00,49.717
998.00,49.716
999.00,49.697
1000.00,49.712
1001.00,49.692
1002.00,49.652
1003.00,49.692
1004.00,49.636
1005.00,49.630
1006.00,49.623
1007.00,49.658
1008.00,49.625
1009.00,49.593
1010.00,49.594
1011.00,49.564
1012.00,49.568
1013.00,49.553
1014.00,49.572
1015.00,49.539
1016.00,49.494
1017.00,49.503
1018.00,49.485
1019.00,49.506
1020.00,49.457
1021.00,49.500
1022.00,49.481
1023.00,49.453
1024.00,49.412
1025.00,49.415
1026.00,49.434
1027.00,49.379
1028.00,49.385
1029.00,49.367
1030.00,49.373
1031.00,49.352
1032.00,49.290
1033.00,49.299
1034.00,49.313
1035.00,49.256
1036.00,49.218
1037.00,49.205
1038.00,49.193
1039.00,49.174
1040.00,49.130
1041.00,49.085
1042.00,49.079
1043.00,49.080
1044.00,49.142
1045.00,49.105
1046.00,49.091
1047.00,49.101
1048.00,49.142
1049.00,49.168
1050.00,49.207
1051.00,49.191
1052.00,49.224
1053.00,49.222
1054.00,49.247
1055.00,49.234
1056.00,49.224
1057.00,49.255
1058.00,49.252
1059.00,49.238
1060.00,49.215
1061.00,49.236
1062.00,49.224
1063.00,49.238
1064.00,49.187
1065.00,49.224
1066.00,49.203
1067.00,49.191
1068.00,49.185
1069.00,49.204
1070.00,49.142
1071.00,49.124
1072.00,49.146
1073.00,49.141
1074.00,49.135
1075.00,49.121
1076.00,49.125
1077.00,49.114
1078.00,49.096
1079.00,49.079
1080.00,49.083
1081.00,49.052
1082.00,49.071
1083.00,49.062
1084.00,49.065
1085.00,49.047
1086.00,49.050
1087.00,49.032
1088.00,49.032
1089.00,49.010
1090.00,49.019
1091.00,49.002
1092.00,49.029
1093.00,48.996
1094.00,49.009
1095.00,49.002
1096.00,48.988
1097.00,48.970
1098.00,48.972
1099.00,48.947
1100.00,48.953
1101.00,48.931
1102.00,48.944
1103.00,48.928
1104.00,48.930
1105.00,48.900
1106.00,48.893
1107.00,48.862
1108.00,48.868
1109.00,48.870
1110.00,48.884
1111.00,48.837
1112.00,48.824
1113.00,48.832
1114.00,48.836
1115.00,48.838
1116.00,48.844
1117.00,48.803
1118.00,48.793
1119.00,48.769
1120.00,48.792
1121.00,48.803
1122.00,48.791
1123.00,48.727
1124.00,48.752
1125.00,48.744
1126.00,48.782
1127.00,48.780
1128.00,48.761
1129.00,48.717
1130.00,48.742
1131.00,48.717
1132.00,48.692
1133.00,48.746
1134.00,48.689
1135.00,48.633
1136.00,48.687
1137.00,48.696
1138.00,48.695
1139.00,48.691
1140.00,48.667
1141.00,48.639
1142.00,48.673
1143.00,48.717
1144.00,48.688
1145.00,48.658
1146.00,48.650
1147.00,48.618
1148.00,48.647
1149.00,48.679
1150.00,48.691
1151.00,48.683
1152.00,48.652
1153.00,48.643
1154.00,48.634
1155.00,48.653
1156.00,48.670
1157.00,48.655
1158.00,48.637
1159.00,48.630
1160.00,48.629
1161.00,48.658
1162.00,48.647
1163.00,48.656
1164.00,48.640
1165.00,48.632
1166.00,48.625
1167.00,48.624
1168.00,48.644
1169.00,48.634
1170.00,48.624
1171.00,48.633
1172.00,48.618
1173.00,48.621
1174.00,48.639
1175.00,48.630
1176.00,48.628
1177.00,48.599
1178.00,48.597
1179.00,48.621
1180.00,48.629
1181.00,48.626
1182.00,48.608
1183.00,48.602
1184.00,48.586
1185.00,48.620
1186.00,48.613
1187.00,48.616
1188.00,48.597
1189.00,48.601
1190.00,48.593
1191.00,48.609
1192.00,48.607
1193.00,48.599
1194.00,48.607
1195.00,48.568
1196.00,48.584
1197.00,48.592
1198.00,48.604
1199.00,48.580
1200.00,48.576
1201.00,48.593
1202.00,48.592
1203.00,48.574
1204.00,48.582
1205.00,48.588
1206.00,48.586
1207.00,48.594
1208.00,48.578
1209.00,48.631
1210.00,48.597
1211.00,48.630
1212.00,48.644
1213.00,48.574
1214.00,48.603
1215.00,48.593
1216.00,48.625
1217.00,48.611
1218.00,48.593
1219.00,48.601
1220.00,48.584
1221.00,48.604
1222.00,48.600
1223.00,48.622
1224.00,48.604
1225.00,48.584
1226.00,48.586
1227.00,48.598
1228.00,48.598
1229.00,48.627
1230.00,48.637
1231.00,48.635
1232.00,48.662
1233.00,48.661
1234.00,48.675
1235.00,48.658
1236.00,48.657
1237.00,48.654
1238.00,48.671
1239.00,48.666
1240.00,48.668
1241.00,48.673
1242.00,48.673
1243.00,48.695
1244.00,48.673
1245.00,48.721
1246.00,48.732
1247.00,48.723
1248.00,48.715
1249.00,48.711
1250.00,48.696
1251.00,48.707
1252.00,48.720
1253.00,48.706
1254.00,48.732
1255.00,48.687
1256.00,48.657
1257.00,48.674
1258.00,48.739
1259.00,48.762
1260.00,48.757
1261.00,48.738
1262.00,48.756
1263.00,48.760
1264.00,48.762
1265.00,48.771
1266.00,48.771
1267.00,48.783
1268.00,48.787
1269.00,48.772
1270.00,48.828
1271.00,48.831
1272.00,48.827
1273.00,48.843
1274.00,48.851
1275.00,48.846
1276.00,48.843
1277.00,48.858
1278.00,48.890
1279.00,48.861
1280.00,48.843
1281.00,48.850
1282.00,48.863
1283.00,48.856
1284.00,48.827
1285.00,48.826
1286.00,48.860
1287.00,48.871
1288.00,48.847
1289.00,48.878
1290.00,48.900
1291.00,48.902
1292.00,48.928
1293.00,48.923
1294.00,48.916
1295.00,48.953
1296.00,48.958
1297.00,48.953
1298.00,48.968
1299.00,48.933
1300.00,48.963
1301.00,48.974
1302.00,49.012
1303.00,49.004
1304.00,48.980
1305.00,49.013
1306.00,48.993
1307.00,48.979
1308.00,48.989
1309.00,49.051
1310.00,49.071
1311.00,49.020
1312.00,48.999
1313.00,49.045
1314.00,49.100
1315.00,49.099
1316.00,49.105
1317.00,49.121
1318.00,49.128
1319.00,49.128
1320.00,49.140
1321.00,49.207
1322.00,49.267
1323.00,49.216
1324.00,49.179
1325.00,49.236
1326.00,49.300
1327.00,49.228
1328.00,49.197
1329.00,49.232
1330.00,49.268
1331.00,49.231
1332.00,49.193
1333.00,49.276
1334.00,49.359
1335.00,49.305
1336.00,49.284
1337.00,49.357
1338.00,49.476
1339.00,49.520
1340.00,49.564
1341.00,49.615
1342.00,49.681
1343.00,49.746
1344.00,49.830
1345.00,49.884
1346.00,49.866
1347.00,49.896
1348.00,49.941
1349.00,49.974
1350.00,49.934
1351.00,49.861
1352.00,49.788
1353.00,49.960
1354.00,50.091
1355.00,50.022
1356.00,50.183
1357.00,50.074
1358.00,49.985
1359.00,49.503
1360.00,49.288
1361.00,49.442
1362.00,49.640
1363.00,50.572
1364.00,50.761
1365.00,50.433
1366.00,50.025
1367.00,50.000
1368.00,49.818
1369.00,50.199
1370.00,50.166
1371.00,50.104
1372.00,50.222
1373.00,50.190
1374.00,50.017
1375.00,49.995
1376.00,49.989
1377.00,49.970
1378.00,50.079
1379.00,50.003
1380.00,49.884
1381.00,50.164
1382.00,50.306
1383.00,50.289
1384.00,50.386
1385.00,50.076
1386.00,49.997
1387.00,50.087
1388.00,50.403
1389.00,50.235
1390.00,49.782
1391.00,50.021
1392.00,50.195
1393.00,50.557
1394.00,50.100
1395.00,50.123
1396.00,50.578
1397.00,50.589
1398.00,49.999
1399.00,50.480
1400.00,50.541
1401.00,50.087
1402.00,50.102
1403.00,50.152
1404.00,50.142
1405.00,50.254
1406.00,49.955
1407.00,50.174
1408.00,50.182
1409.00,50.143
1410.00,50.095
1411.00,49.999
1412.00,50.032
1413.00,50.019
1414.00,50.011
1415.00,50.247
1416.00,50.256
1417.00,50.404
1418.00,50.279
1419.00,50.161
1420.00,50.280
1421.00,50.401
1422.00,50.272
1423.00,50.226
1424.00,50.336
1425.00,50.309
1426.00,50.345
1427.00,50.356
1428.00,50.397
1429.00,50.412
1430.00,50.407
1431.00,50.362
1432.00,50.439
1433.00,50.478
1434.00,50.437
1435.00,50.521
1436.00,50.484
1437.00,50.458
1438.00,50.524
1439.00,50.564
1440.00,50.553
1441.00,50.586
1442.00,50.570
1443.00,50.647
1444.00,50.685
1445.00,50.587
1446.00,50.651
1447.00,50.715
1448.00,50.762
1449.00,50.763
1450.00,50.709
1451.00,50.754
1452.00,50.780
1453.00,50.820
1454.00,50.797
1455.00,50.832
1456.00,50.841
1457.00,50.834
1458.00,50.883
1459.00,50.860
1460.00,50.906
1461.00,50.934
1462.00,50.959
1463.00,50.955
1464.00,50.967
1465.00,50.996
1466.00,51.002
1467.00,51.015
1468.00,51.069
1469.00,51.052
1470.00,51.062
1471.00,51.098
1472.00,51.105
1473.00,51.128
1474.00,51.166
1475.00,51.178
1476.00,51.166
1477.00,51.155
1478.00,51.192
1479.00,51.227
1480.00,51.230
1481.00,51.222
1482.00,51.263
1483.00,51.267
1484.00,51.299
1485.00,51.310
1486.00,51.297
1487.00,51.325
1488.00,51.328
1489.00,51.348
1490.00,51.364
1491.00,51.390
1492.00,51.398
1493.00,51.387
1494.00,51.418
1495.00,51.420
1496.00,51.456
1497.00,51.455
1498.00,51.454
1499.00,51.503
1500.00,51.496
1501.00, 
1502.00, 
1503.00, 
1504.00, 
1505.00, 
1506.00, 
1507.00, 
1508.00, 
1509.00, 
1510.00, 
1511.00, 
1512.00, 
1513.00, 
1514.00, 
1515.00, 
1516.00, 
1517.00, 
1518.00, 
1519.00, 
1520.00, 
1521.00, 
1522.00, 
1523.00, 
1524.00, 
1525.00, 
1526.00, 
1527.00, 
1528.00, 
1529.00, 
1530.00, 
1531.00, 
1532.00, 
1533.00, 
1534.00, 
1535.00, 
1536.00, 
1537.00, 
1538.00, 
1539.00, 
1540.00, 
1541.00, 
1542.00, 
1543.00, 
1544.00, 
1545.00, 
1546.00, 
1547.00, 
1548.00, 
1549.00, 
1550.00, 
1551.00, 
1552.00, 
1553.00, 
1554.00, 
1555.00, 
1556.00, 
1557.00, 
1558.00, 
1559.00, 
1560.00, 
1561.00, 
1562.00, 
1563.00, 
1564.00, 
1565.00, 
1566.00, 
1567.00, 
1568.00, 
1569.00, 
1570.00, 
1571.00, 
1572.00, 
1573.00, 
1574.00, 
1575.00, 
1576.00, 
1577.00, 
1578.00, 
1579.00, 
1580.00, 
1581.00, 
1582.00, 
1583.00, 
1584.00, 
1585.00, 
1586.00, 
1587.00, 
1588.00, 
1589.00, 
1590.00, 
1591.00, 
1592.00, 
1593.00, 
1594.00, 
1595.00, 
1596.00, 
1597.00, 
1598.00, 
1599.00, 
1600.00, 
1601.00, 
1602.00, 
1603.00, 
1604.00, 
1605.00, 
1606.00, 
1607.00, 
1608.00, 
1609.00, 
1610.00, 
1611.00, 
1612.00, 
1613.00, 
1614.00, 
1615.00, 
1616.00, 
1617.00, 
1618.00, 
1619.00, 
1620.00, 
1621.00, 
1622.00, 
1623.00, 
1624.00, 
1625.00, 
1626.00, 
1627.00, 
1628.00, 
1629.00, 
1630.00, 
1631.00, 
1632.00, 
1633.00, 
1634.00, 
1635.00, 
1636.00, 
1637.00, 
1638.00, 
1639.00, 
1640.00, 
1641.00, 
1642.00, 
1643.00, 
1644.00, 
1645.00, 
1646.00, 
1647.00, 
1648.00, 
1649.00, 
1650.00, 
1651.00, 
1652.00, 
1653.00, 
1654.00, 
1655.00, 
1656.00, 
1657.00, 
1658.00, 
1659.00, 
1660.00, 
1661.00, 
1662.00, 
1663.00, 
1664.00, 
1665.00, 
1666.00, 
1667.00, 
1668.00, 
1669.00, 
1670.00, 
1671.00, 
1672.00, 
1673.00, 
1674.00, 
1675.00, 
1676.00, 
1677.00, 
1678.00, 
1679.00, 
1680.00, 
1681.00, 
1682.00, 
1683.00, 
1684.00, 
1685.00, 
1686.00, 
1687.00, 
1688.00, 
1689.00, 
1690.00, 
1691.00, 
1692.00, 
1693.00, 
1694.00, 
1695.00, 
1696.00, 
1697.00, 
1698.00, 
1699.00, 
1700.00, 
1701.00, 
1702.00, 
1703.00, 
1704.00, 
1705.00, 
1706.00, 
1707.00, 
1708.00, 
1709.00, 
1710.00, 
1711.00, 
1712.00, 
1713.00, 
1714.00, 
1715.00, 
1716.00, 
1717.00, 
1718.00, 
1719.00, 
1720.00, 
1721.00, 
1722.00, 
1723.00, 
1724.00, 
1725.00, 
1726.00, 
1727.00, 
1728.00, 
1729.00, 
1730.00, 
1731.00, 
1732.00, 
1733.00, 
1734.00, 
1735.00, 
1736.00, 
1737.00, 
1738.00, 
1739.00, 
1740.00, 
1741.00, 
1742.00, 
1743.00, 
1744.00, 
1745.00, 
1746.00, 
1747.00, 
1748.00, 
1749.00, 
1750.00, 
1751.00, 
1752.00, 
1753.00, 
1754.00, 
1755.00, 
1756.00, 
1757.00, 
1758.00, 
1759.00, 
1760.00, 
1761.00, 
1762.00, 
1763.00, 
1764.00, 
1765.00, 
1766.00, 
1767.00, 
1768.00, 
1769.00, 
1770.00, 
1771.00, 
1772.00, 
1773.00, 
1774.00, 
1775.00, 
1776.00, 
1777.00, 
1778.00, 
1779.00, 
1780.00, 
1781.00, 
1782.00, 
1783.00, 
1784.00, 
1785.00, 
1786.00, 
1787.00, 
1788.00, 
1789.00, 
1790.00, 
1791.00, 
1792.00, 
1793.00, 
1794.00, 
1795.00, 
1796.00, 
1797.00, 
1798.00, 
1799.00, 
1800.00, 
1801.00, 
1802.00, 
1803.00, 
1804.00, 
1805.00, 
1806.00, 
1807.00, 
1808.00, 
1809.00, 
1810.00, 
1811.00, 
1812.00, 
1813.00, 
1814.00, 
1815.00, 
1816.00, 
1817.00, 
1818.00, 
1819.00, 
1820.00, 
1821.00, 
1822.00, 
1823.00, 
1824.00, 
1825.00, 
1826.00, 
1827.00, 
1828.00, 
1829.00, 
1830.00, 
1831.00, 
1832.00, 
1833.00, 
1834.00, 
1835.00, 
1836.00, 
1837.00, 
1838.00, 
1839.00, 
1840.00, 
1841.00, 
1842.00, 
1843.00, 
1844.00, 
1845.00, 
1846.00, 
1847.00, 
1848.00, 
1849.00, 
1850.00, 
1851.00, 
1852.00, 
1853.00, 
1854.00, 
1855.00, 
1856.00, 
1857.00, 
1858.00, 
1859.00, 
1860.00, 
1861.00, 
1862.00, 
1863.00, 
1864.00, 
1865.00, 
1866.00, 
1867.00, 
1868.00, 
1869.00, 
1870.00, 
1871.00, 
1872.00, 
1873.00, 
1874.00, 
1875.00, 
1876.00, 
1877.00, 
1878.00, 
1879.00, 
1880.00, 
1881.00, 
1882.00, 
1883.00, 
1884.00, 
1885.00, 
1886.00, 
1887.00, 
1888.00, 
1889.00, 
1890.00, 
1891.00, 
1892.00, 
1893.00, 
1894.00, 
1895.00, 
1896.00, 
1897.00, 
1898.00, 
1899.00, 
1900.00, 
1901.00, 
1902.00, 
1903.00, 
1904.00, 
1905.00, 
1906.00, 
1907.00, 
1908.00, 
1909.00, 
1910.00, 
1911.00, 
1912.00, 
1913.00, 
1914.00, 
1915.00, 
1916.00, 
1917.00, 
1918.00, 
1919.00, 
1920.00, 
1921.00, 
1922.00, 
1923.00, 
1924.00, 
1925.00, 
1926.00, 
1927.00, 
1928.00, 
1929.00, 
1930.00, 
1931.00, 
1932.00, 
1933.00, 
1934.00, 
1935.00, 
1936.00, 
1937.00, 
1938.00, 
1939.00, 
1940.00, 
1941.00, 
1942.00, 
1943.00, 
1944.00, 
1945.00, 
1946.00, 
1947.00, 
1948.00, 
1949.00, 
1950.00, 
1951.00, 
1952.00, 
1953.00, 
1954.00, 
1955.00, 
1956.00, 
1957.00, 
1958.00, 
1959.00, 
1960.00, 
1961.00, 
1962.00, 
1963.00, 
1964.00, 
1965.00, 
1966.00, 
1967.00, 
1968.00, 
1969.00, 
1970.00, 
1971.00, 
1972.00, 
1973.00, 
1974.00, 
1975.00, 
1976.00, 
1977.00, 
1978.00, 
1979.00, 
1980.00, 
1981.00, 
1982.00, 
1983.00, 
1984.00, 
1985.00, 
1986.00, 
1987.00, 
1988.00, 
1989.00, 
1990.00, 
1991.00, 
1992.00, 
1993.00, 
1994.00, 
1995.00, 
1996.00, 
1997.00, 
1998.00, 
1999.00, 
2000.00, 
2001.00, 
2002.00, 
2003.00, 
2004.00, 
2005.00, 
2006.00, 
2007.00, 
2008.00, 
2009.00, 
2010.00, 
2011.00, 
2012.00, 
2013.00, 
2014.00, 
2015.00, 
2016.00, 
2017.00, 
2018.00, 
2019.00, 
2020.00, 
2021.00, 
2022.00, 
2023.00, 
2024.00, 
2025.00, 
2026.00, 
2027.00, 
2028.00, 
2029.00, 
2030.00, 
2031.00, 
2032.00, 
2033.00, 
2034.00, 
2035.00, 
2036.00, 
2037.00, 
2038.00, 
2039.00, 
2040.00, 
2041.00, 
2042.00, 
2043.00, 
2044.00, 
2045.00, 
2046.00, 
2047.00, 
2048.00, 
2049.00, 
2050.00, 
2051.00, 
2052.00, 
2053.00, 
2054.00, 
2055.00, 
2056.00, 
2057.00, 
2058.00, 
2059.00, 
2060.00, 
2061.00, 
2062.00, 
2063.00, 
2064.00, 
2065.00, 
2066.00, 
2067.00, 
2068.00, 
2069.00, 
2070.00, 
2071.00, 
2072.00, 
2073.00, 
2074.00, 
2075.00, 
2076.00, 
2077.00, 
2078.00, 
2079.00, 
2080.00, 
2081.00, 
2082.00, 
2083.00, 
2084.00, 
2085.00, 
2086.00, 
2087.00, 
2088.00, 
2089.00, 
2090.00, 
2091.00, 
2092.00, 
2093.00, 
2094.00, 
2095.00, 
2096.00, 
2097.00, 
2098.00, 
2099.00, 
2100.00, 
2101.00, 
2102.00, 
2103.00, 
2104.00, 
2105.00, 
2106.00, 
2107.00, 
2108.00, 
2109.00, 
2110.00, 
2111.00, 
2112.00, 
2113.00, 
2114.00, 
2115.00, 
2116.00, 
2117.00, 
2118.00, 
2119.00, 
2120.00, 
2121.00, 
2122.00, 
2123.00, 
2124.00, 
2125.00, 
2126.00, 
2127.00, 
2128.00, 
2129.00, 
2130.00, 
2131.00, 
2132.00, 
2133.00, 
2134.00, 
2135.00, 
2136.00, 
2137.00, 
2138.00, 
2139.00, 
2140.00, 
2141.00, 
2142.00, 
2143.00, 
2144.00, 
2145.00, 
2146.00, 
2147.00, 
2148.00, 
2149.00, 
2150.00, 
2151.00, 
2152.00, 
2153.00, 
2154.00, 
2155.00, 
2156.00, 
2157.00, 
2158.00, 
2159.00, 
2160.00, 
2161.00, 
2162.00, 
2163.00, 
2164.00, 
2165.00, 
2166.00, 
2167.00, 
2168.00, 
2169.00, 
2170.00, 
2171.00, 
2172.00, 
2173.00, 
2174.00, 
2175.00, 
2176.00, 
2177.00, 
2178.00, 
2179.00, 
2180.00, 
2181.00, 
2182.00, 
2183.00, 
2184.00, 
2185.00, 
2186.00, 
2187.00, 
2188.00, 
2189.00, 
2190.00, 
2191.00, 
2192.00, 
2193.00, 
2194.00, 
2195.00, 
2196.00, 
2197.00, 
2198.00, 
2199.00, 
2200.00, 
2201.00, 
2202.00, 
2203.00, 
2204.00, 
2205.00, 
2206.00, 
2207.00, 
2208.00, 
2209.00, 
2210.00, 
2211.00, 
2212.00, 
2213.00, 
2214.00, 
2215.00, 
2216.00, 
2217.00, 
2218.00, 
2219.00, 
2220.00, 
2221.00, 
2222.00, 
2223.00, 
2224.00, 
2225.00, 
2226.00, 
2227.00, 
2228.00, 
2229.00, 
2230.00, 
2231.00, 
2232.00, 
2233.00, 
2234.00, 
2235.00, 
2236.00, 
2237.00, 
2238.00, 
2239.00, 
2240.00, 
2241.00, 
2242.00, 
2243.00, 
2244.00, 
2245.00, 
2246.00, 
2247.00, 
2248.00, 
2249.00, 
2250.00, 
2251.00, 
2252.00, 
2253.00, 
2254.00, 
2255.00, 
2256.00, 
2257.00, 
2258.00, 
2259.00, 
2260.00, 
2261.00, 
2262.00, 
2263.00, 
2264.00, 
2265.00, 
2266.00, 
2267.00, 
2268.00, 
2269.00, 
2270.00, 
2271.00, 
2272.00, 
2273.00, 
2274.00, 
2275.00, 
2276.00, 
2277.00, 
2278.00, 
2279.00, 
2280.00, 
2281.00, 
2282.00, 
2283.00, 
2284.00, 
2285.00, 
2286.00, 
2287.00, 
2288.00, 
2289.00, 
2290.00, 
2291.00, 
2292.00, 
2293.00, 
2294.00, 
2295.00, 
2296.00, 
2297.00, 
2298.00, 
2299.00, 
2300.00, 
2301.00, 
2302.00, 
2303.00, 
2304.00, 
2305.00, 
2306.00, 
2307.00, 
2308.00, 
2309.00, 
2310.00, 
2311.00, 
2312.00, 
2313.00, 
2314.00, 
2315.00, 
2316.00, 
2317.00, 
2318.00, 
2319.00, 
2320.00, 
2321.00, 
2322.00, 
2323.00, 
2324.00, 
2325.00, 
2326.00, 
2327.00, 
2328.00, 
2329.00, 
2330.00, 
2331.00, 
2332.00, 
2333.00, 
2334.00, 
2335.00, 
2336.00, 
2337.00, 
2338.00, 
2339.00, 
2340.00, 
2341.00, 
2342.00, 
2343.00, 
2344.00, 
2345.00, 
2346.00, 
2347.00, 
2348.00, 
2349.00, 
2350.00, 
2351.00, 
2352.00, 
2353.00, 
2354.00, 
2355.00, 
2356.00, 
2357.00, 
2358.00, 
2359.00, 
2360.00, 
2361.00, 
2362.00, 
2363.00, 
2364.00, 
2365.00, 
2366.00, 
2367.00, 
2368.00, 
2369.00, 
2370.00, 
2371.00, 
2372.00, 
2373.00, 
2374.00, 
2375.00, 
2376.00, 
2377.00, 
2378.00, 
2379.00, 
2380.00, 
2381.00, 
2382.00, 
2383.00, 
2384.00, 
2385.00, 
2386.00, 
2387.00, 
2388.00, 
2389.00, 
2390.00, 
2391.00, 
2392.00, 
2393.00, 
2394.00, 
2395.00, 
2396.00, 
2397.00, 
2398.00, 
2399.00, 
2400.00, 
2401.00, 
2402.00, 
2403.00, 
2404.00, 
2405.00, 
2406.00, 
2407.00, 
2408.00, 
2409.00, 
2410.00, 
2411.00, 
2412.00, 
2413.00, 
2414.00, 
2415.00, 
2416.00, 
2417.00, 
2418.00, 
2419.00, 
2420.00, 
2421.00, 
2422.00, 
2423.00, 
2424.00, 
2425.00, 
2426.00, 
2427.00, 
2428.00, 
2429.00, 
2430.00, 
2431.00, 
2432.00, 
2433.00, 
2434.00, 
2435.00, 
2436.00, 
2437.00, 
2438.00, 
2439.00, 
2440.00, 
2441.00, 
2442.00, 
2443.00, 
2444.00, 
2445.00, 
2446.00, 
2447.00, 
2448.00, 
2449.00, 
2450.00, 
2451.00, 
2452.00, 
2453.00, 
2454.00, 
2455.00, 
2456.00, 
2457.00, 
2458.00, 
2459.00, 
2460.00, 
2461.00, 
2462.00, 
2463.00, 
2464.00, 
2465.00, 
2466.00, 
2467.00, 
2468.00, 
2469.00, 
2470.00, 
2471.00, 
2472.00, 
2473.00, 
2474.00, 
2475.00, 
2476.00, 
2477.00, 
2478.00, 
2479.00, 
2480.00, 
2481.00, 
2482.00, 
2483.00, 
2484.00, 
2485.00, 
2486.00, 
2487.00, 
2488.00, 
2489.00, 
2490.00, 
2491.00, 
2492.00, 
2493.00, 
2494.00, 
2495.00, 
2496.00, 
2497.00, 
2498.00, 
2499.00, 
2500.00, 
2501.00, 
2502.00, 
2503.00, 
2504.00, 
2505.00, 
2506.00, 
2507.00, 
2508.00, 
2509.00, 
2510.00, 
2511.00, 
2512.00, 
2513.00, 
2514.00, 
2515.00, 
2516.00, 
2517.00, 
2518.00, 
2519.00, 
2520.00, 
2521.00, 
2522.00, 
2523.00, 
2524.00, 
2525.00, 
2526.00, 
2527.00, 
2528.00, 
2529.00, 
2530.00, 
2531.00, 
2532.00, 
2533.00, 
2534.00, 
2535.00, 
2536.00, 
2537.00, 
2538.00, 
2539.00, 
2540.00, 
2541.00, 
2542.00, 
2543.00, 
2544.00, 
2545.00, 
2546.00, 
2547.00, 
2548.00, 
2549.00, 
2550.00, 
2551.00, 
2552.00, 
2553.00, 
2554.00, 
2555.00, 
2556.00, 
2557.00, 
2558.00, 
2559.00, 
2560.00, 
2561.00, 
2562.00, 
2563.00, 
2564.00, 
2565.00, 
2566.00, 
2567.00, 
2568.00, 
2569.00, 
2570.00, 
2571.00, 
2572.00, 
2573.00, 
2574.00, 
2575.00, 
2576.00, 
2577.00, 
2578.00, 
2579.00, 
2580.00, 
2581.00, 
2582.00, 
2583.00, 
2584.00, 
2585.00, 
2586.00, 
2587.00, 
2588.00, 
2589.00, 
2590.00, 
2591.00, 
2592.00, 
2593.00, 
2594.00, 
2595.00, 
2596.00, 
2597.00, 
2598.00, 
2599.00, 
2600.00, 
