"1cP5 - RawData"
"Wavelength nm.","T%"
200.00,-0.001
201.00,-0.002
202.00,-0.001
203.00,0.002
204.00,0.001
205.00,0.004
206.00,0.001
207.00,0.003
208.00,-0.002
209.00,0.000
210.00,-0.002
211.00,0.002
212.00,0.001
213.00,0.004
214.00,-0.001
215.00,0.002
216.00,0.002
217.00,-0.001
218.00,-0.003
219.00,0.001
220.00,-0.001
221.00,0.001
222.00,-0.000
223.00,0.002
224.00,0.002
225.00,0.000
226.00,0.002
227.00,0.001
228.00,0.001
229.00,0.002
230.00,-0.003
231.00,0.002
232.00,0.001
233.00,0.000
234.00,0.001
235.00,-0.001
236.00,-0.001
237.00,-0.001
238.00,-0.000
239.00,-0.000
240.00,-0.000
241.00,0.001
242.00,-0.001
243.00,0.000
244.00,-0.000
245.00,0.002
246.00,-0.000
247.00,0.001
248.00,0.001
249.00,-0.001
250.00,0.000
251.00,0.001
252.00,-0.000
253.00,0.001
254.00,0.001
255.00,-0.000
256.00,-0.001
257.00,0.001
258.00,-0.001
259.00,0.000
260.00,0.002
261.00,0.001
262.00,-0.001
263.00,0.000
264.00,-0.000
265.00,0.000
266.00,0.001
267.00,-0.000
268.00,-0.001
269.00,-0.001
270.00,0.000
271.00,-0.001
272.00,-0.000
273.00,0.000
274.00,-0.001
275.00,0.000
276.00,0.001
277.00,-0.001
278.00,0.000
279.00,0.001
280.00,0.002
281.00,0.002
282.00,-0.001
283.00,0.001
284.00,0.001
285.00,0.000
286.00,0.000
287.00,0.001
288.00,0.001
289.00,-0.001
290.00,0.000
291.00,-0.001
292.00,0.000
293.00,-0.000
294.00,-0.000
295.00,0.000
296.00,-0.000
297.00,0.001
298.00,0.001
299.00,-0.000
300.00,-0.001
301.00,-0.001
302.00,-0.000
303.00,0.000
304.00,0.000
305.00,0.001
306.00,0.001
307.00,0.002
308.00,0.004
309.00,0.005
310.00,0.009
311.00,0.011
312.00,0.016
313.00,0.028
314.00,0.042
315.00,0.061
316.00,0.085
317.00,0.115
318.00,0.160
319.00,0.210
320.00,0.274
321.00,0.353
322.00,0.448
323.00,0.575
324.00,0.695
325.00,0.833
326.00,0.984
327.00,1.162
328.00,1.348
329.00,1.544
330.00,1.770
331.00,1.987
332.00,2.236
333.00,2.481
334.00,2.709
335.00,2.964
336.00,3.238
337.00,3.472
338.00,3.744
339.00,3.979
340.00,4.235
341.00,4.454
342.00,4.662
343.00,4.908
344.00,5.093
345.00,5.284
346.00,5.474
347.00,5.634
348.00,5.812
349.00,5.961
350.00,6.090
351.00,6.238
352.00,6.345
353.00,6.454
354.00,6.544
355.00,6.633
356.00,6.740
357.00,6.806
358.00,6.859
359.00,6.923
360.00,6.945
361.00,6.979
362.00,6.998
363.00,6.994
364.00,7.023
365.00,7.024
366.00,7.040
367.00,7.037
368.00,7.048
369.00,7.024
370.00,7.007
371.00,7.015
372.00,6.968
373.00,6.953
374.00,6.889
375.00,6.834
376.00,6.779
377.00,6.721
378.00,6.673
379.00,6.619
380.00,6.588
381.00,6.552
382.00,6.520
383.00,6.521
384.00,6.476
385.00,6.493
386.00,6.462
387.00,6.458
388.00,6.455
389.00,6.424
390.00,6.439
391.00,6.412
392.00,6.402
393.00,6.386
394.00,6.358
395.00,6.347
396.00,6.332
397.00,6.304
398.00,6.286
399.00,6.282
400.00,6.250
401.00,6.248
402.00,6.219
403.00,6.212
404.00,6.178
405.00,6.140
406.00,6.131
407.00,6.098
408.00,6.092
409.00,6.089
410.00,6.072
411.00,6.074
412.00,6.043
413.00,6.066
414.00,6.070
415.00,6.060
416.00,6.066
417.00,6.042
418.00,6.012
419.00,6.030
420.00,6.021
421.00,6.034
422.00,6.047
423.00,6.041
424.00,6.055
425.00,6.068
426.00,6.085
427.00,6.103
428.00,6.107
429.00,6.123
430.00,6.168
431.00,6.186
432.00,6.198
433.00,6.242
434.00,6.254
435.00,6.296
436.00,6.334
437.00,6.354
438.00,6.398
439.00,6.425
440.00,6.486
441.00,6.535
442.00,6.580
443.00,6.617
444.00,6.666
445.00,6.721
446.00,6.785
447.00,6.826
448.00,6.890
449.00,6.953
450.00,7.017
451.00,7.100
452.00,7.165
453.00,7.221
454.00,7.293
455.00,7.375
456.00,7.418
457.00,7.510
458.00,7.566
459.00,7.663
460.00,7.706
461.00,7.788
462.00,7.860
463.00,7.951
464.00,8.032
465.00,8.103
466.00,8.210
467.00,8.339
468.00,8.469
469.00,8.557
470.00,8.567
471.00,8.691
472.00,8.811
473.00,8.904
474.00,8.997
475.00,9.153
476.00,9.269
477.00,9.378
478.00,9.447
479.00,9.582
480.00,9.701
481.00,9.832
482.00,9.926
483.00,10.041
484.00,10.130
485.00,10.315
486.00,10.440
487.00,10.603
488.00,10.672
489.00,10.854
490.00,10.875
491.00,11.075
492.00,11.215
493.00,11.335
494.00,11.400
495.00,11.576
496.00,11.654
497.00,11.783
498.00,11.882
499.00,12.034
500.00,12.151
501.00,12.237
502.00,12.385
503.00,12.541
504.00,12.649
505.00,12.779
506.00,12.936
507.00,13.040
508.00,13.117
509.00,13.253
510.00,13.377
511.00,13.558
512.00,13.764
513.00,13.845
514.00,13.954
515.00,14.024
516.00,14.146
517.00,14.254
518.00,14.351
519.00,14.452
520.00,14.596
521.00,14.702
522.00,14.835
523.00,14.967
524.00,15.060
525.00,15.195
526.00,15.274
527.00,15.345
528.00,15.442
529.00,15.559
530.00,15.637
531.00,15.724
532.00,15.718
533.00,15.870
534.00,15.997
535.00,16.111
536.00,16.223
537.00,16.272
538.00,16.440
539.00,16.519
540.00,16.631
541.00,16.724
542.00,16.780
543.00,16.876
544.00,16.989
545.00,17.097
546.00,17.183
547.00,17.264
548.00,17.350
549.00,17.429
550.00,17.537
551.00,17.561
552.00,17.648
553.00,17.662
554.00,17.722
555.00,17.804
556.00,17.861
557.00,17.978
558.00,18.052
559.00,18.176
560.00,18.213
561.00,18.261
562.00,18.318
563.00,18.402
564.00,18.493
565.00,18.545
566.00,18.599
567.00,18.684
568.00,18.749
569.00,18.816
570.00,18.816
571.00,18.856
572.00,18.961
573.00,18.923
574.00,19.005
575.00,19.046
576.00,19.052
577.00,19.177
578.00,19.262
579.00,19.324
580.00,19.370
581.00,19.439
582.00,19.537
583.00,19.606
584.00,19.732
585.00,19.752
586.00,19.760
587.00,19.904
588.00,19.967
589.00,20.016
590.00,20.080
591.00,20.152
592.00,20.207
593.00,20.274
594.00,20.333
595.00,20.398
596.00,20.526
597.00,20.497
598.00,20.564
599.00,20.578
600.00,20.566
601.00,20.684
602.00,20.662
603.00,20.785
604.00,20.830
605.00,20.895
606.00,21.027
607.00,21.091
608.00,21.106
609.00,21.297
610.00,21.297
611.00,21.268
612.00,21.407
613.00,21.463
614.00,21.604
615.00,21.623
616.00,21.661
617.00,21.673
618.00,21.718
619.00,21.792
620.00,21.863
621.00,21.953
622.00,22.089
623.00,22.122
624.00,22.253
625.00,22.379
626.00,22.413
627.00,22.546
628.00,22.639
629.00,22.716
630.00,22.863
631.00,22.903
632.00,22.984
633.00,23.168
634.00,23.267
635.00,23.312
636.00,23.417
637.00,23.458
638.00,23.569
639.00,23.672
640.00,23.842
641.00,23.997
642.00,24.097
643.00,24.210
644.00,24.287
645.00,24.349
646.00,24.509
647.00,24.700
648.00,24.839
649.00,25.069
650.00,25.127
651.00,25.188
652.00,25.272
653.00,25.452
654.00,25.636
655.00,25.921
656.00,25.900
657.00,26.716
658.00,26.736
659.00,26.525
660.00,26.381
661.00,26.696
662.00,26.893
663.00,27.072
664.00,27.163
665.00,27.093
666.00,27.471
667.00,27.794
668.00,27.840
669.00,27.765
670.00,28.118
671.00,27.969
672.00,28.388
673.00,28.505
674.00,28.447
675.00,28.791
676.00,28.900
677.00,29.056
678.00,29.537
679.00,29.597
680.00,29.946
681.00,30.263
682.00,30.698
683.00,30.618
684.00,30.582
685.00,30.769
686.00,30.727
687.00,30.966
688.00,31.235
689.00,31.385
690.00,31.423
691.00,31.836
692.00,31.886
693.00,31.934
694.00,32.345
695.00,32.368
696.00,32.578
697.00,32.783
698.00,33.001
699.00,32.931
700.00,33.125
701.00,33.396
702.00,33.569
703.00,34.123
704.00,34.626
705.00,34.416
706.00,34.359
707.00,34.436
708.00,34.511
709.00,34.801
710.00,34.738
711.00,34.993
712.00,35.636
713.00,35.616
714.00,35.647
715.00,36.080
716.00,36.385
717.00,36.296
718.00,36.479
719.00,36.909
720.00,37.308
721.00,40.696
722.00,40.856
723.00,40.953
724.00,41.102
725.00,41.254
726.00,41.409
727.00,41.498
728.00,41.701
729.00,41.827
730.00,42.045
731.00,42.152
732.00,42.244
733.00,42.454
734.00,42.591
735.00,42.683
736.00,42.821
737.00,43.001
738.00,43.191
739.00,43.339
740.00,43.448
741.00,43.549
742.00,43.736
743.00,43.868
744.00,43.821
745.00,43.961
746.00,44.080
747.00,44.206
748.00,44.284
749.00,44.357
750.00,44.542
751.00,44.619
752.00,44.768
753.00,44.762
754.00,44.821
755.00,44.966
756.00,45.050
757.00,45.135
758.00,45.281
759.00,45.363
760.00,45.345
761.00,45.542
762.00,45.622
763.00,45.780
764.00,45.834
765.00,45.891
766.00,45.990
767.00,46.093
768.00,46.209
769.00,46.239
770.00,46.343
771.00,46.391
772.00,46.485
773.00,46.577
774.00,46.705
775.00,46.767
776.00,46.790
777.00,46.872
778.00,46.943
779.00,47.081
780.00,47.082
781.00,47.229
782.00,47.309
783.00,47.237
784.00,47.372
785.00,47.302
786.00,47.421
787.00,47.415
788.00,47.535
789.00,47.634
790.00,47.601
791.00,47.706
792.00,47.636
793.00,47.740
794.00,47.828
795.00,47.861
796.00,47.938
797.00,47.855
798.00,47.927
799.00,47.902
800.00,47.983
801.00,47.910
802.00,47.863
803.00,48.003
804.00,47.986
805.00,48.087
806.00,48.027
807.00,48.122
808.00,48.149
809.00,48.131
810.00,48.254
811.00,48.140
812.00,48.295
813.00,48.302
814.00,48.341
815.00,48.473
816.00,48.368
817.00,48.451
818.00,48.366
819.00,48.380
820.00,48.473
821.00,48.366
822.00,48.476
823.00,48.563
824.00,48.703
825.00,48.428
826.00,48.397
827.00,48.606
828.00,48.366
829.00,48.559
830.00,48.575
831.00,51.022
832.00,51.027
833.00,51.053
834.00,50.995
835.00,51.049
836.00,51.071
837.00,51.057
838.00,51.056
839.00,51.098
840.00,51.143
841.00,51.113
842.00,51.198
843.00,51.157
844.00,51.170
845.00,51.049
846.00,51.083
847.00,51.018
848.00,51.096
849.00,51.191
850.00,51.145
851.00,51.171
852.00,51.134
853.00,51.190
854.00,51.122
855.00,51.146
856.00,51.041
857.00,51.097
858.00,51.156
859.00,51.134
860.00,51.158
861.00,51.114
862.00,51.120
863.00,51.077
864.00,51.259
865.00,51.101
866.00,51.135
867.00,51.089
868.00,51.170
869.00,51.167
870.00,51.122
871.00,51.158
872.00,51.169
873.00,51.163
874.00,51.090
875.00,51.140
876.00,51.111
877.00,51.217
878.00,51.111
879.00,51.195
880.00,51.219
881.00,51.185
882.00,51.065
883.00,51.201
884.00,51.175
885.00,51.169
886.00,51.099
887.00,51.131
888.00,51.170
889.00,51.120
890.00,51.010
891.00,51.061
892.00,51.102
893.00,51.074
894.00,51.003
895.00,51.060
896.00,51.119
897.00,51.081
898.00,51.011
899.00,50.911
900.00,50.964
901.00,50.889
902.00,50.888
903.00,51.024
904.00,51.076
905.00,51.028
906.00,50.911
907.00,50.914
908.00,51.052
909.00,50.985
910.00,50.904
911.00,50.815
912.00,50.889
913.00,50.803
914.00,50.863
915.00,50.980
916.00,51.115
917.00,50.971
918.00,50.837
919.00,50.871
920.00,51.100
921.00,50.899
922.00,50.759
923.00,50.838
924.00,50.999
925.00,50.830
926.00,50.735
927.00,50.765
928.00,50.932
929.00,50.776
930.00,50.711
931.00,50.695
932.00,50.818
933.00,50.687
934.00,50.679
935.00,50.717
936.00,50.779
937.00,50.662
938.00,50.548
939.00,50.638
940.00,50.721
941.00,50.605
942.00,50.520
943.00,50.579
944.00,50.652
945.00,50.558
946.00,50.506
947.00,50.548
948.00,50.507
949.00,50.445
950.00,50.430
951.00,50.477
952.00,50.482
953.00,50.448
954.00,50.335
955.00,50.360
956.00,50.367
957.00,50.337
958.00,50.273
959.00,50.274
960.00,50.263
961.00,50.255
962.00,50.224
963.00,50.217
964.00,50.243
965.00,50.238
966.00,50.197
967.00,50.189
968.00,50.231
969.00,50.161
970.00,50.167
971.00,50.171
972.00,50.195
973.00,50.187
974.00,50.194
975.00,50.223
976.00,50.141
977.00,50.184
978.00,50.198
979.00,50.222
980.00,50.188
981.00,50.162
982.00,50.189
983.00,50.146
984.00,50.192
985.00,50.163
986.00,50.196
987.00,50.177
988.00,50.146
989.00,50.165
990.00,50.137
991.00,50.131
992.00,50.141
993.00,50.158
994.00,50.110
995.00,50.076
996.00,50.094
997.00,50.064
998.00,50.077
999.00,50.052
1000.00,50.079
1001.00,50.052
1002.00,50.020
1003.00,50.051
1004.00,50.005
1005.00,50.002
1006.00,49.992
1007.00,50.031
1008.00,50.008
1009.00,49.972
1010.00,49.968
1011.00,49.967
1012.00,49.950
1013.00,49.920
1014.00,49.928
1015.00,49.899
1016.00,49.852
1017.00,49.856
1018.00,49.838
1019.00,49.846
1020.00,49.808
1021.00,49.825
1022.00,49.818
1023.00,49.795
1024.00,49.743
1025.00,49.752
1026.00,49.783
1027.00,49.743
1028.00,49.733
1029.00,49.719
1030.00,49.740
1031.00,49.705
1032.00,49.660
1033.00,49.664
1034.00,49.657
1035.00,49.617
1036.00,49.566
1037.00,49.574
1038.00,49.549
1039.00,49.528
1040.00,49.501
1041.00,49.457
1042.00,49.453
1043.00,49.457
1044.00,49.519
1045.00,49.462
1046.00,49.448
1047.00,49.472
1048.00,49.506
1049.00,49.497
1050.00,49.544
1051.00,49.538
1052.00,49.571
1053.00,49.570
1054.00,49.593
1055.00,49.597
1056.00,49.589
1057.00,49.615
1058.00,49.599
1059.00,49.590
1060.00,49.565
1061.00,49.587
1062.00,49.578
1063.00,49.562
1064.00,49.539
1065.00,49.575
1066.00,49.563
1067.00,49.546
1068.00,49.526
1069.00,49.564
1070.00,49.496
1071.00,49.491
1072.00,49.514
1073.00,49.500
1074.00,49.485
1075.00,49.447
1076.00,49.471
1077.00,49.478
1078.00,49.470
1079.00,49.445
1080.00,49.446
1081.00,49.435
1082.00,49.434
1083.00,49.414
1084.00,49.420
1085.00,49.402
1086.00,49.406
1087.00,49.408
1088.00,49.414
1089.00,49.382
1090.00,49.389
1091.00,49.373
1092.00,49.384
1093.00,49.349
1094.00,49.358
1095.00,49.334
1096.00,49.336
1097.00,49.322
1098.00,49.319
1099.00,49.293
1100.00,49.297
1101.00,49.278
1102.00,49.284
1103.00,49.267
1104.00,49.279
1105.00,49.255
1106.00,49.242
1107.00,49.232
1108.00,49.229
1109.00,49.218
1110.00,49.223
1111.00,49.195
1112.00,49.185
1113.00,49.193
1114.00,49.201
1115.00,49.201
1116.00,49.197
1117.00,49.168
1118.00,49.168
1119.00,49.131
1120.00,49.148
1121.00,49.173
1122.00,49.160
1123.00,49.100
1124.00,49.115
1125.00,49.111
1126.00,49.135
1127.00,49.143
1128.00,49.124
1129.00,49.091
1130.00,49.102
1131.00,49.060
1132.00,49.067
1133.00,49.081
1134.00,49.070
1135.00,48.986
1136.00,49.048
1137.00,49.048
1138.00,49.066
1139.00,49.064
1140.00,49.047
1141.00,49.026
1142.00,49.043
1143.00,49.068
1144.00,49.040
1145.00,49.009
1146.00,48.997
1147.00,48.985
1148.00,49.014
1149.00,49.029
1150.00,49.030
1151.00,49.046
1152.00,49.020
1153.00,49.002
1154.00,49.011
1155.00,49.014
1156.00,49.020
1157.00,49.017
1158.00,49.004
1159.00,48.996
1160.00,48.989
1161.00,49.015
1162.00,48.998
1163.00,49.009
1164.00,48.993
1165.00,48.994
1166.00,48.977
1167.00,48.979
1168.00,49.005
1169.00,48.991
1170.00,48.967
1171.00,48.968
1172.00,48.956
1173.00,48.973
1174.00,48.982
1175.00,48.969
1176.00,48.985
1177.00,48.934
1178.00,48.959
1179.00,48.998
1180.00,48.986
1181.00,48.982
1182.00,48.967
1183.00,48.958
1184.00,48.948
1185.00,48.975
1186.00,48.966
1187.00,48.980
1188.00,48.960
1189.00,48.953
1190.00,48.924
1191.00,48.957
1192.00,48.959
1193.00,48.959
1194.00,48.952
1195.00,48.911
1196.00,48.927
1197.00,48.929
1198.00,48.949
1199.00,48.933
1200.00,48.938
1201.00,48.949
1202.00,48.945
1203.00,48.932
1204.00,48.945
1205.00,48.960
1206.00,48.947
1207.00,48.968
1208.00,48.934
1209.00,48.958
1210.00,48.941
1211.00,48.943
1212.00,48.949
1213.00,48.913
1214.00,48.945
1215.00,48.933
1216.00,48.949
1217.00,48.940
1218.00,48.946
1219.00,48.940
1220.00,48.946
1221.00,48.980
1222.00,48.958
1223.00,48.989
1224.00,48.967
1225.00,48.951
1226.00,48.955
1227.00,48.954
1228.00,48.955
1229.00,48.971
1230.00,48.998
1231.00,48.985
1232.00,49.002
1233.00,49.014
1234.00,49.030
1235.00,49.028
1236.00,49.026
1237.00,49.014
1238.00,49.015
1239.00,49.035
1240.00,49.042
1241.00,49.025
1242.00,49.040
1243.00,49.040
1244.00,49.006
1245.00,49.039
1246.00,49.055
1247.00,49.060
1248.00,49.055
1249.00,49.064
1250.00,49.043
1251.00,49.047
1252.00,49.047
1253.00,49.058
1254.00,49.074
1255.00,49.031
1256.00,49.014
1257.00,49.035
1258.00,49.100
1259.00,49.132
1260.00,49.135
1261.00,49.121
1262.00,49.126
1263.00,49.125
1264.00,49.150
1265.00,49.151
1266.00,49.152
1267.00,49.159
1268.00,49.155
1269.00,49.142
1270.00,49.190
1271.00,49.188
1272.00,49.186
1273.00,49.203
1274.00,49.189
1275.00,49.195
1276.00,49.193
1277.00,49.185
1278.00,49.229
1279.00,49.209
1280.00,49.201
1281.00,49.210
1282.00,49.213
1283.00,49.241
1284.00,49.170
1285.00,49.209
1286.00,49.265
1287.00,49.232
1288.00,49.236
1289.00,49.249
1290.00,49.289
1291.00,49.285
1292.00,49.279
1293.00,49.279
1294.00,49.293
1295.00,49.332
1296.00,49.312
1297.00,49.333
1298.00,49.332
1299.00,49.291
1300.00,49.335
1301.00,49.354
1302.00,49.390
1303.00,49.383
1304.00,49.371
1305.00,49.401
1306.00,49.369
1307.00,49.350
1308.00,49.359
1309.00,49.395
1310.00,49.420
1311.00,49.373
1312.00,49.343
1313.00,49.396
1314.00,49.442
1315.00,49.449
1316.00,49.457
1317.00,49.475
1318.00,49.481
1319.00,49.492
1320.00,49.504
1321.00,49.570
1322.00,49.638
1323.00,49.588
1324.00,49.553
1325.00,49.609
1326.00,49.683
1327.00,49.606
1328.00,49.558
1329.00,49.601
1330.00,49.641
1331.00,49.595
1332.00,49.545
1333.00,49.633
1334.00,49.715
1335.00,49.654
1336.00,49.645
1337.00,49.725
1338.00,49.830
1339.00,49.868
1340.00,49.922
1341.00,49.980
1342.00,50.035
1343.00,50.098
1344.00,50.198
1345.00,50.255
1346.00,50.225
1347.00,50.258
1348.00,50.312
1349.00,50.343
1350.00,50.294
1351.00,50.217
1352.00,50.128
1353.00,50.316
1354.00,50.455
1355.00,50.368
1356.00,50.498
1357.00,50.434
1358.00,50.315
1359.00,49.871
1360.00,49.668
1361.00,49.858
1362.00,49.975
1363.00,50.927
1364.00,51.194
1365.00,50.869
1366.00,50.401
1367.00,50.375
1368.00,50.328
1369.00,50.547
1370.00,50.544
1371.00,50.464
1372.00,50.575
1373.00,50.565
1374.00,50.392
1375.00,50.345
1376.00,50.338
1377.00,50.340
1378.00,50.454
1379.00,50.370
1380.00,50.216
1381.00,50.514
1382.00,50.633
1383.00,50.609
1384.00,50.715
1385.00,50.430
1386.00,50.345
1387.00,50.448
1388.00,50.689
1389.00,50.541
1390.00,50.100
1391.00,50.540
1392.00,50.563
1393.00,50.919
1394.00,50.481
1395.00,50.506
1396.00,50.970
1397.00,50.943
1398.00,50.608
1399.00,50.849
1400.00,50.971
1401.00,50.490
1402.00,50.464
1403.00,50.477
1404.00,50.520
1405.00,50.606
1406.00,50.334
1407.00,50.531
1408.00,50.505
1409.00,50.495
1410.00,50.473
1411.00,50.378
1412.00,50.372
1413.00,50.325
1414.00,50.385
1415.00,50.632
1416.00,50.635
1417.00,50.765
1418.00,50.673
1419.00,50.532
1420.00,50.646
1421.00,50.744
1422.00,50.642
1423.00,50.580
1424.00,50.700
1425.00,50.675
1426.00,50.671
1427.00,50.715
1428.00,50.746
1429.00,50.772
1430.00,50.764
1431.00,50.712
1432.00,50.811
1433.00,50.830
1434.00,50.792
1435.00,50.880
1436.00,50.840
1437.00,50.819
1438.00,50.870
1439.00,50.910
1440.00,50.926
1441.00,50.938
1442.00,50.935
1443.00,50.998
1444.00,50.989
1445.00,50.947
1446.00,51.005
1447.00,51.080
1448.00,51.126
1449.00,51.133
1450.00,51.099
1451.00,51.154
1452.00,51.177
1453.00,51.206
1454.00,51.214
1455.00,51.211
1456.00,51.218
1457.00,51.220
1458.00,51.227
1459.00,51.251
1460.00,51.277
1461.00,51.311
1462.00,51.343
1463.00,51.330
1464.00,51.329
1465.00,51.370
1466.00,51.385
1467.00,51.395
1468.00,51.465
1469.00,51.431
1470.00,51.441
1471.00,51.467
1472.00,51.483
1473.00,51.509
1474.00,51.534
1475.00,51.542
1476.00,51.546
1477.00,51.513
1478.00,51.547
1479.00,51.601
1480.00,51.597
1481.00,51.601
1482.00,51.628
1483.00,51.644
1484.00,51.696
1485.00,51.705
1486.00,51.691
1487.00,51.737
1488.00,51.729
1489.00,51.737
1490.00,51.752
1491.00,51.767
1492.00,51.788
1493.00,51.770
1494.00,51.792
1495.00,51.802
1496.00,51.835
1497.00,51.835
1498.00,51.839
1499.00,51.886
1500.00,51.888
1501.00, 
1502.00, 
1503.00, 
1504.00, 
1505.00, 
1506.00, 
1507.00, 
1508.00, 
1509.00, 
1510.00, 
1511.00, 
1512.00, 
1513.00, 
1514.00, 
1515.00, 
1516.00, 
1517.00, 
1518.00, 
1519.00, 
1520.00, 
1521.00, 
1522.00, 
1523.00, 
1524.00, 
1525.00, 
1526.00, 
1527.00, 
1528.00, 
1529.00, 
1530.00, 
1531.00, 
1532.00, 
1533.00, 
1534.00, 
1535.00, 
1536.00, 
1537.00, 
1538.00, 
1539.00, 
1540.00, 
1541.00, 
1542.00, 
1543.00, 
1544.00, 
1545.00, 
1546.00, 
1547.00, 
1548.00, 
1549.00, 
1550.00, 
1551.00, 
1552.00, 
1553.00, 
1554.00, 
1555.00, 
1556.00, 
1557.00, 
1558.00, 
1559.00, 
1560.00, 
1561.00, 
1562.00, 
1563.00, 
1564.00, 
1565.00, 
1566.00, 
1567.00, 
1568.00, 
1569.00, 
1570.00, 
1571.00, 
1572.00, 
1573.00, 
1574.00, 
1575.00, 
1576.00, 
1577.00, 
1578.00, 
1579.00, 
1580.00, 
1581.00, 
1582.00, 
1583.00, 
1584.00, 
1585.00, 
1586.00, 
1587.00, 
1588.00, 
1589.00, 
1590.00, 
1591.00, 
1592.00, 
1593.00, 
1594.00, 
1595.00, 
1596.00, 
1597.00, 
1598.00, 
1599.00, 
1600.00, 
1601.00, 
1602.00, 
1603.00, 
1604.00, 
1605.00, 
1606.00, 
1607.00, 
1608.00, 
1609.00, 
1610.00, 
1611.00, 
1612.00, 
1613.00, 
1614.00, 
1615.00, 
1616.00, 
1617.00, 
1618.00, 
1619.00, 
1620.00, 
1621.00, 
1622.00, 
1623.00, 
1624.00, 
1625.00, 
1626.00, 
1627.00, 
1628.00, 
1629.00, 
1630.00, 
1631.00, 
1632.00, 
1633.00, 
1634.00, 
1635.00, 
1636.00, 
1637.00, 
1638.00, 
1639.00, 
1640.00, 
1641.00, 
1642.00, 
1643.00, 
1644.00, 
1645.00, 
1646.00, 
1647.00, 
1648.00, 
1649.00, 
1650.00, 
1651.00, 
1652.00, 
1653.00, 
1654.00, 
1655.00, 
1656.00, 
1657.00, 
1658.00, 
1659.00, 
1660.00, 
1661.00, 
1662.00, 
1663.00, 
1664.00, 
1665.00, 
1666.00, 
1667.00, 
1668.00, 
1669.00, 
1670.00, 
1671.00, 
1672.00, 
1673.00, 
1674.00, 
1675.00, 
1676.00, 
1677.00, 
1678.00, 
1679.00, 
1680.00, 
1681.00, 
1682.00, 
1683.00, 
1684.00, 
1685.00, 
1686.00, 
1687.00, 
1688.00, 
1689.00, 
1690.00, 
1691.00, 
1692.00, 
1693.00, 
1694.00, 
1695.00, 
1696.00, 
1697.00, 
1698.00, 
1699.00, 
1700.00, 
1701.00, 
1702.00, 
1703.00, 
1704.00, 
1705.00, 
1706.00, 
1707.00, 
1708.00, 
1709.00, 
1710.00, 
1711.00, 
1712.00, 
1713.00, 
1714.00, 
1715.00, 
1716.00, 
1717.00, 
1718.00, 
1719.00, 
1720.00, 
1721.00, 
1722.00, 
1723.00, 
1724.00, 
1725.00, 
1726.00, 
1727.00, 
1728.00, 
1729.00, 
1730.00, 
1731.00, 
1732.00, 
1733.00, 
1734.00, 
1735.00, 
1736.00, 
1737.00, 
1738.00, 
1739.00, 
1740.00, 
1741.00, 
1742.00, 
1743.00, 
1744.00, 
1745.00, 
1746.00, 
1747.00, 
1748.00, 
1749.00, 
1750.00, 
1751.00, 
1752.00, 
1753.00, 
1754.00, 
1755.00, 
1756.00, 
1757.00, 
1758.00, 
1759.00, 
1760.00, 
1761.00, 
1762.00, 
1763.00, 
1764.00, 
1765.00, 
1766.00, 
1767.00, 
1768.00, 
1769.00, 
1770.00, 
1771.00, 
1772.00, 
1773.00, 
1774.00, 
1775.00, 
1776.00, 
1777.00, 
1778.00, 
1779.00, 
1780.00, 
1781.00, 
1782.00, 
1783.00, 
1784.00, 
1785.00, 
1786.00, 
1787.00, 
1788.00, 
1789.00, 
1790.00, 
1791.00, 
1792.00, 
1793.00, 
1794.00, 
1795.00, 
1796.00, 
1797.00, 
1798.00, 
1799.00, 
1800.00, 
1801.00, 
1802.00, 
1803.00, 
1804.00, 
1805.00, 
1806.00, 
1807.00, 
1808.00, 
1809.00, 
1810.00, 
1811.00, 
1812.00, 
1813.00, 
1814.00, 
1815.00, 
1816.00, 
1817.00, 
1818.00, 
1819.00, 
1820.00, 
1821.00, 
1822.00, 
1823.00, 
1824.00, 
1825.00, 
1826.00, 
1827.00, 
1828.00, 
1829.00, 
1830.00, 
1831.00, 
1832.00, 
1833.00, 
1834.00, 
1835.00, 
1836.00, 
1837.00, 
1838.00, 
1839.00, 
1840.00, 
1841.00, 
1842.00, 
1843.00, 
1844.00, 
1845.00, 
1846.00, 
1847.00, 
1848.00, 
1849.00, 
1850.00, 
1851.00, 
1852.00, 
1853.00, 
1854.00, 
1855.00, 
1856.00, 
1857.00, 
1858.00, 
1859.00, 
1860.00, 
1861.00, 
1862.00, 
1863.00, 
1864.00, 
1865.00, 
1866.00, 
1867.00, 
1868.00, 
1869.00, 
1870.00, 
1871.00, 
1872.00, 
1873.00, 
1874.00, 
1875.00, 
1876.00, 
1877.00, 
1878.00, 
1879.00, 
1880.00, 
1881.00, 
1882.00, 
1883.00, 
1884.00, 
1885.00, 
1886.00, 
1887.00, 
1888.00, 
1889.00, 
1890.00, 
1891.00, 
1892.00, 
1893.00, 
1894.00, 
1895.00, 
1896.00, 
1897.00, 
1898.00, 
1899.00, 
1900.00, 
1901.00, 
1902.00, 
1903.00, 
1904.00, 
1905.00, 
1906.00, 
1907.00, 
1908.00, 
1909.00, 
1910.00, 
1911.00, 
1912.00, 
1913.00, 
1914.00, 
1915.00, 
1916.00, 
1917.00, 
1918.00, 
1919.00, 
1920.00, 
1921.00, 
1922.00, 
1923.00, 
1924.00, 
1925.00, 
1926.00, 
1927.00, 
1928.00, 
1929.00, 
1930.00, 
1931.00, 
1932.00, 
1933.00, 
1934.00, 
1935.00, 
1936.00, 
1937.00, 
1938.00, 
1939.00, 
1940.00, 
1941.00, 
1942.00, 
1943.00, 
1944.00, 
1945.00, 
1946.00, 
1947.00, 
1948.00, 
1949.00, 
1950.00, 
1951.00, 
1952.00, 
1953.00, 
1954.00, 
1955.00, 
1956.00, 
1957.00, 
1958.00, 
1959.00, 
1960.00, 
1961.00, 
1962.00, 
1963.00, 
1964.00, 
1965.00, 
1966.00, 
1967.00, 
1968.00, 
1969.00, 
1970.00, 
1971.00, 
1972.00, 
1973.00, 
1974.00, 
1975.00, 
1976.00, 
1977.00, 
1978.00, 
1979.00, 
1980.00, 
1981.00, 
1982.00, 
1983.00, 
1984.00, 
1985.00, 
1986.00, 
1987.00, 
1988.00, 
1989.00, 
1990.00, 
1991.00, 
1992.00, 
1993.00, 
1994.00, 
1995.00, 
1996.00, 
1997.00, 
1998.00, 
1999.00, 
2000.00, 
2001.00, 
2002.00, 
2003.00, 
2004.00, 
2005.00, 
2006.00, 
2007.00, 
2008.00, 
2009.00, 
2010.00, 
2011.00, 
2012.00, 
2013.00, 
2014.00, 
2015.00, 
2016.00, 
2017.00, 
2018.00, 
2019.00, 
2020.00, 
2021.00, 
2022.00, 
2023.00, 
2024.00, 
2025.00, 
2026.00, 
2027.00, 
2028.00, 
2029.00, 
2030.00, 
2031.00, 
2032.00, 
2033.00, 
2034.00, 
2035.00, 
2036.00, 
2037.00, 
2038.00, 
2039.00, 
2040.00, 
2041.00, 
2042.00, 
2043.00, 
2044.00, 
2045.00, 
2046.00, 
2047.00, 
2048.00, 
2049.00, 
2050.00, 
2051.00, 
2052.00, 
2053.00, 
2054.00, 
2055.00, 
2056.00, 
2057.00, 
2058.00, 
2059.00, 
2060.00, 
2061.00, 
2062.00, 
2063.00, 
2064.00, 
2065.00, 
2066.00, 
2067.00, 
2068.00, 
2069.00, 
2070.00, 
2071.00, 
2072.00, 
2073.00, 
2074.00, 
2075.00, 
2076.00, 
2077.00, 
2078.00, 
2079.00, 
2080.00, 
2081.00, 
2082.00, 
2083.00, 
2084.00, 
2085.00, 
2086.00, 
2087.00, 
2088.00, 
2089.00, 
2090.00, 
2091.00, 
2092.00, 
2093.00, 
2094.00, 
2095.00, 
2096.00, 
2097.00, 
2098.00, 
2099.00, 
2100.00, 
2101.00, 
2102.00, 
2103.00, 
2104.00, 
2105.00, 
2106.00, 
2107.00, 
2108.00, 
2109.00, 
2110.00, 
2111.00, 
2112.00, 
2113.00, 
2114.00, 
2115.00, 
2116.00, 
2117.00, 
2118.00, 
2119.00, 
2120.00, 
2121.00, 
2122.00, 
2123.00, 
2124.00, 
2125.00, 
2126.00, 
2127.00, 
2128.00, 
2129.00, 
2130.00, 
2131.00, 
2132.00, 
2133.00, 
2134.00, 
2135.00, 
2136.00, 
2137.00, 
2138.00, 
2139.00, 
2140.00, 
2141.00, 
2142.00, 
2143.00, 
2144.00, 
2145.00, 
2146.00, 
2147.00, 
2148.00, 
2149.00, 
2150.00, 
2151.00, 
2152.00, 
2153.00, 
2154.00, 
2155.00, 
2156.00, 
2157.00, 
2158.00, 
2159.00, 
2160.00, 
2161.00, 
2162.00, 
2163.00, 
2164.00, 
2165.00, 
2166.00, 
2167.00, 
2168.00, 
2169.00, 
2170.00, 
2171.00, 
2172.00, 
2173.00, 
2174.00, 
2175.00, 
2176.00, 
2177.00, 
2178.00, 
2179.00, 
2180.00, 
2181.00, 
2182.00, 
2183.00, 
2184.00, 
2185.00, 
2186.00, 
2187.00, 
2188.00, 
2189.00, 
2190.00, 
2191.00, 
2192.00, 
2193.00, 
2194.00, 
2195.00, 
2196.00, 
2197.00, 
2198.00, 
2199.00, 
2200.00, 
2201.00, 
2202.00, 
2203.00, 
2204.00, 
2205.00, 
2206.00, 
2207.00, 
2208.00, 
2209.00, 
2210.00, 
2211.00, 
2212.00, 
2213.00, 
2214.00, 
2215.00, 
2216.00, 
2217.00, 
2218.00, 
2219.00, 
2220.00, 
2221.00, 
2222.00, 
2223.00, 
2224.00, 
2225.00, 
2226.00, 
2227.00, 
2228.00, 
2229.00, 
2230.00, 
2231.00, 
2232.00, 
2233.00, 
2234.00, 
2235.00, 
2236.00, 
2237.00, 
2238.00, 
2239.00, 
2240.00, 
2241.00, 
2242.00, 
2243.00, 
2244.00, 
2245.00, 
2246.00, 
2247.00, 
2248.00, 
2249.00, 
2250.00, 
2251.00, 
2252.00, 
2253.00, 
2254.00, 
2255.00, 
2256.00, 
2257.00, 
2258.00, 
2259.00, 
2260.00, 
2261.00, 
2262.00, 
2263.00, 
2264.00, 
2265.00, 
2266.00, 
2267.00, 
2268.00, 
2269.00, 
2270.00, 
2271.00, 
2272.00, 
2273.00, 
2274.00, 
2275.00, 
2276.00, 
2277.00, 
2278.00, 
2279.00, 
2280.00, 
2281.00, 
2282.00, 
2283.00, 
2284.00, 
2285.00, 
2286.00, 
2287.00, 
2288.00, 
2289.00, 
2290.00, 
2291.00, 
2292.00, 
2293.00, 
2294.00, 
2295.00, 
2296.00, 
2297.00, 
2298.00, 
2299.00, 
2300.00, 
2301.00, 
2302.00, 
2303.00, 
2304.00, 
2305.00, 
2306.00, 
2307.00, 
2308.00, 
2309.00, 
2310.00, 
2311.00, 
2312.00, 
2313.00, 
2314.00, 
2315.00, 
2316.00, 
2317.00, 
2318.00, 
2319.00, 
2320.00, 
2321.00, 
2322.00, 
2323.00, 
2324.00, 
2325.00, 
2326.00, 
2327.00, 
2328.00, 
2329.00, 
2330.00, 
2331.00, 
2332.00, 
2333.00, 
2334.00, 
2335.00, 
2336.00, 
2337.00, 
2338.00, 
2339.00, 
2340.00, 
2341.00, 
2342.00, 
2343.00, 
2344.00, 
2345.00, 
2346.00, 
2347.00, 
2348.00, 
2349.00, 
2350.00, 
2351.00, 
2352.00, 
2353.00, 
2354.00, 
2355.00, 
2356.00, 
2357.00, 
2358.00, 
2359.00, 
2360.00, 
2361.00, 
2362.00, 
2363.00, 
2364.00, 
2365.00, 
2366.00, 
2367.00, 
2368.00, 
2369.00, 
2370.00, 
2371.00, 
2372.00, 
2373.00, 
2374.00, 
2375.00, 
2376.00, 
2377.00, 
2378.00, 
2379.00, 
2380.00, 
2381.00, 
2382.00, 
2383.00, 
2384.00, 
2385.00, 
2386.00, 
2387.00, 
2388.00, 
2389.00, 
2390.00, 
2391.00, 
2392.00, 
2393.00, 
2394.00, 
2395.00, 
2396.00, 
2397.00, 
2398.00, 
2399.00, 
2400.00, 
2401.00, 
2402.00, 
2403.00, 
2404.00, 
2405.00, 
2406.00, 
2407.00, 
2408.00, 
2409.00, 
2410.00, 
2411.00, 
2412.00, 
2413.00, 
2414.00, 
2415.00, 
2416.00, 
2417.00, 
2418.00, 
2419.00, 
2420.00, 
2421.00, 
2422.00, 
2423.00, 
2424.00, 
2425.00, 
2426.00, 
2427.00, 
2428.00, 
2429.00, 
2430.00, 
2431.00, 
2432.00, 
2433.00, 
2434.00, 
2435.00, 
2436.00, 
2437.00, 
2438.00, 
2439.00, 
2440.00, 
2441.00, 
2442.00, 
2443.00, 
2444.00, 
2445.00, 
2446.00, 
2447.00, 
2448.00, 
2449.00, 
2450.00, 
2451.00, 
2452.00, 
2453.00, 
2454.00, 
2455.00, 
2456.00, 
2457.00, 
2458.00, 
2459.00, 
2460.00, 
2461.00, 
2462.00, 
2463.00, 
2464.00, 
2465.00, 
2466.00, 
2467.00, 
2468.00, 
2469.00, 
2470.00, 
2471.00, 
2472.00, 
2473.00, 
2474.00, 
2475.00, 
2476.00, 
2477.00, 
2478.00, 
2479.00, 
2480.00, 
2481.00, 
2482.00, 
2483.00, 
2484.00, 
2485.00, 
2486.00, 
2487.00, 
2488.00, 
2489.00, 
2490.00, 
2491.00, 
2492.00, 
2493.00, 
2494.00, 
2495.00, 
2496.00, 
2497.00, 
2498.00, 
2499.00, 
2500.00, 
2501.00, 
2502.00, 
2503.00, 
2504.00, 
2505.00, 
2506.00, 
2507.00, 
2508.00, 
2509.00, 
2510.00, 
2511.00, 
2512.00, 
2513.00, 
2514.00, 
2515.00, 
2516.00, 
2517.00, 
2518.00, 
2519.00, 
2520.00, 
2521.00, 
2522.00, 
2523.00, 
2524.00, 
2525.00, 
2526.00, 
2527.00, 
2528.00, 
2529.00, 
2530.00, 
2531.00, 
2532.00, 
2533.00, 
2534.00, 
2535.00, 
2536.00, 
2537.00, 
2538.00, 
2539.00, 
2540.00, 
2541.00, 
2542.00, 
2543.00, 
2544.00, 
2545.00, 
2546.00, 
2547.00, 
2548.00, 
2549.00, 
2550.00, 
2551.00, 
2552.00, 
2553.00, 
2554.00, 
2555.00, 
2556.00, 
2557.00, 
2558.00, 
2559.00, 
2560.00, 
2561.00, 
2562.00, 
2563.00, 
2564.00, 
2565.00, 
2566.00, 
2567.00, 
2568.00, 
2569.00, 
2570.00, 
2571.00, 
2572.00, 
2573.00, 
2574.00, 
2575.00, 
2576.00, 
2577.00, 
2578.00, 
2579.00, 
2580.00, 
2581.00, 
2582.00, 
2583.00, 
2584.00, 
2585.00, 
2586.00, 
2587.00, 
2588.00, 
2589.00, 
2590.00, 
2591.00, 
2592.00, 
2593.00, 
2594.00, 
2595.00, 
2596.00, 
2597.00, 
2598.00, 
2599.00, 
2600.00, 
