"2aP4 - RawData"
"Wavelength nm.","T%"
200.00,0.002
201.00,0.001
202.00,0.007
203.00,0.002
204.00,0.001
205.00,-0.001
206.00,-0.000
207.00,-0.004
208.00,-0.000
209.00,0.001
210.00,0.001
211.00,0.000
212.00,-0.003
213.00,-0.002
214.00,-0.000
215.00,-0.001
216.00,-0.000
217.00,0.004
218.00,-0.001
219.00,-0.000
220.00,-0.001
221.00,-0.001
222.00,-0.000
223.00,-0.001
224.00,0.000
225.00,0.001
226.00,0.002
227.00,-0.002
228.00,0.003
229.00,0.003
230.00,0.000
231.00,0.001
232.00,0.001
233.00,-0.001
234.00,-0.000
235.00,0.000
236.00,0.000
237.00,0.002
238.00,-0.002
239.00,-0.002
240.00,0.001
241.00,-0.000
242.00,-0.001
243.00,0.001
244.00,-0.000
245.00,-0.001
246.00,-0.000
247.00,-0.001
248.00,-0.000
249.00,0.000
250.00,0.001
251.00,-0.000
252.00,0.001
253.00,0.000
254.00,0.001
255.00,0.001
256.00,-0.000
257.00,0.001
258.00,0.001
259.00,-0.000
260.00,-0.001
261.00,0.001
262.00,0.000
263.00,-0.000
264.00,-0.000
265.00,-0.001
266.00,-0.001
267.00,0.001
268.00,0.001
269.00,0.000
270.00,0.001
271.00,-0.001
272.00,0.000
273.00,0.000
274.00,0.000
275.00,0.000
276.00,-0.002
277.00,-0.000
278.00,-0.000
279.00,-0.000
280.00,-0.001
281.00,0.000
282.00,0.000
283.00,0.001
284.00,-0.001
285.00,0.001
286.00,-0.000
287.00,-0.001
288.00,0.002
289.00,0.001
290.00,0.000
291.00,-0.002
292.00,-0.000
293.00,-0.002
294.00,0.001
295.00,0.001
296.00,-0.000
297.00,-0.001
298.00,0.002
299.00,-0.001
300.00,0.001
301.00,0.001
302.00,0.000
303.00,0.001
304.00,0.003
305.00,0.006
306.00,0.008
307.00,0.010
308.00,0.016
309.00,0.023
310.00,0.032
311.00,0.045
312.00,0.062
313.00,0.083
314.00,0.111
315.00,0.138
316.00,0.172
317.00,0.217
318.00,0.265
319.00,0.322
320.00,0.381
321.00,0.454
322.00,0.531
323.00,0.623
324.00,0.721
325.00,0.804
326.00,0.913
327.00,1.026
328.00,1.128
329.00,1.247
330.00,1.375
331.00,1.488
332.00,1.605
333.00,1.734
334.00,1.850
335.00,1.984
336.00,2.086
337.00,2.217
338.00,2.322
339.00,2.425
340.00,2.533
341.00,2.631
342.00,2.732
343.00,2.824
344.00,2.890
345.00,2.969
346.00,3.038
347.00,3.114
348.00,3.164
349.00,3.224
350.00,3.277
351.00,3.328
352.00,3.367
353.00,3.414
354.00,3.435
355.00,3.470
356.00,3.488
357.00,3.519
358.00,3.526
359.00,3.546
360.00,3.546
361.00,3.544
362.00,3.544
363.00,3.541
364.00,3.522
365.00,3.526
366.00,3.512
367.00,3.513
368.00,3.505
369.00,3.491
370.00,3.484
371.00,3.485
372.00,3.453
373.00,3.443
374.00,3.391
375.00,3.372
376.00,3.339
377.00,3.327
378.00,3.291
379.00,3.263
380.00,3.239
381.00,3.219
382.00,3.197
383.00,3.174
384.00,3.164
385.00,3.147
386.00,3.130
387.00,3.118
388.00,3.106
389.00,3.087
390.00,3.075
391.00,3.066
392.00,3.049
393.00,3.037
394.00,3.002
395.00,3.003
396.00,2.981
397.00,2.965
398.00,2.956
399.00,2.951
400.00,2.936
401.00,2.922
402.00,2.904
403.00,2.902
404.00,2.883
405.00,2.872
406.00,2.863
407.00,2.849
408.00,2.847
409.00,2.844
410.00,2.835
411.00,2.831
412.00,2.821
413.00,2.833
414.00,2.836
415.00,2.837
416.00,2.830
417.00,2.819
418.00,2.811
419.00,2.813
420.00,2.817
421.00,2.829
422.00,2.835
423.00,2.835
424.00,2.841
425.00,2.856
426.00,2.868
427.00,2.867
428.00,2.890
429.00,2.903
430.00,2.918
431.00,2.928
432.00,2.943
433.00,2.973
434.00,2.985
435.00,3.005
436.00,3.035
437.00,3.030
438.00,3.074
439.00,3.098
440.00,3.123
441.00,3.159
442.00,3.182
443.00,3.218
444.00,3.247
445.00,3.281
446.00,3.326
447.00,3.353
448.00,3.397
449.00,3.437
450.00,3.478
451.00,3.530
452.00,3.569
453.00,3.618
454.00,3.656
455.00,3.709
456.00,3.745
457.00,3.791
458.00,3.847
459.00,3.902
460.00,3.949
461.00,4.007
462.00,4.053
463.00,4.105
464.00,4.159
465.00,4.222
466.00,4.289
467.00,4.376
468.00,4.464
469.00,4.519
470.00,4.536
471.00,4.595
472.00,4.684
473.00,4.782
474.00,4.850
475.00,4.953
476.00,5.033
477.00,5.109
478.00,5.165
479.00,5.256
480.00,5.351
481.00,5.429
482.00,5.521
483.00,5.599
484.00,5.668
485.00,5.813
486.00,5.888
487.00,5.994
488.00,6.073
489.00,6.185
490.00,6.250
491.00,6.359
492.00,6.476
493.00,6.567
494.00,6.632
495.00,6.763
496.00,6.825
497.00,6.914
498.00,6.998
499.00,7.102
500.00,7.206
501.00,7.321
502.00,7.402
503.00,7.517
504.00,7.622
505.00,7.720
506.00,7.828
507.00,7.919
508.00,7.995
509.00,8.110
510.00,8.216
511.00,8.356
512.00,8.506
513.00,8.577
514.00,8.656
515.00,8.738
516.00,8.835
517.00,8.920
518.00,9.031
519.00,9.103
520.00,9.215
521.00,9.301
522.00,9.417
523.00,9.539
524.00,9.608
525.00,9.722
526.00,9.791
527.00,9.875
528.00,9.943
529.00,10.052
530.00,10.115
531.00,10.201
532.00,10.215
533.00,10.324
534.00,10.452
535.00,10.543
536.00,10.633
537.00,10.697
538.00,10.823
539.00,10.892
540.00,10.994
541.00,11.069
542.00,11.123
543.00,11.222
544.00,11.305
545.00,11.409
546.00,11.461
547.00,11.554
548.00,11.628
549.00,11.691
550.00,11.775
551.00,11.819
552.00,11.887
553.00,11.929
554.00,11.977
555.00,12.028
556.00,12.093
557.00,12.201
558.00,12.263
559.00,12.381
560.00,12.426
561.00,12.462
562.00,12.541
563.00,12.604
564.00,12.675
565.00,12.729
566.00,12.786
567.00,12.849
568.00,12.917
569.00,12.987
570.00,12.987
571.00,13.044
572.00,13.128
573.00,13.093
574.00,13.201
575.00,13.236
576.00,13.280
577.00,13.368
578.00,13.444
579.00,13.510
580.00,13.552
581.00,13.620
582.00,13.706
583.00,13.768
584.00,13.869
585.00,13.898
586.00,13.937
587.00,14.046
588.00,14.094
589.00,14.155
590.00,14.234
591.00,14.289
592.00,14.336
593.00,14.401
594.00,14.458
595.00,14.515
596.00,14.635
597.00,14.638
598.00,14.675
599.00,14.695
600.00,14.721
601.00,14.782
602.00,14.782
603.00,14.914
604.00,14.971
605.00,15.052
606.00,15.154
607.00,15.233
608.00,15.268
609.00,15.406
610.00,15.442
611.00,15.444
612.00,15.536
613.00,15.611
614.00,15.734
615.00,15.756
616.00,15.812
617.00,15.861
618.00,15.883
619.00,15.986
620.00,16.033
621.00,16.143
622.00,16.249
623.00,16.329
624.00,16.434
625.00,16.520
626.00,16.643
627.00,16.756
628.00,16.806
629.00,16.920
630.00,17.062
631.00,17.111
632.00,17.241
633.00,17.358
634.00,17.434
635.00,17.513
636.00,17.642
637.00,17.689
638.00,17.814
639.00,17.916
640.00,18.070
641.00,18.197
642.00,18.338
643.00,18.436
644.00,18.513
645.00,18.617
646.00,18.764
647.00,18.967
648.00,19.083
649.00,19.314
650.00,19.386
651.00,19.474
652.00,19.616
653.00,19.773
654.00,19.941
655.00,20.216
656.00,20.218
657.00,20.908
658.00,20.998
659.00,20.883
660.00,20.805
661.00,21.061
662.00,21.256
663.00,21.440
664.00,21.560
665.00,21.521
666.00,21.844
667.00,22.145
668.00,22.348
669.00,22.257
670.00,22.563
671.00,22.532
672.00,22.853
673.00,23.008
674.00,23.032
675.00,23.336
676.00,23.501
677.00,23.673
678.00,24.088
679.00,24.193
680.00,24.505
681.00,24.874
682.00,25.236
683.00,25.258
684.00,25.287
685.00,25.460
686.00,25.549
687.00,25.772
688.00,26.016
689.00,26.186
690.00,26.324
691.00,26.708
692.00,26.783
693.00,26.849
694.00,27.267
695.00,27.364
696.00,27.630
697.00,27.857
698.00,28.112
699.00,28.128
700.00,28.329
701.00,28.644
702.00,29.007
703.00,29.291
704.00,29.623
705.00,29.680
706.00,29.639
707.00,29.816
708.00,29.926
709.00,30.220
710.00,30.224
711.00,30.452
712.00,31.060
713.00,31.205
714.00,31.203
715.00,31.683
716.00,32.007
717.00,32.002
718.00,32.201
719.00,32.599
720.00,33.005
721.00,36.365
722.00,36.519
723.00,36.634
724.00,36.795
725.00,37.006
726.00,37.206
727.00,37.375
728.00,37.572
729.00,37.730
730.00,37.999
731.00,38.150
732.00,38.353
733.00,38.491
734.00,38.703
735.00,38.865
736.00,39.063
737.00,39.224
738.00,39.480
739.00,39.629
740.00,39.788
741.00,40.016
742.00,40.147
743.00,40.308
744.00,40.386
745.00,40.544
746.00,40.644
747.00,40.895
748.00,40.993
749.00,41.138
750.00,41.273
751.00,41.435
752.00,41.640
753.00,41.672
754.00,41.783
755.00,41.865
756.00,42.062
757.00,42.142
758.00,42.349
759.00,42.439
760.00,42.576
761.00,42.725
762.00,42.888
763.00,42.988
764.00,43.082
765.00,43.264
766.00,43.339
767.00,43.401
768.00,43.584
769.00,43.655
770.00,43.865
771.00,43.895
772.00,44.023
773.00,44.120
774.00,44.297
775.00,44.468
776.00,44.444
777.00,44.628
778.00,44.619
779.00,44.872
780.00,44.920
781.00,44.979
782.00,45.078
783.00,45.101
784.00,45.236
785.00,45.271
786.00,45.384
787.00,45.479
788.00,45.528
789.00,45.638
790.00,45.696
791.00,45.836
792.00,45.785
793.00,45.932
794.00,45.974
795.00,46.028
796.00,46.125
797.00,46.086
798.00,46.227
799.00,46.156
800.00,46.273
801.00,46.220
802.00,46.220
803.00,46.368
804.00,46.373
805.00,46.526
806.00,46.439
807.00,46.487
808.00,46.709
809.00,46.597
810.00,46.804
811.00,46.744
812.00,46.864
813.00,46.931
814.00,46.930
815.00,47.008
816.00,46.949
817.00,47.040
818.00,46.976
819.00,47.040
820.00,47.155
821.00,47.177
822.00,47.095
823.00,47.284
824.00,47.366
825.00,47.145
826.00,47.163
827.00,47.362
828.00,47.197
829.00,47.374
830.00,47.355
831.00,49.987
832.00,50.084
833.00,50.115
834.00,50.102
835.00,50.141
836.00,50.129
837.00,50.192
838.00,50.207
839.00,50.256
840.00,50.282
841.00,50.306
842.00,50.368
843.00,50.336
844.00,50.367
845.00,50.261
846.00,50.329
847.00,50.286
848.00,50.416
849.00,50.495
850.00,50.470
851.00,50.450
852.00,50.423
853.00,50.495
854.00,50.460
855.00,50.457
856.00,50.372
857.00,50.431
858.00,50.475
859.00,50.510
860.00,50.555
861.00,50.501
862.00,50.511
863.00,50.503
864.00,50.634
865.00,50.512
866.00,50.584
867.00,50.544
868.00,50.573
869.00,50.621
870.00,50.595
871.00,50.630
872.00,50.681
873.00,50.663
874.00,50.584
875.00,50.668
876.00,50.644
877.00,50.742
878.00,50.669
879.00,50.754
880.00,50.759
881.00,50.771
882.00,50.641
883.00,50.698
884.00,50.704
885.00,50.707
886.00,50.657
887.00,50.708
888.00,50.734
889.00,50.724
890.00,50.598
891.00,50.663
892.00,50.722
893.00,50.699
894.00,50.645
895.00,50.697
896.00,50.736
897.00,50.706
898.00,50.614
899.00,50.548
900.00,50.609
901.00,50.573
902.00,50.544
903.00,50.686
904.00,50.763
905.00,50.658
906.00,50.557
907.00,50.593
908.00,50.725
909.00,50.643
910.00,50.585
911.00,50.495
912.00,50.573
913.00,50.493
914.00,50.526
915.00,50.665
916.00,50.786
917.00,50.645
918.00,50.563
919.00,50.621
920.00,50.737
921.00,50.584
922.00,50.464
923.00,50.465
924.00,50.765
925.00,50.509
926.00,50.450
927.00,50.472
928.00,50.642
929.00,50.477
930.00,50.423
931.00,50.414
932.00,50.558
933.00,50.420
934.00,50.401
935.00,50.431
936.00,50.524
937.00,50.393
938.00,50.254
939.00,50.359
940.00,50.457
941.00,50.336
942.00,50.274
943.00,50.323
944.00,50.392
945.00,50.296
946.00,50.252
947.00,50.292
948.00,50.265
949.00,50.247
950.00,50.174
951.00,50.242
952.00,50.253
953.00,50.232
954.00,50.112
955.00,50.132
956.00,50.139
957.00,50.115
958.00,50.045
959.00,50.055
960.00,50.040
961.00,50.024
962.00,50.008
963.00,50.013
964.00,50.040
965.00,49.986
966.00,49.986
967.00,49.970
968.00,50.022
969.00,49.947
970.00,49.967
971.00,49.994
972.00,49.998
973.00,50.004
974.00,50.021
975.00,50.046
976.00,49.978
977.00,49.998
978.00,50.005
979.00,50.031
980.00,50.003
981.00,50.000
982.00,50.026
983.00,49.933
984.00,49.984
985.00,49.996
986.00,49.995
987.00,49.991
988.00,49.955
989.00,49.948
990.00,49.929
991.00,49.927
992.00,49.933
993.00,49.943
994.00,49.908
995.00,49.872
996.00,49.877
997.00,49.862
998.00,49.873
999.00,49.860
1000.00,49.911
1001.00,49.855
1002.00,49.815
1003.00,49.845
1004.00,49.790
1005.00,49.775
1006.00,49.776
1007.00,49.830
1008.00,49.803
1009.00,49.762
1010.00,49.761
1011.00,49.726
1012.00,49.735
1013.00,49.717
1014.00,49.739
1015.00,49.709
1016.00,49.662
1017.00,49.679
1018.00,49.662
1019.00,49.659
1020.00,49.601
1021.00,49.636
1022.00,49.617
1023.00,49.597
1024.00,49.557
1025.00,49.565
1026.00,49.572
1027.00,49.528
1028.00,49.523
1029.00,49.514
1030.00,49.525
1031.00,49.495
1032.00,49.433
1033.00,49.436
1034.00,49.431
1035.00,49.395
1036.00,49.340
1037.00,49.342
1038.00,49.335
1039.00,49.311
1040.00,49.288
1041.00,49.251
1042.00,49.233
1043.00,49.241
1044.00,49.282
1045.00,49.250
1046.00,49.239
1047.00,49.256
1048.00,49.289
1049.00,49.285
1050.00,49.317
1051.00,49.315
1052.00,49.344
1053.00,49.352
1054.00,49.375
1055.00,49.363
1056.00,49.356
1057.00,49.380
1058.00,49.368
1059.00,49.342
1060.00,49.323
1061.00,49.376
1062.00,49.340
1063.00,49.331
1064.00,49.306
1065.00,49.349
1066.00,49.321
1067.00,49.320
1068.00,49.302
1069.00,49.329
1070.00,49.277
1071.00,49.260
1072.00,49.283
1073.00,49.270
1074.00,49.251
1075.00,49.222
1076.00,49.223
1077.00,49.224
1078.00,49.222
1079.00,49.198
1080.00,49.187
1081.00,49.157
1082.00,49.167
1083.00,49.159
1084.00,49.167
1085.00,49.153
1086.00,49.149
1087.00,49.129
1088.00,49.138
1089.00,49.117
1090.00,49.121
1091.00,49.115
1092.00,49.122
1093.00,49.079
1094.00,49.092
1095.00,49.070
1096.00,49.072
1097.00,49.054
1098.00,49.057
1099.00,49.028
1100.00,49.028
1101.00,49.012
1102.00,49.017
1103.00,49.001
1104.00,49.015
1105.00,48.978
1106.00,48.992
1107.00,48.975
1108.00,48.959
1109.00,48.957
1110.00,48.959
1111.00,48.929
1112.00,48.909
1113.00,48.921
1114.00,48.913
1115.00,48.910
1116.00,48.926
1117.00,48.863
1118.00,48.866
1119.00,48.865
1120.00,48.855
1121.00,48.890
1122.00,48.894
1123.00,48.832
1124.00,48.841
1125.00,48.812
1126.00,48.850
1127.00,48.840
1128.00,48.821
1129.00,48.780
1130.00,48.802
1131.00,48.772
1132.00,48.764
1133.00,48.809
1134.00,48.741
1135.00,48.688
1136.00,48.767
1137.00,48.766
1138.00,48.767
1139.00,48.765
1140.00,48.736
1141.00,48.706
1142.00,48.732
1143.00,48.764
1144.00,48.722
1145.00,48.691
1146.00,48.680
1147.00,48.661
1148.00,48.695
1149.00,48.709
1150.00,48.728
1151.00,48.720
1152.00,48.690
1153.00,48.674
1154.00,48.670
1155.00,48.673
1156.00,48.663
1157.00,48.673
1158.00,48.635
1159.00,48.634
1160.00,48.634
1161.00,48.644
1162.00,48.624
1163.00,48.630
1164.00,48.616
1165.00,48.613
1166.00,48.608
1167.00,48.622
1168.00,48.632
1169.00,48.637
1170.00,48.619
1171.00,48.617
1172.00,48.611
1173.00,48.602
1174.00,48.618
1175.00,48.607
1176.00,48.618
1177.00,48.595
1178.00,48.593
1179.00,48.619
1180.00,48.624
1181.00,48.622
1182.00,48.612
1183.00,48.599
1184.00,48.580
1185.00,48.602
1186.00,48.576
1187.00,48.572
1188.00,48.576
1189.00,48.564
1190.00,48.544
1191.00,48.574
1192.00,48.577
1193.00,48.588
1194.00,48.575
1195.00,48.538
1196.00,48.556
1197.00,48.561
1198.00,48.575
1199.00,48.549
1200.00,48.550
1201.00,48.549
1202.00,48.544
1203.00,48.549
1204.00,48.548
1205.00,48.557
1206.00,48.528
1207.00,48.546
1208.00,48.520
1209.00,48.547
1210.00,48.549
1211.00,48.538
1212.00,48.536
1213.00,48.500
1214.00,48.537
1215.00,48.515
1216.00,48.534
1217.00,48.520
1218.00,48.507
1219.00,48.519
1220.00,48.510
1221.00,48.545
1222.00,48.531
1223.00,48.555
1224.00,48.524
1225.00,48.508
1226.00,48.509
1227.00,48.521
1228.00,48.530
1229.00,48.569
1230.00,48.571
1231.00,48.554
1232.00,48.559
1233.00,48.566
1234.00,48.587
1235.00,48.577
1236.00,48.581
1237.00,48.572
1238.00,48.581
1239.00,48.563
1240.00,48.560
1241.00,48.574
1242.00,48.571
1243.00,48.572
1244.00,48.539
1245.00,48.579
1246.00,48.590
1247.00,48.585
1248.00,48.577
1249.00,48.590
1250.00,48.585
1251.00,48.587
1252.00,48.596
1253.00,48.589
1254.00,48.598
1255.00,48.554
1256.00,48.526
1257.00,48.537
1258.00,48.602
1259.00,48.619
1260.00,48.607
1261.00,48.584
1262.00,48.600
1263.00,48.599
1264.00,48.606
1265.00,48.611
1266.00,48.603
1267.00,48.611
1268.00,48.627
1269.00,48.622
1270.00,48.671
1271.00,48.656
1272.00,48.653
1273.00,48.665
1274.00,48.648
1275.00,48.646
1276.00,48.649
1277.00,48.655
1278.00,48.676
1279.00,48.662
1280.00,48.651
1281.00,48.652
1282.00,48.666
1283.00,48.673
1284.00,48.635
1285.00,48.650
1286.00,48.688
1287.00,48.685
1288.00,48.661
1289.00,48.698
1290.00,48.739
1291.00,48.710
1292.00,48.709
1293.00,48.709
1294.00,48.699
1295.00,48.727
1296.00,48.738
1297.00,48.737
1298.00,48.752
1299.00,48.714
1300.00,48.749
1301.00,48.753
1302.00,48.790
1303.00,48.775
1304.00,48.763
1305.00,48.784
1306.00,48.778
1307.00,48.765
1308.00,48.759
1309.00,48.804
1310.00,48.830
1311.00,48.768
1312.00,48.727
1313.00,48.775
1314.00,48.830
1315.00,48.839
1316.00,48.833
1317.00,48.854
1318.00,48.867
1319.00,48.867
1320.00,48.881
1321.00,48.948
1322.00,48.996
1323.00,48.957
1324.00,48.927
1325.00,48.949
1326.00,49.030
1327.00,48.959
1328.00,48.914
1329.00,48.964
1330.00,48.995
1331.00,48.957
1332.00,48.900
1333.00,49.003
1334.00,49.051
1335.00,48.979
1336.00,48.973
1337.00,49.038
1338.00,49.161
1339.00,49.197
1340.00,49.252
1341.00,49.308
1342.00,49.385
1343.00,49.450
1344.00,49.520
1345.00,49.581
1346.00,49.569
1347.00,49.593
1348.00,49.631
1349.00,49.654
1350.00,49.598
1351.00,49.513
1352.00,49.440
1353.00,49.576
1354.00,49.700
1355.00,49.614
1356.00,49.829
1357.00,49.728
1358.00,49.638
1359.00,49.171
1360.00,48.915
1361.00,49.105
1362.00,49.406
1363.00,50.340
1364.00,50.349
1365.00,50.064
1366.00,49.730
1367.00,49.638
1368.00,49.607
1369.00,49.853
1370.00,49.716
1371.00,49.746
1372.00,49.851
1373.00,49.817
1374.00,49.658
1375.00,49.612
1376.00,49.583
1377.00,49.599
1378.00,49.752
1379.00,49.798
1380.00,49.547
1381.00,49.717
1382.00,49.889
1383.00,49.930
1384.00,49.961
1385.00,49.713
1386.00,49.598
1387.00,49.630
1388.00,49.958
1389.00,49.840
1390.00,49.379
1391.00,49.549
1392.00,49.827
1393.00,50.175
1394.00,49.710
1395.00,49.634
1396.00,50.228
1397.00,50.196
1398.00,49.793
1399.00,50.024
1400.00,50.136
1401.00,49.713
1402.00,49.734
1403.00,49.739
1404.00,49.749
1405.00,49.872
1406.00,49.578
1407.00,49.764
1408.00,49.740
1409.00,49.745
1410.00,49.705
1411.00,49.588
1412.00,49.625
1413.00,49.532
1414.00,49.588
1415.00,49.842
1416.00,49.851
1417.00,49.995
1418.00,49.862
1419.00,49.748
1420.00,49.849
1421.00,49.980
1422.00,49.839
1423.00,49.767
1424.00,49.882
1425.00,49.886
1426.00,49.855
1427.00,49.894
1428.00,49.932
1429.00,49.941
1430.00,49.935
1431.00,49.878
1432.00,49.962
1433.00,49.998
1434.00,49.954
1435.00,50.048
1436.00,49.995
1437.00,49.971
1438.00,50.017
1439.00,50.052
1440.00,50.061
1441.00,50.071
1442.00,50.067
1443.00,50.127
1444.00,50.140
1445.00,50.070
1446.00,50.143
1447.00,50.201
1448.00,50.244
1449.00,50.244
1450.00,50.199
1451.00,50.250
1452.00,50.249
1453.00,50.310
1454.00,50.301
1455.00,50.316
1456.00,50.295
1457.00,50.275
1458.00,50.281
1459.00,50.292
1460.00,50.332
1461.00,50.365
1462.00,50.392
1463.00,50.398
1464.00,50.404
1465.00,50.421
1466.00,50.423
1467.00,50.442
1468.00,50.508
1469.00,50.483
1470.00,50.492
1471.00,50.514
1472.00,50.527
1473.00,50.545
1474.00,50.569
1475.00,50.586
1476.00,50.570
1477.00,50.568
1478.00,50.582
1479.00,50.626
1480.00,50.637
1481.00,50.626
1482.00,50.656
1483.00,50.651
1484.00,50.686
1485.00,50.700
1486.00,50.710
1487.00,50.734
1488.00,50.721
1489.00,50.714
1490.00,50.729
1491.00,50.751
1492.00,50.764
1493.00,50.757
1494.00,50.781
1495.00,50.785
1496.00,50.824
1497.00,50.812
1498.00,50.817
1499.00,50.850
1500.00,50.846
1501.00, 
1502.00, 
1503.00, 
1504.00, 
1505.00, 
1506.00, 
1507.00, 
1508.00, 
1509.00, 
1510.00, 
1511.00, 
1512.00, 
1513.00, 
1514.00, 
1515.00, 
1516.00, 
1517.00, 
1518.00, 
1519.00, 
1520.00, 
1521.00, 
1522.00, 
1523.00, 
1524.00, 
1525.00, 
1526.00, 
1527.00, 
1528.00, 
1529.00, 
1530.00, 
1531.00, 
1532.00, 
1533.00, 
1534.00, 
1535.00, 
1536.00, 
1537.00, 
1538.00, 
1539.00, 
1540.00, 
1541.00, 
1542.00, 
1543.00, 
1544.00, 
1545.00, 
1546.00, 
1547.00, 
1548.00, 
1549.00, 
1550.00, 
1551.00, 
1552.00, 
1553.00, 
1554.00, 
1555.00, 
1556.00, 
1557.00, 
1558.00, 
1559.00, 
1560.00, 
1561.00, 
1562.00, 
1563.00, 
1564.00, 
1565.00, 
1566.00, 
1567.00, 
1568.00, 
1569.00, 
1570.00, 
1571.00, 
1572.00, 
1573.00, 
1574.00, 
1575.00, 
1576.00, 
1577.00, 
1578.00, 
1579.00, 
1580.00, 
1581.00, 
1582.00, 
1583.00, 
1584.00, 
1585.00, 
1586.00, 
1587.00, 
1588.00, 
1589.00, 
1590.00, 
1591.00, 
1592.00, 
1593.00, 
1594.00, 
1595.00, 
1596.00, 
1597.00, 
1598.00, 
1599.00, 
1600.00, 
1601.00, 
1602.00, 
1603.00, 
1604.00, 
1605.00, 
1606.00, 
1607.00, 
1608.00, 
1609.00, 
1610.00, 
1611.00, 
1612.00, 
1613.00, 
1614.00, 
1615.00, 
1616.00, 
1617.00, 
1618.00, 
1619.00, 
1620.00, 
1621.00, 
1622.00, 
1623.00, 
1624.00, 
1625.00, 
1626.00, 
1627.00, 
1628.00, 
1629.00, 
1630.00, 
1631.00, 
1632.00, 
1633.00, 
1634.00, 
1635.00, 
1636.00, 
1637.00, 
1638.00, 
1639.00, 
1640.00, 
1641.00, 
1642.00, 
1643.00, 
1644.00, 
1645.00, 
1646.00, 
1647.00, 
1648.00, 
1649.00, 
1650.00, 
1651.00, 
1652.00, 
1653.00, 
1654.00, 
1655.00, 
1656.00, 
1657.00, 
1658.00, 
1659.00, 
1660.00, 
1661.00, 
1662.00, 
1663.00, 
1664.00, 
1665.00, 
1666.00, 
1667.00, 
1668.00, 
1669.00, 
1670.00, 
1671.00, 
1672.00, 
1673.00, 
1674.00, 
1675.00, 
1676.00, 
1677.00, 
1678.00, 
1679.00, 
1680.00, 
1681.00, 
1682.00, 
1683.00, 
1684.00, 
1685.00, 
1686.00, 
1687.00, 
1688.00, 
1689.00, 
1690.00, 
1691.00, 
1692.00, 
1693.00, 
1694.00, 
1695.00, 
1696.00, 
1697.00, 
1698.00, 
1699.00, 
1700.00, 
1701.00, 
1702.00, 
1703.00, 
1704.00, 
1705.00, 
1706.00, 
1707.00, 
1708.00, 
1709.00, 
1710.00, 
1711.00, 
1712.00, 
1713.00, 
1714.00, 
1715.00, 
1716.00, 
1717.00, 
1718.00, 
1719.00, 
1720.00, 
1721.00, 
1722.00, 
1723.00, 
1724.00, 
1725.00, 
1726.00, 
1727.00, 
1728.00, 
1729.00, 
1730.00, 
1731.00, 
1732.00, 
1733.00, 
1734.00, 
1735.00, 
1736.00, 
1737.00, 
1738.00, 
1739.00, 
1740.00, 
1741.00, 
1742.00, 
1743.00, 
1744.00, 
1745.00, 
1746.00, 
1747.00, 
1748.00, 
1749.00, 
1750.00, 
1751.00, 
1752.00, 
1753.00, 
1754.00, 
1755.00, 
1756.00, 
1757.00, 
1758.00, 
1759.00, 
1760.00, 
1761.00, 
1762.00, 
1763.00, 
1764.00, 
1765.00, 
1766.00, 
1767.00, 
1768.00, 
1769.00, 
1770.00, 
1771.00, 
1772.00, 
1773.00, 
1774.00, 
1775.00, 
1776.00, 
1777.00, 
1778.00, 
1779.00, 
1780.00, 
1781.00, 
1782.00, 
1783.00, 
1784.00, 
1785.00, 
1786.00, 
1787.00, 
1788.00, 
1789.00, 
1790.00, 
1791.00, 
1792.00, 
1793.00, 
1794.00, 
1795.00, 
1796.00, 
1797.00, 
1798.00, 
1799.00, 
1800.00, 
1801.00, 
1802.00, 
1803.00, 
1804.00, 
1805.00, 
1806.00, 
1807.00, 
1808.00, 
1809.00, 
1810.00, 
1811.00, 
1812.00, 
1813.00, 
1814.00, 
1815.00, 
1816.00, 
1817.00, 
1818.00, 
1819.00, 
1820.00, 
1821.00, 
1822.00, 
1823.00, 
1824.00, 
1825.00, 
1826.00, 
1827.00, 
1828.00, 
1829.00, 
1830.00, 
1831.00, 
1832.00, 
1833.00, 
1834.00, 
1835.00, 
1836.00, 
1837.00, 
1838.00, 
1839.00, 
1840.00, 
1841.00, 
1842.00, 
1843.00, 
1844.00, 
1845.00, 
1846.00, 
1847.00, 
1848.00, 
1849.00, 
1850.00, 
1851.00, 
1852.00, 
1853.00, 
1854.00, 
1855.00, 
1856.00, 
1857.00, 
1858.00, 
1859.00, 
1860.00, 
1861.00, 
1862.00, 
1863.00, 
1864.00, 
1865.00, 
1866.00, 
1867.00, 
1868.00, 
1869.00, 
1870.00, 
1871.00, 
1872.00, 
1873.00, 
1874.00, 
1875.00, 
1876.00, 
1877.00, 
1878.00, 
1879.00, 
1880.00, 
1881.00, 
1882.00, 
1883.00, 
1884.00, 
1885.00, 
1886.00, 
1887.00, 
1888.00, 
1889.00, 
1890.00, 
1891.00, 
1892.00, 
1893.00, 
1894.00, 
1895.00, 
1896.00, 
1897.00, 
1898.00, 
1899.00, 
1900.00, 
1901.00, 
1902.00, 
1903.00, 
1904.00, 
1905.00, 
1906.00, 
1907.00, 
1908.00, 
1909.00, 
1910.00, 
1911.00, 
1912.00, 
1913.00, 
1914.00, 
1915.00, 
1916.00, 
1917.00, 
1918.00, 
1919.00, 
1920.00, 
1921.00, 
1922.00, 
1923.00, 
1924.00, 
1925.00, 
1926.00, 
1927.00, 
1928.00, 
1929.00, 
1930.00, 
1931.00, 
1932.00, 
1933.00, 
1934.00, 
1935.00, 
1936.00, 
1937.00, 
1938.00, 
1939.00, 
1940.00, 
1941.00, 
1942.00, 
1943.00, 
1944.00, 
1945.00, 
1946.00, 
1947.00, 
1948.00, 
1949.00, 
1950.00, 
1951.00, 
1952.00, 
1953.00, 
1954.00, 
1955.00, 
1956.00, 
1957.00, 
1958.00, 
1959.00, 
1960.00, 
1961.00, 
1962.00, 
1963.00, 
1964.00, 
1965.00, 
1966.00, 
1967.00, 
1968.00, 
1969.00, 
1970.00, 
1971.00, 
1972.00, 
1973.00, 
1974.00, 
1975.00, 
1976.00, 
1977.00, 
1978.00, 
1979.00, 
1980.00, 
1981.00, 
1982.00, 
1983.00, 
1984.00, 
1985.00, 
1986.00, 
1987.00, 
1988.00, 
1989.00, 
1990.00, 
1991.00, 
1992.00, 
1993.00, 
1994.00, 
1995.00, 
1996.00, 
1997.00, 
1998.00, 
1999.00, 
2000.00, 
2001.00, 
2002.00, 
2003.00, 
2004.00, 
2005.00, 
2006.00, 
2007.00, 
2008.00, 
2009.00, 
2010.00, 
2011.00, 
2012.00, 
2013.00, 
2014.00, 
2015.00, 
2016.00, 
2017.00, 
2018.00, 
2019.00, 
2020.00, 
2021.00, 
2022.00, 
2023.00, 
2024.00, 
2025.00, 
2026.00, 
2027.00, 
2028.00, 
2029.00, 
2030.00, 
2031.00, 
2032.00, 
2033.00, 
2034.00, 
2035.00, 
2036.00, 
2037.00, 
2038.00, 
2039.00, 
2040.00, 
2041.00, 
2042.00, 
2043.00, 
2044.00, 
2045.00, 
2046.00, 
2047.00, 
2048.00, 
2049.00, 
2050.00, 
2051.00, 
2052.00, 
2053.00, 
2054.00, 
2055.00, 
2056.00, 
2057.00, 
2058.00, 
2059.00, 
2060.00, 
2061.00, 
2062.00, 
2063.00, 
2064.00, 
2065.00, 
2066.00, 
2067.00, 
2068.00, 
2069.00, 
2070.00, 
2071.00, 
2072.00, 
2073.00, 
2074.00, 
2075.00, 
2076.00, 
2077.00, 
2078.00, 
2079.00, 
2080.00, 
2081.00, 
2082.00, 
2083.00, 
2084.00, 
2085.00, 
2086.00, 
2087.00, 
2088.00, 
2089.00, 
2090.00, 
2091.00, 
2092.00, 
2093.00, 
2094.00, 
2095.00, 
2096.00, 
2097.00, 
2098.00, 
2099.00, 
2100.00, 
2101.00, 
2102.00, 
2103.00, 
2104.00, 
2105.00, 
2106.00, 
2107.00, 
2108.00, 
2109.00, 
2110.00, 
2111.00, 
2112.00, 
2113.00, 
2114.00, 
2115.00, 
2116.00, 
2117.00, 
2118.00, 
2119.00, 
2120.00, 
2121.00, 
2122.00, 
2123.00, 
2124.00, 
2125.00, 
2126.00, 
2127.00, 
2128.00, 
2129.00, 
2130.00, 
2131.00, 
2132.00, 
2133.00, 
2134.00, 
2135.00, 
2136.00, 
2137.00, 
2138.00, 
2139.00, 
2140.00, 
2141.00, 
2142.00, 
2143.00, 
2144.00, 
2145.00, 
2146.00, 
2147.00, 
2148.00, 
2149.00, 
2150.00, 
2151.00, 
2152.00, 
2153.00, 
2154.00, 
2155.00, 
2156.00, 
2157.00, 
2158.00, 
2159.00, 
2160.00, 
2161.00, 
2162.00, 
2163.00, 
2164.00, 
2165.00, 
2166.00, 
2167.00, 
2168.00, 
2169.00, 
2170.00, 
2171.00, 
2172.00, 
2173.00, 
2174.00, 
2175.00, 
2176.00, 
2177.00, 
2178.00, 
2179.00, 
2180.00, 
2181.00, 
2182.00, 
2183.00, 
2184.00, 
2185.00, 
2186.00, 
2187.00, 
2188.00, 
2189.00, 
2190.00, 
2191.00, 
2192.00, 
2193.00, 
2194.00, 
2195.00, 
2196.00, 
2197.00, 
2198.00, 
2199.00, 
2200.00, 
2201.00, 
2202.00, 
2203.00, 
2204.00, 
2205.00, 
2206.00, 
2207.00, 
2208.00, 
2209.00, 
2210.00, 
2211.00, 
2212.00, 
2213.00, 
2214.00, 
2215.00, 
2216.00, 
2217.00, 
2218.00, 
2219.00, 
2220.00, 
2221.00, 
2222.00, 
2223.00, 
2224.00, 
2225.00, 
2226.00, 
2227.00, 
2228.00, 
2229.00, 
2230.00, 
2231.00, 
2232.00, 
2233.00, 
2234.00, 
2235.00, 
2236.00, 
2237.00, 
2238.00, 
2239.00, 
2240.00, 
2241.00, 
2242.00, 
2243.00, 
2244.00, 
2245.00, 
2246.00, 
2247.00, 
2248.00, 
2249.00, 
2250.00, 
2251.00, 
2252.00, 
2253.00, 
2254.00, 
2255.00, 
2256.00, 
2257.00, 
2258.00, 
2259.00, 
2260.00, 
2261.00, 
2262.00, 
2263.00, 
2264.00, 
2265.00, 
2266.00, 
2267.00, 
2268.00, 
2269.00, 
2270.00, 
2271.00, 
2272.00, 
2273.00, 
2274.00, 
2275.00, 
2276.00, 
2277.00, 
2278.00, 
2279.00, 
2280.00, 
2281.00, 
2282.00, 
2283.00, 
2284.00, 
2285.00, 
2286.00, 
2287.00, 
2288.00, 
2289.00, 
2290.00, 
2291.00, 
2292.00, 
2293.00, 
2294.00, 
2295.00, 
2296.00, 
2297.00, 
2298.00, 
2299.00, 
2300.00, 
2301.00, 
2302.00, 
2303.00, 
2304.00, 
2305.00, 
2306.00, 
2307.00, 
2308.00, 
2309.00, 
2310.00, 
2311.00, 
2312.00, 
2313.00, 
2314.00, 
2315.00, 
2316.00, 
2317.00, 
2318.00, 
2319.00, 
2320.00, 
2321.00, 
2322.00, 
2323.00, 
2324.00, 
2325.00, 
2326.00, 
2327.00, 
2328.00, 
2329.00, 
2330.00, 
2331.00, 
2332.00, 
2333.00, 
2334.00, 
2335.00, 
2336.00, 
2337.00, 
2338.00, 
2339.00, 
2340.00, 
2341.00, 
2342.00, 
2343.00, 
2344.00, 
2345.00, 
2346.00, 
2347.00, 
2348.00, 
2349.00, 
2350.00, 
2351.00, 
2352.00, 
2353.00, 
2354.00, 
2355.00, 
2356.00, 
2357.00, 
2358.00, 
2359.00, 
2360.00, 
2361.00, 
2362.00, 
2363.00, 
2364.00, 
2365.00, 
2366.00, 
2367.00, 
2368.00, 
2369.00, 
2370.00, 
2371.00, 
2372.00, 
2373.00, 
2374.00, 
2375.00, 
2376.00, 
2377.00, 
2378.00, 
2379.00, 
2380.00, 
2381.00, 
2382.00, 
2383.00, 
2384.00, 
2385.00, 
2386.00, 
2387.00, 
2388.00, 
2389.00, 
2390.00, 
2391.00, 
2392.00, 
2393.00, 
2394.00, 
2395.00, 
2396.00, 
2397.00, 
2398.00, 
2399.00, 
2400.00, 
2401.00, 
2402.00, 
2403.00, 
2404.00, 
2405.00, 
2406.00, 
2407.00, 
2408.00, 
2409.00, 
2410.00, 
2411.00, 
2412.00, 
2413.00, 
2414.00, 
2415.00, 
2416.00, 
2417.00, 
2418.00, 
2419.00, 
2420.00, 
2421.00, 
2422.00, 
2423.00, 
2424.00, 
2425.00, 
2426.00, 
2427.00, 
2428.00, 
2429.00, 
2430.00, 
2431.00, 
2432.00, 
2433.00, 
2434.00, 
2435.00, 
2436.00, 
2437.00, 
2438.00, 
2439.00, 
2440.00, 
2441.00, 
2442.00, 
2443.00, 
2444.00, 
2445.00, 
2446.00, 
2447.00, 
2448.00, 
2449.00, 
2450.00, 
2451.00, 
2452.00, 
2453.00, 
2454.00, 
2455.00, 
2456.00, 
2457.00, 
2458.00, 
2459.00, 
2460.00, 
2461.00, 
2462.00, 
2463.00, 
2464.00, 
2465.00, 
2466.00, 
2467.00, 
2468.00, 
2469.00, 
2470.00, 
2471.00, 
2472.00, 
2473.00, 
2474.00, 
2475.00, 
2476.00, 
2477.00, 
2478.00, 
2479.00, 
2480.00, 
2481.00, 
2482.00, 
2483.00, 
2484.00, 
2485.00, 
2486.00, 
2487.00, 
2488.00, 
2489.00, 
2490.00, 
2491.00, 
2492.00, 
2493.00, 
2494.00, 
2495.00, 
2496.00, 
2497.00, 
2498.00, 
2499.00, 
2500.00, 
2501.00, 
2502.00, 
2503.00, 
2504.00, 
2505.00, 
2506.00, 
2507.00, 
2508.00, 
2509.00, 
2510.00, 
2511.00, 
2512.00, 
2513.00, 
2514.00, 
2515.00, 
2516.00, 
2517.00, 
2518.00, 
2519.00, 
2520.00, 
2521.00, 
2522.00, 
2523.00, 
2524.00, 
2525.00, 
2526.00, 
2527.00, 
2528.00, 
2529.00, 
2530.00, 
2531.00, 
2532.00, 
2533.00, 
2534.00, 
2535.00, 
2536.00, 
2537.00, 
2538.00, 
2539.00, 
2540.00, 
2541.00, 
2542.00, 
2543.00, 
2544.00, 
2545.00, 
2546.00, 
2547.00, 
2548.00, 
2549.00, 
2550.00, 
2551.00, 
2552.00, 
2553.00, 
2554.00, 
2555.00, 
2556.00, 
2557.00, 
2558.00, 
2559.00, 
2560.00, 
2561.00, 
2562.00, 
2563.00, 
2564.00, 
2565.00, 
2566.00, 
2567.00, 
2568.00, 
2569.00, 
2570.00, 
2571.00, 
2572.00, 
2573.00, 
2574.00, 
2575.00, 
2576.00, 
2577.00, 
2578.00, 
2579.00, 
2580.00, 
2581.00, 
2582.00, 
2583.00, 
2584.00, 
2585.00, 
2586.00, 
2587.00, 
2588.00, 
2589.00, 
2590.00, 
2591.00, 
2592.00, 
2593.00, 
2594.00, 
2595.00, 
2596.00, 
2597.00, 
2598.00, 
2599.00, 
2600.00, 
