"2bP2_2 - RawData"
"Wavelength nm.","T%"
200.00,0.003
201.00,0.004
202.00,0.001
203.00,0.001
204.00,0.002
205.00,0.002
206.00,0.001
207.00,-0.000
208.00,0.002
209.00,-0.002
210.00,0.001
211.00,-0.001
212.00,0.001
213.00,-0.001
214.00,0.000
215.00,-0.001
216.00,0.001
217.00,0.002
218.00,0.002
219.00,0.000
220.00,0.002
221.00,0.002
222.00,0.000
223.00,0.003
224.00,-0.002
225.00,0.001
226.00,0.000
227.00,0.002
228.00,-0.000
229.00,-0.001
230.00,0.002
231.00,-0.001
232.00,-0.003
233.00,0.000
234.00,-0.001
235.00,0.000
236.00,-0.001
237.00,0.001
238.00,-0.000
239.00,0.002
240.00,-0.001
241.00,-0.000
242.00,0.000
243.00,-0.001
244.00,-0.001
245.00,-0.002
246.00,0.001
247.00,0.000
248.00,0.000
249.00,-0.001
250.00,0.000
251.00,-0.000
252.00,-0.002
253.00,0.000
254.00,-0.001
255.00,0.000
256.00,-0.001
257.00,0.001
258.00,-0.000
259.00,-0.000
260.00,-0.000
261.00,-0.001
262.00,-0.001
263.00,-0.000
264.00,0.001
265.00,-0.001
266.00,-0.000
267.00,-0.001
268.00,-0.001
269.00,0.000
270.00,-0.001
271.00,0.001
272.00,0.000
273.00,0.000
274.00,0.001
275.00,-0.002
276.00,0.000
277.00,0.001
278.00,0.002
279.00,-0.000
280.00,0.001
281.00,-0.000
282.00,0.001
283.00,-0.001
284.00,0.001
285.00,0.001
286.00,-0.000
287.00,0.001
288.00,0.001
289.00,-0.001
290.00,-0.001
291.00,-0.000
292.00,0.000
293.00,0.001
294.00,0.000
295.00,0.002
296.00,0.001
297.00,0.001
298.00,0.001
299.00,0.001
300.00,0.001
301.00,0.001
302.00,-0.000
303.00,0.004
304.00,0.006
305.00,0.008
306.00,0.011
307.00,0.016
308.00,0.022
309.00,0.032
310.00,0.045
311.00,0.061
312.00,0.084
313.00,0.107
314.00,0.146
315.00,0.183
316.00,0.226
317.00,0.282
318.00,0.343
319.00,0.409
320.00,0.488
321.00,0.579
322.00,0.678
323.00,0.788
324.00,0.909
325.00,1.032
326.00,1.153
327.00,1.282
328.00,1.407
329.00,1.536
330.00,1.697
331.00,1.833
332.00,1.988
333.00,2.142
334.00,2.278
335.00,2.409
336.00,2.573
337.00,2.700
338.00,2.843
339.00,2.951
340.00,3.091
341.00,3.215
342.00,3.319
343.00,3.436
344.00,3.516
345.00,3.619
346.00,3.707
347.00,3.765
348.00,3.850
349.00,3.911
350.00,3.967
351.00,4.031
352.00,4.077
353.00,4.129
354.00,4.168
355.00,4.212
356.00,4.229
357.00,4.257
358.00,4.271
359.00,4.291
360.00,4.294
361.00,4.301
362.00,4.289
363.00,4.284
364.00,4.277
365.00,4.293
366.00,4.261
367.00,4.259
368.00,4.256
369.00,4.241
370.00,4.233
371.00,4.224
372.00,4.183
373.00,4.177
374.00,4.139
375.00,4.101
376.00,4.074
377.00,4.043
378.00,4.009
379.00,3.977
380.00,3.947
381.00,3.928
382.00,3.908
383.00,3.881
384.00,3.855
385.00,3.847
386.00,3.821
387.00,3.809
388.00,3.802
389.00,3.783
390.00,3.767
391.00,3.747
392.00,3.737
393.00,3.716
394.00,3.689
395.00,3.677
396.00,3.657
397.00,3.645
398.00,3.635
399.00,3.628
400.00,3.603
401.00,3.595
402.00,3.572
403.00,3.577
404.00,3.552
405.00,3.536
406.00,3.538
407.00,3.514
408.00,3.507
409.00,3.503
410.00,3.487
411.00,3.484
412.00,3.474
413.00,3.498
414.00,3.496
415.00,3.491
416.00,3.482
417.00,3.478
418.00,3.470
419.00,3.470
420.00,3.471
421.00,3.481
422.00,3.496
423.00,3.493
424.00,3.505
425.00,3.517
426.00,3.529
427.00,3.529
428.00,3.550
429.00,3.568
430.00,3.585
431.00,3.599
432.00,3.616
433.00,3.630
434.00,3.644
435.00,3.682
436.00,3.709
437.00,3.732
438.00,3.760
439.00,3.789
440.00,3.830
441.00,3.853
442.00,3.893
443.00,3.924
444.00,3.971
445.00,4.007
446.00,4.053
447.00,4.083
448.00,4.127
449.00,4.178
450.00,4.221
451.00,4.278
452.00,4.330
453.00,4.370
454.00,4.425
455.00,4.473
456.00,4.527
457.00,4.581
458.00,4.636
459.00,4.697
460.00,4.749
461.00,4.813
462.00,4.863
463.00,4.931
464.00,5.003
465.00,5.055
466.00,5.128
467.00,5.223
468.00,5.323
469.00,5.390
470.00,5.426
471.00,5.518
472.00,5.603
473.00,5.692
474.00,5.761
475.00,5.868
476.00,5.955
477.00,6.046
478.00,6.113
479.00,6.212
480.00,6.311
481.00,6.400
482.00,6.486
483.00,6.589
484.00,6.665
485.00,6.818
486.00,6.916
487.00,6.990
488.00,7.125
489.00,7.226
490.00,7.297
491.00,7.444
492.00,7.572
493.00,7.668
494.00,7.725
495.00,7.867
496.00,7.936
497.00,8.039
498.00,8.137
499.00,8.270
500.00,8.357
501.00,8.492
502.00,8.590
503.00,8.707
504.00,8.804
505.00,8.932
506.00,9.048
507.00,9.134
508.00,9.234
509.00,9.365
510.00,9.462
511.00,9.615
512.00,9.782
513.00,9.850
514.00,9.974
515.00,10.028
516.00,10.141
517.00,10.239
518.00,10.352
519.00,10.430
520.00,10.554
521.00,10.636
522.00,10.758
523.00,10.899
524.00,10.945
525.00,11.066
526.00,11.159
527.00,11.229
528.00,11.309
529.00,11.426
530.00,11.484
531.00,11.587
532.00,11.600
533.00,11.715
534.00,11.865
535.00,11.944
536.00,12.030
537.00,12.118
538.00,12.239
539.00,12.308
540.00,12.419
541.00,12.500
542.00,12.520
543.00,12.666
544.00,12.765
545.00,12.856
546.00,12.945
547.00,13.031
548.00,13.104
549.00,13.194
550.00,13.253
551.00,13.291
552.00,13.395
553.00,13.410
554.00,13.460
555.00,13.518
556.00,13.586
557.00,13.711
558.00,13.821
559.00,13.910
560.00,13.955
561.00,14.012
562.00,14.101
563.00,14.150
564.00,14.242
565.00,14.300
566.00,14.338
567.00,14.439
568.00,14.498
569.00,14.552
570.00,14.579
571.00,14.631
572.00,14.707
573.00,14.720
574.00,14.786
575.00,14.816
576.00,14.864
577.00,14.970
578.00,15.039
579.00,15.102
580.00,15.151
581.00,15.245
582.00,15.296
583.00,15.371
584.00,15.486
585.00,15.508
586.00,15.536
587.00,15.621
588.00,15.691
589.00,15.797
590.00,15.866
591.00,15.918
592.00,15.968
593.00,16.055
594.00,16.122
595.00,16.193
596.00,16.284
597.00,16.315
598.00,16.362
599.00,16.374
600.00,16.418
601.00,16.490
602.00,16.522
603.00,16.653
604.00,16.668
605.00,16.750
606.00,16.826
607.00,16.915
608.00,16.952
609.00,17.095
610.00,17.135
611.00,17.146
612.00,17.223
613.00,17.302
614.00,17.433
615.00,17.499
616.00,17.539
617.00,17.586
618.00,17.611
619.00,17.710
620.00,17.789
621.00,17.860
622.00,17.978
623.00,18.064
624.00,18.174
625.00,18.271
626.00,18.378
627.00,18.503
628.00,18.559
629.00,18.692
630.00,18.824
631.00,18.894
632.00,19.015
633.00,19.143
634.00,19.250
635.00,19.306
636.00,19.414
637.00,19.499
638.00,19.584
639.00,19.703
640.00,19.868
641.00,20.018
642.00,20.167
643.00,20.277
644.00,20.391
645.00,20.449
646.00,20.579
647.00,20.775
648.00,20.920
649.00,21.158
650.00,21.264
651.00,21.306
652.00,21.459
653.00,21.625
654.00,21.705
655.00,22.051
656.00,22.038
657.00,22.777
658.00,22.903
659.00,22.766
660.00,22.718
661.00,22.983
662.00,23.135
663.00,23.356
664.00,23.443
665.00,23.365
666.00,23.738
667.00,24.070
668.00,24.268
669.00,24.189
670.00,24.433
671.00,24.395
672.00,24.742
673.00,24.918
674.00,24.980
675.00,25.293
676.00,25.451
677.00,25.596
678.00,26.006
679.00,26.116
680.00,26.474
681.00,26.810
682.00,27.197
683.00,27.223
684.00,27.209
685.00,27.384
686.00,27.419
687.00,27.678
688.00,27.850
689.00,28.091
690.00,28.198
691.00,28.648
692.00,28.784
693.00,28.820
694.00,29.198
695.00,29.329
696.00,29.613
697.00,29.842
698.00,30.107
699.00,30.113
700.00,30.308
701.00,30.601
702.00,30.988
703.00,31.274
704.00,31.644
705.00,31.660
706.00,31.634
707.00,31.772
708.00,31.947
709.00,32.105
710.00,32.148
711.00,32.428
712.00,33.008
713.00,33.194
714.00,33.164
715.00,33.713
716.00,34.048
717.00,33.945
718.00,34.170
719.00,34.706
720.00,35.076
721.00,38.260
722.00,38.478
723.00,38.593
724.00,38.806
725.00,38.983
726.00,39.167
727.00,39.304
728.00,39.493
729.00,39.683
730.00,39.912
731.00,40.069
732.00,40.225
733.00,40.463
734.00,40.633
735.00,40.845
736.00,40.980
737.00,41.140
738.00,41.395
739.00,41.539
740.00,41.694
741.00,41.863
742.00,42.064
743.00,42.225
744.00,42.259
745.00,42.440
746.00,42.591
747.00,42.727
748.00,42.851
749.00,42.943
750.00,43.109
751.00,43.273
752.00,43.397
753.00,43.443
754.00,43.551
755.00,43.716
756.00,43.862
757.00,43.958
758.00,44.111
759.00,44.302
760.00,44.345
761.00,44.513
762.00,44.654
763.00,44.800
764.00,44.951
765.00,45.057
766.00,45.167
767.00,45.234
768.00,45.407
769.00,45.479
770.00,45.615
771.00,45.655
772.00,45.832
773.00,45.953
774.00,46.113
775.00,46.232
776.00,46.304
777.00,46.405
778.00,46.413
779.00,46.603
780.00,46.682
781.00,46.723
782.00,46.807
783.00,46.860
784.00,46.995
785.00,47.023
786.00,47.074
787.00,47.260
788.00,47.239
789.00,47.401
790.00,47.405
791.00,47.515
792.00,47.480
793.00,47.630
794.00,47.770
795.00,47.772
796.00,47.849
797.00,47.816
798.00,47.864
799.00,47.884
800.00,47.946
801.00,47.927
802.00,47.911
803.00,48.060
804.00,48.115
805.00,48.165
806.00,48.158
807.00,48.259
808.00,48.389
809.00,48.327
810.00,48.423
811.00,48.388
812.00,48.557
813.00,48.631
814.00,48.594
815.00,48.744
816.00,48.681
817.00,48.731
818.00,48.706
819.00,48.711
820.00,48.845
821.00,48.779
822.00,48.831
823.00,48.965
824.00,48.940
825.00,48.882
826.00,48.776
827.00,49.031
828.00,48.876
829.00,49.022
830.00,49.019
831.00,51.497
832.00,51.547
833.00,51.566
834.00,51.567
835.00,51.629
836.00,51.616
837.00,51.678
838.00,51.660
839.00,51.716
840.00,51.792
841.00,51.757
842.00,51.797
843.00,51.780
844.00,51.818
845.00,51.720
846.00,51.788
847.00,51.727
848.00,51.839
849.00,51.909
850.00,51.878
851.00,51.873
852.00,51.828
853.00,51.908
854.00,51.864
855.00,51.892
856.00,51.797
857.00,51.871
858.00,51.967
859.00,51.941
860.00,51.996
861.00,51.925
862.00,51.961
863.00,51.913
864.00,52.087
865.00,51.970
866.00,51.980
867.00,51.962
868.00,52.205
869.00,52.076
870.00,52.025
871.00,52.080
872.00,52.108
873.00,52.104
874.00,51.996
875.00,52.072
876.00,52.040
877.00,52.164
878.00,52.040
879.00,52.106
880.00,52.170
881.00,52.155
882.00,52.020
883.00,52.180
884.00,52.127
885.00,52.134
886.00,52.054
887.00,52.107
888.00,52.176
889.00,52.137
890.00,52.006
891.00,52.082
892.00,52.114
893.00,52.109
894.00,52.036
895.00,52.111
896.00,52.146
897.00,52.105
898.00,52.010
899.00,51.929
900.00,52.005
901.00,51.966
902.00,51.942
903.00,52.088
904.00,52.139
905.00,52.086
906.00,51.959
907.00,52.015
908.00,52.116
909.00,52.048
910.00,51.970
911.00,51.884
912.00,51.967
913.00,51.893
914.00,51.953
915.00,52.086
916.00,52.220
917.00,52.085
918.00,51.971
919.00,52.041
920.00,52.163
921.00,51.995
922.00,51.876
923.00,51.965
924.00,52.131
925.00,51.931
926.00,51.844
927.00,51.892
928.00,52.057
929.00,51.895
930.00,51.837
931.00,51.840
932.00,51.986
933.00,51.836
934.00,51.835
935.00,51.866
936.00,51.939
937.00,51.792
938.00,51.728
939.00,51.801
940.00,51.891
941.00,51.774
942.00,51.703
943.00,51.765
944.00,51.833
945.00,51.733
946.00,51.673
947.00,51.711
948.00,51.696
949.00,51.672
950.00,51.601
951.00,51.671
952.00,51.672
953.00,51.717
954.00,51.525
955.00,51.551
956.00,51.559
957.00,51.530
958.00,51.465
959.00,51.485
960.00,51.475
961.00,51.458
962.00,51.423
963.00,51.441
964.00,51.453
965.00,51.410
966.00,51.417
967.00,51.394
968.00,51.442
969.00,51.444
970.00,51.393
971.00,51.418
972.00,51.421
973.00,51.428
974.00,51.449
975.00,51.462
976.00,51.398
977.00,51.424
978.00,51.442
979.00,51.453
980.00,51.453
981.00,51.409
982.00,51.415
983.00,51.373
984.00,51.428
985.00,51.389
986.00,51.420
987.00,51.399
988.00,51.384
989.00,51.377
990.00,51.375
991.00,51.360
992.00,51.373
993.00,51.372
994.00,51.326
995.00,51.304
996.00,51.319
997.00,51.297
998.00,51.321
999.00,51.299
1000.00,51.293
1001.00,51.259
1002.00,51.243
1003.00,51.267
1004.00,51.232
1005.00,51.220
1006.00,51.220
1007.00,51.250
1008.00,51.219
1009.00,51.183
1010.00,51.168
1011.00,51.146
1012.00,51.168
1013.00,51.152
1014.00,51.210
1015.00,51.131
1016.00,51.098
1017.00,51.117
1018.00,51.088
1019.00,51.082
1020.00,51.038
1021.00,51.059
1022.00,51.055
1023.00,51.019
1024.00,50.989
1025.00,51.014
1026.00,51.024
1027.00,50.984
1028.00,50.959
1029.00,50.967
1030.00,50.997
1031.00,50.935
1032.00,50.878
1033.00,50.875
1034.00,50.879
1035.00,50.834
1036.00,50.792
1037.00,50.794
1038.00,50.769
1039.00,50.769
1040.00,50.719
1041.00,50.686
1042.00,50.733
1043.00,50.687
1044.00,50.750
1045.00,50.706
1046.00,50.692
1047.00,50.706
1048.00,50.738
1049.00,50.731
1050.00,50.772
1051.00,50.759
1052.00,50.792
1053.00,50.796
1054.00,50.821
1055.00,50.814
1056.00,50.815
1057.00,50.835
1058.00,50.821
1059.00,50.791
1060.00,50.812
1061.00,50.803
1062.00,50.782
1063.00,50.783
1064.00,50.754
1065.00,50.787
1066.00,50.764
1067.00,50.771
1068.00,50.741
1069.00,50.753
1070.00,50.740
1071.00,50.720
1072.00,50.741
1073.00,50.734
1074.00,50.714
1075.00,50.696
1076.00,50.679
1077.00,50.689
1078.00,50.685
1079.00,50.664
1080.00,50.664
1081.00,50.646
1082.00,50.645
1083.00,50.647
1084.00,50.651
1085.00,50.642
1086.00,50.641
1087.00,50.610
1088.00,50.633
1089.00,50.599
1090.00,50.632
1091.00,50.634
1092.00,50.600
1093.00,50.576
1094.00,50.581
1095.00,50.549
1096.00,50.547
1097.00,50.526
1098.00,50.521
1099.00,50.494
1100.00,50.502
1101.00,50.491
1102.00,50.504
1103.00,50.496
1104.00,50.502
1105.00,50.467
1106.00,50.460
1107.00,50.447
1108.00,50.443
1109.00,50.419
1110.00,50.423
1111.00,50.387
1112.00,50.379
1113.00,50.389
1114.00,50.392
1115.00,50.391
1116.00,50.396
1117.00,50.354
1118.00,50.335
1119.00,50.320
1120.00,50.322
1121.00,50.351
1122.00,50.354
1123.00,50.300
1124.00,50.305
1125.00,50.279
1126.00,50.338
1127.00,50.319
1128.00,50.297
1129.00,50.254
1130.00,50.287
1131.00,50.269
1132.00,50.247
1133.00,50.287
1134.00,50.219
1135.00,50.145
1136.00,50.244
1137.00,50.246
1138.00,50.244
1139.00,50.225
1140.00,50.208
1141.00,50.186
1142.00,50.214
1143.00,50.242
1144.00,50.201
1145.00,50.179
1146.00,50.159
1147.00,50.139
1148.00,50.163
1149.00,50.176
1150.00,50.199
1151.00,50.208
1152.00,50.180
1153.00,50.153
1154.00,50.160
1155.00,50.166
1156.00,50.170
1157.00,50.170
1158.00,50.153
1159.00,50.155
1160.00,50.155
1161.00,50.163
1162.00,50.147
1163.00,50.152
1164.00,50.133
1165.00,50.132
1166.00,50.118
1167.00,50.115
1168.00,50.130
1169.00,50.121
1170.00,50.111
1171.00,50.103
1172.00,50.081
1173.00,50.085
1174.00,50.103
1175.00,50.099
1176.00,50.098
1177.00,50.081
1178.00,50.078
1179.00,50.100
1180.00,50.108
1181.00,50.114
1182.00,50.106
1183.00,50.090
1184.00,50.065
1185.00,50.096
1186.00,50.072
1187.00,50.097
1188.00,50.085
1189.00,50.075
1190.00,50.052
1191.00,50.071
1192.00,50.087
1193.00,50.092
1194.00,50.078
1195.00,50.049
1196.00,50.070
1197.00,50.068
1198.00,50.079
1199.00,50.066
1200.00,50.058
1201.00,50.060
1202.00,50.046
1203.00,50.049
1204.00,50.056
1205.00,50.064
1206.00,50.055
1207.00,50.057
1208.00,50.017
1209.00,50.053
1210.00,50.058
1211.00,50.038
1212.00,50.064
1213.00,50.037
1214.00,50.048
1215.00,50.034
1216.00,50.047
1217.00,50.048
1218.00,50.046
1219.00,50.049
1220.00,50.044
1221.00,50.063
1222.00,50.069
1223.00,50.082
1224.00,50.046
1225.00,50.048
1226.00,50.034
1227.00,50.047
1228.00,50.058
1229.00,50.052
1230.00,50.089
1231.00,50.069
1232.00,50.063
1233.00,50.067
1234.00,50.084
1235.00,50.070
1236.00,50.082
1237.00,50.084
1238.00,50.071
1239.00,50.067
1240.00,50.072
1241.00,50.059
1242.00,50.078
1243.00,50.104
1244.00,50.055
1245.00,50.082
1246.00,50.091
1247.00,50.097
1248.00,50.079
1249.00,50.078
1250.00,50.077
1251.00,50.087
1252.00,50.080
1253.00,50.090
1254.00,50.110
1255.00,50.064
1256.00,50.034
1257.00,50.033
1258.00,50.132
1259.00,50.135
1260.00,50.124
1261.00,50.127
1262.00,50.129
1263.00,50.127
1264.00,50.147
1265.00,50.145
1266.00,50.141
1267.00,50.156
1268.00,50.146
1269.00,50.149
1270.00,50.184
1271.00,50.180
1272.00,50.181
1273.00,50.190
1274.00,50.186
1275.00,50.189
1276.00,50.194
1277.00,50.200
1278.00,50.218
1279.00,50.210
1280.00,50.183
1281.00,50.199
1282.00,50.193
1283.00,50.216
1284.00,50.171
1285.00,50.168
1286.00,50.223
1287.00,50.215
1288.00,50.211
1289.00,50.225
1290.00,50.258
1291.00,50.255
1292.00,50.247
1293.00,50.244
1294.00,50.258
1295.00,50.278
1296.00,50.273
1297.00,50.281
1298.00,50.294
1299.00,50.249
1300.00,50.277
1301.00,50.286
1302.00,50.336
1303.00,50.332
1304.00,50.293
1305.00,50.322
1306.00,50.299
1307.00,50.278
1308.00,50.288
1309.00,50.346
1310.00,50.360
1311.00,50.319
1312.00,50.285
1313.00,50.317
1314.00,50.362
1315.00,50.357
1316.00,50.359
1317.00,50.374
1318.00,50.389
1319.00,50.401
1320.00,50.422
1321.00,50.479
1322.00,50.534
1323.00,50.504
1324.00,50.474
1325.00,50.515
1326.00,50.583
1327.00,50.507
1328.00,50.461
1329.00,50.501
1330.00,50.547
1331.00,50.492
1332.00,50.447
1333.00,50.530
1334.00,50.616
1335.00,50.545
1336.00,50.530
1337.00,50.606
1338.00,50.719
1339.00,50.747
1340.00,50.795
1341.00,50.859
1342.00,50.916
1343.00,50.971
1344.00,51.060
1345.00,51.116
1346.00,51.120
1347.00,51.146
1348.00,51.200
1349.00,51.212
1350.00,51.180
1351.00,51.080
1352.00,51.046
1353.00,51.151
1354.00,51.231
1355.00,51.198
1356.00,51.331
1357.00,51.283
1358.00,51.322
1359.00,50.747
1360.00,50.421
1361.00,50.459
1362.00,50.914
1363.00,51.374
1364.00,51.824
1365.00,51.602
1366.00,51.339
1367.00,51.131
1368.00,51.323
1369.00,51.513
1370.00,51.220
1371.00,51.231
1372.00,51.404
1373.00,51.364
1374.00,51.231
1375.00,51.177
1376.00,51.155
1377.00,51.063
1378.00,51.363
1379.00,51.072
1380.00,51.075
1381.00,51.106
1382.00,51.486
1383.00,51.580
1384.00,51.496
1385.00,51.385
1386.00,51.118
1387.00,51.120
1388.00,51.560
1389.00,51.594
1390.00,50.894
1391.00,50.975
1392.00,51.342
1393.00,51.830
1394.00,51.211
1395.00,51.234
1396.00,51.825
1397.00,51.885
1398.00,51.373
1399.00,51.440
1400.00,51.700
1401.00,51.301
1402.00,51.414
1403.00,51.223
1404.00,51.362
1405.00,51.387
1406.00,51.190
1407.00,51.285
1408.00,51.229
1409.00,51.561
1410.00,51.274
1411.00,51.172
1412.00,51.173
1413.00,51.008
1414.00,51.198
1415.00,51.407
1416.00,51.453
1417.00,51.509
1418.00,51.370
1419.00,51.275
1420.00,51.409
1421.00,51.511
1422.00,51.368
1423.00,51.343
1424.00,51.482
1425.00,51.449
1426.00,51.423
1427.00,51.448
1428.00,51.501
1429.00,51.528
1430.00,51.481
1431.00,51.416
1432.00,51.522
1433.00,51.537
1434.00,51.513
1435.00,51.603
1436.00,51.538
1437.00,51.536
1438.00,51.593
1439.00,51.632
1440.00,51.649
1441.00,51.672
1442.00,51.674
1443.00,51.733
1444.00,51.704
1445.00,51.652
1446.00,51.737
1447.00,51.761
1448.00,51.828
1449.00,51.788
1450.00,51.745
1451.00,51.797
1452.00,51.821
1453.00,51.841
1454.00,51.827
1455.00,51.861
1456.00,51.855
1457.00,51.846
1458.00,51.878
1459.00,51.884
1460.00,51.924
1461.00,51.940
1462.00,51.962
1463.00,51.964
1464.00,51.951
1465.00,51.982
1466.00,51.978
1467.00,52.023
1468.00,52.060
1469.00,52.060
1470.00,52.061
1471.00,52.072
1472.00,52.084
1473.00,52.111
1474.00,52.119
1475.00,52.121
1476.00,52.127
1477.00,52.139
1478.00,52.170
1479.00,52.191
1480.00,52.185
1481.00,52.203
1482.00,52.230
1483.00,52.235
1484.00,52.239
1485.00,52.258
1486.00,52.245
1487.00,52.283
1488.00,52.297
1489.00,52.292
1490.00,52.305
1491.00,52.319
1492.00,52.349
1493.00,52.333
1494.00,52.360
1495.00,52.366
1496.00,52.394
1497.00,52.377
1498.00,52.375
1499.00,52.417
1500.00,52.429
1501.00, 
1502.00, 
1503.00, 
1504.00, 
1505.00, 
1506.00, 
1507.00, 
1508.00, 
1509.00, 
1510.00, 
1511.00, 
1512.00, 
1513.00, 
1514.00, 
1515.00, 
1516.00, 
1517.00, 
1518.00, 
1519.00, 
1520.00, 
1521.00, 
1522.00, 
1523.00, 
1524.00, 
1525.00, 
1526.00, 
1527.00, 
1528.00, 
1529.00, 
1530.00, 
1531.00, 
1532.00, 
1533.00, 
1534.00, 
1535.00, 
1536.00, 
1537.00, 
1538.00, 
1539.00, 
1540.00, 
1541.00, 
1542.00, 
1543.00, 
1544.00, 
1545.00, 
1546.00, 
1547.00, 
1548.00, 
1549.00, 
1550.00, 
1551.00, 
1552.00, 
1553.00, 
1554.00, 
1555.00, 
1556.00, 
1557.00, 
1558.00, 
1559.00, 
1560.00, 
1561.00, 
1562.00, 
1563.00, 
1564.00, 
1565.00, 
1566.00, 
1567.00, 
1568.00, 
1569.00, 
1570.00, 
1571.00, 
1572.00, 
1573.00, 
1574.00, 
1575.00, 
1576.00, 
1577.00, 
1578.00, 
1579.00, 
1580.00, 
1581.00, 
1582.00, 
1583.00, 
1584.00, 
1585.00, 
1586.00, 
1587.00, 
1588.00, 
1589.00, 
1590.00, 
1591.00, 
1592.00, 
1593.00, 
1594.00, 
1595.00, 
1596.00, 
1597.00, 
1598.00, 
1599.00, 
1600.00, 
1601.00, 
1602.00, 
1603.00, 
1604.00, 
1605.00, 
1606.00, 
1607.00, 
1608.00, 
1609.00, 
1610.00, 
1611.00, 
1612.00, 
1613.00, 
1614.00, 
1615.00, 
1616.00, 
1617.00, 
1618.00, 
1619.00, 
1620.00, 
1621.00, 
1622.00, 
1623.00, 
1624.00, 
1625.00, 
1626.00, 
1627.00, 
1628.00, 
1629.00, 
1630.00, 
1631.00, 
1632.00, 
1633.00, 
1634.00, 
1635.00, 
1636.00, 
1637.00, 
1638.00, 
1639.00, 
1640.00, 
1641.00, 
1642.00, 
1643.00, 
1644.00, 
1645.00, 
1646.00, 
1647.00, 
1648.00, 
1649.00, 
1650.00, 
1651.00, 
1652.00, 
1653.00, 
1654.00, 
1655.00, 
1656.00, 
1657.00, 
1658.00, 
1659.00, 
1660.00, 
1661.00, 
1662.00, 
1663.00, 
1664.00, 
1665.00, 
1666.00, 
1667.00, 
1668.00, 
1669.00, 
1670.00, 
1671.00, 
1672.00, 
1673.00, 
1674.00, 
1675.00, 
1676.00, 
1677.00, 
1678.00, 
1679.00, 
1680.00, 
1681.00, 
1682.00, 
1683.00, 
1684.00, 
1685.00, 
1686.00, 
1687.00, 
1688.00, 
1689.00, 
1690.00, 
1691.00, 
1692.00, 
1693.00, 
1694.00, 
1695.00, 
1696.00, 
1697.00, 
1698.00, 
1699.00, 
1700.00, 
1701.00, 
1702.00, 
1703.00, 
1704.00, 
1705.00, 
1706.00, 
1707.00, 
1708.00, 
1709.00, 
1710.00, 
1711.00, 
1712.00, 
1713.00, 
1714.00, 
1715.00, 
1716.00, 
1717.00, 
1718.00, 
1719.00, 
1720.00, 
1721.00, 
1722.00, 
1723.00, 
1724.00, 
1725.00, 
1726.00, 
1727.00, 
1728.00, 
1729.00, 
1730.00, 
1731.00, 
1732.00, 
1733.00, 
1734.00, 
1735.00, 
1736.00, 
1737.00, 
1738.00, 
1739.00, 
1740.00, 
1741.00, 
1742.00, 
1743.00, 
1744.00, 
1745.00, 
1746.00, 
1747.00, 
1748.00, 
1749.00, 
1750.00, 
1751.00, 
1752.00, 
1753.00, 
1754.00, 
1755.00, 
1756.00, 
1757.00, 
1758.00, 
1759.00, 
1760.00, 
1761.00, 
1762.00, 
1763.00, 
1764.00, 
1765.00, 
1766.00, 
1767.00, 
1768.00, 
1769.00, 
1770.00, 
1771.00, 
1772.00, 
1773.00, 
1774.00, 
1775.00, 
1776.00, 
1777.00, 
1778.00, 
1779.00, 
1780.00, 
1781.00, 
1782.00, 
1783.00, 
1784.00, 
1785.00, 
1786.00, 
1787.00, 
1788.00, 
1789.00, 
1790.00, 
1791.00, 
1792.00, 
1793.00, 
1794.00, 
1795.00, 
1796.00, 
1797.00, 
1798.00, 
1799.00, 
1800.00, 
1801.00, 
1802.00, 
1803.00, 
1804.00, 
1805.00, 
1806.00, 
1807.00, 
1808.00, 
1809.00, 
1810.00, 
1811.00, 
1812.00, 
1813.00, 
1814.00, 
1815.00, 
1816.00, 
1817.00, 
1818.00, 
1819.00, 
1820.00, 
1821.00, 
1822.00, 
1823.00, 
1824.00, 
1825.00, 
1826.00, 
1827.00, 
1828.00, 
1829.00, 
1830.00, 
1831.00, 
1832.00, 
1833.00, 
1834.00, 
1835.00, 
1836.00, 
1837.00, 
1838.00, 
1839.00, 
1840.00, 
1841.00, 
1842.00, 
1843.00, 
1844.00, 
1845.00, 
1846.00, 
1847.00, 
1848.00, 
1849.00, 
1850.00, 
1851.00, 
1852.00, 
1853.00, 
1854.00, 
1855.00, 
1856.00, 
1857.00, 
1858.00, 
1859.00, 
1860.00, 
1861.00, 
1862.00, 
1863.00, 
1864.00, 
1865.00, 
1866.00, 
1867.00, 
1868.00, 
1869.00, 
1870.00, 
1871.00, 
1872.00, 
1873.00, 
1874.00, 
1875.00, 
1876.00, 
1877.00, 
1878.00, 
1879.00, 
1880.00, 
1881.00, 
1882.00, 
1883.00, 
1884.00, 
1885.00, 
1886.00, 
1887.00, 
1888.00, 
1889.00, 
1890.00, 
1891.00, 
1892.00, 
1893.00, 
1894.00, 
1895.00, 
1896.00, 
1897.00, 
1898.00, 
1899.00, 
1900.00, 
1901.00, 
1902.00, 
1903.00, 
1904.00, 
1905.00, 
1906.00, 
1907.00, 
1908.00, 
1909.00, 
1910.00, 
1911.00, 
1912.00, 
1913.00, 
1914.00, 
1915.00, 
1916.00, 
1917.00, 
1918.00, 
1919.00, 
1920.00, 
1921.00, 
1922.00, 
1923.00, 
1924.00, 
1925.00, 
1926.00, 
1927.00, 
1928.00, 
1929.00, 
1930.00, 
1931.00, 
1932.00, 
1933.00, 
1934.00, 
1935.00, 
1936.00, 
1937.00, 
1938.00, 
1939.00, 
1940.00, 
1941.00, 
1942.00, 
1943.00, 
1944.00, 
1945.00, 
1946.00, 
1947.00, 
1948.00, 
1949.00, 
1950.00, 
1951.00, 
1952.00, 
1953.00, 
1954.00, 
1955.00, 
1956.00, 
1957.00, 
1958.00, 
1959.00, 
1960.00, 
1961.00, 
1962.00, 
1963.00, 
1964.00, 
1965.00, 
1966.00, 
1967.00, 
1968.00, 
1969.00, 
1970.00, 
1971.00, 
1972.00, 
1973.00, 
1974.00, 
1975.00, 
1976.00, 
1977.00, 
1978.00, 
1979.00, 
1980.00, 
1981.00, 
1982.00, 
1983.00, 
1984.00, 
1985.00, 
1986.00, 
1987.00, 
1988.00, 
1989.00, 
1990.00, 
1991.00, 
1992.00, 
1993.00, 
1994.00, 
1995.00, 
1996.00, 
1997.00, 
1998.00, 
1999.00, 
2000.00, 
2001.00, 
2002.00, 
2003.00, 
2004.00, 
2005.00, 
2006.00, 
2007.00, 
2008.00, 
2009.00, 
2010.00, 
2011.00, 
2012.00, 
2013.00, 
2014.00, 
2015.00, 
2016.00, 
2017.00, 
2018.00, 
2019.00, 
2020.00, 
2021.00, 
2022.00, 
2023.00, 
2024.00, 
2025.00, 
2026.00, 
2027.00, 
2028.00, 
2029.00, 
2030.00, 
2031.00, 
2032.00, 
2033.00, 
2034.00, 
2035.00, 
2036.00, 
2037.00, 
2038.00, 
2039.00, 
2040.00, 
2041.00, 
2042.00, 
2043.00, 
2044.00, 
2045.00, 
2046.00, 
2047.00, 
2048.00, 
2049.00, 
2050.00, 
2051.00, 
2052.00, 
2053.00, 
2054.00, 
2055.00, 
2056.00, 
2057.00, 
2058.00, 
2059.00, 
2060.00, 
2061.00, 
2062.00, 
2063.00, 
2064.00, 
2065.00, 
2066.00, 
2067.00, 
2068.00, 
2069.00, 
2070.00, 
2071.00, 
2072.00, 
2073.00, 
2074.00, 
2075.00, 
2076.00, 
2077.00, 
2078.00, 
2079.00, 
2080.00, 
2081.00, 
2082.00, 
2083.00, 
2084.00, 
2085.00, 
2086.00, 
2087.00, 
2088.00, 
2089.00, 
2090.00, 
2091.00, 
2092.00, 
2093.00, 
2094.00, 
2095.00, 
2096.00, 
2097.00, 
2098.00, 
2099.00, 
2100.00, 
2101.00, 
2102.00, 
2103.00, 
2104.00, 
2105.00, 
2106.00, 
2107.00, 
2108.00, 
2109.00, 
2110.00, 
2111.00, 
2112.00, 
2113.00, 
2114.00, 
2115.00, 
2116.00, 
2117.00, 
2118.00, 
2119.00, 
2120.00, 
2121.00, 
2122.00, 
2123.00, 
2124.00, 
2125.00, 
2126.00, 
2127.00, 
2128.00, 
2129.00, 
2130.00, 
2131.00, 
2132.00, 
2133.00, 
2134.00, 
2135.00, 
2136.00, 
2137.00, 
2138.00, 
2139.00, 
2140.00, 
2141.00, 
2142.00, 
2143.00, 
2144.00, 
2145.00, 
2146.00, 
2147.00, 
2148.00, 
2149.00, 
2150.00, 
2151.00, 
2152.00, 
2153.00, 
2154.00, 
2155.00, 
2156.00, 
2157.00, 
2158.00, 
2159.00, 
2160.00, 
2161.00, 
2162.00, 
2163.00, 
2164.00, 
2165.00, 
2166.00, 
2167.00, 
2168.00, 
2169.00, 
2170.00, 
2171.00, 
2172.00, 
2173.00, 
2174.00, 
2175.00, 
2176.00, 
2177.00, 
2178.00, 
2179.00, 
2180.00, 
2181.00, 
2182.00, 
2183.00, 
2184.00, 
2185.00, 
2186.00, 
2187.00, 
2188.00, 
2189.00, 
2190.00, 
2191.00, 
2192.00, 
2193.00, 
2194.00, 
2195.00, 
2196.00, 
2197.00, 
2198.00, 
2199.00, 
2200.00, 
2201.00, 
2202.00, 
2203.00, 
2204.00, 
2205.00, 
2206.00, 
2207.00, 
2208.00, 
2209.00, 
2210.00, 
2211.00, 
2212.00, 
2213.00, 
2214.00, 
2215.00, 
2216.00, 
2217.00, 
2218.00, 
2219.00, 
2220.00, 
2221.00, 
2222.00, 
2223.00, 
2224.00, 
2225.00, 
2226.00, 
2227.00, 
2228.00, 
2229.00, 
2230.00, 
2231.00, 
2232.00, 
2233.00, 
2234.00, 
2235.00, 
2236.00, 
2237.00, 
2238.00, 
2239.00, 
2240.00, 
2241.00, 
2242.00, 
2243.00, 
2244.00, 
2245.00, 
2246.00, 
2247.00, 
2248.00, 
2249.00, 
2250.00, 
2251.00, 
2252.00, 
2253.00, 
2254.00, 
2255.00, 
2256.00, 
2257.00, 
2258.00, 
2259.00, 
2260.00, 
2261.00, 
2262.00, 
2263.00, 
2264.00, 
2265.00, 
2266.00, 
2267.00, 
2268.00, 
2269.00, 
2270.00, 
2271.00, 
2272.00, 
2273.00, 
2274.00, 
2275.00, 
2276.00, 
2277.00, 
2278.00, 
2279.00, 
2280.00, 
2281.00, 
2282.00, 
2283.00, 
2284.00, 
2285.00, 
2286.00, 
2287.00, 
2288.00, 
2289.00, 
2290.00, 
2291.00, 
2292.00, 
2293.00, 
2294.00, 
2295.00, 
2296.00, 
2297.00, 
2298.00, 
2299.00, 
2300.00, 
2301.00, 
2302.00, 
2303.00, 
2304.00, 
2305.00, 
2306.00, 
2307.00, 
2308.00, 
2309.00, 
2310.00, 
2311.00, 
2312.00, 
2313.00, 
2314.00, 
2315.00, 
2316.00, 
2317.00, 
2318.00, 
2319.00, 
2320.00, 
2321.00, 
2322.00, 
2323.00, 
2324.00, 
2325.00, 
2326.00, 
2327.00, 
2328.00, 
2329.00, 
2330.00, 
2331.00, 
2332.00, 
2333.00, 
2334.00, 
2335.00, 
2336.00, 
2337.00, 
2338.00, 
2339.00, 
2340.00, 
2341.00, 
2342.00, 
2343.00, 
2344.00, 
2345.00, 
2346.00, 
2347.00, 
2348.00, 
2349.00, 
2350.00, 
2351.00, 
2352.00, 
2353.00, 
2354.00, 
2355.00, 
2356.00, 
2357.00, 
2358.00, 
2359.00, 
2360.00, 
2361.00, 
2362.00, 
2363.00, 
2364.00, 
2365.00, 
2366.00, 
2367.00, 
2368.00, 
2369.00, 
2370.00, 
2371.00, 
2372.00, 
2373.00, 
2374.00, 
2375.00, 
2376.00, 
2377.00, 
2378.00, 
2379.00, 
2380.00, 
2381.00, 
2382.00, 
2383.00, 
2384.00, 
2385.00, 
2386.00, 
2387.00, 
2388.00, 
2389.00, 
2390.00, 
2391.00, 
2392.00, 
2393.00, 
2394.00, 
2395.00, 
2396.00, 
2397.00, 
2398.00, 
2399.00, 
2400.00, 
2401.00, 
2402.00, 
2403.00, 
2404.00, 
2405.00, 
2406.00, 
2407.00, 
2408.00, 
2409.00, 
2410.00, 
2411.00, 
2412.00, 
2413.00, 
2414.00, 
2415.00, 
2416.00, 
2417.00, 
2418.00, 
2419.00, 
2420.00, 
2421.00, 
2422.00, 
2423.00, 
2424.00, 
2425.00, 
2426.00, 
2427.00, 
2428.00, 
2429.00, 
2430.00, 
2431.00, 
2432.00, 
2433.00, 
2434.00, 
2435.00, 
2436.00, 
2437.00, 
2438.00, 
2439.00, 
2440.00, 
2441.00, 
2442.00, 
2443.00, 
2444.00, 
2445.00, 
2446.00, 
2447.00, 
2448.00, 
2449.00, 
2450.00, 
2451.00, 
2452.00, 
2453.00, 
2454.00, 
2455.00, 
2456.00, 
2457.00, 
2458.00, 
2459.00, 
2460.00, 
2461.00, 
2462.00, 
2463.00, 
2464.00, 
2465.00, 
2466.00, 
2467.00, 
2468.00, 
2469.00, 
2470.00, 
2471.00, 
2472.00, 
2473.00, 
2474.00, 
2475.00, 
2476.00, 
2477.00, 
2478.00, 
2479.00, 
2480.00, 
2481.00, 
2482.00, 
2483.00, 
2484.00, 
2485.00, 
2486.00, 
2487.00, 
2488.00, 
2489.00, 
2490.00, 
2491.00, 
2492.00, 
2493.00, 
2494.00, 
2495.00, 
2496.00, 
2497.00, 
2498.00, 
2499.00, 
2500.00, 
2501.00, 
2502.00, 
2503.00, 
2504.00, 
2505.00, 
2506.00, 
2507.00, 
2508.00, 
2509.00, 
2510.00, 
2511.00, 
2512.00, 
2513.00, 
2514.00, 
2515.00, 
2516.00, 
2517.00, 
2518.00, 
2519.00, 
2520.00, 
2521.00, 
2522.00, 
2523.00, 
2524.00, 
2525.00, 
2526.00, 
2527.00, 
2528.00, 
2529.00, 
2530.00, 
2531.00, 
2532.00, 
2533.00, 
2534.00, 
2535.00, 
2536.00, 
2537.00, 
2538.00, 
2539.00, 
2540.00, 
2541.00, 
2542.00, 
2543.00, 
2544.00, 
2545.00, 
2546.00, 
2547.00, 
2548.00, 
2549.00, 
2550.00, 
2551.00, 
2552.00, 
2553.00, 
2554.00, 
2555.00, 
2556.00, 
2557.00, 
2558.00, 
2559.00, 
2560.00, 
2561.00, 
2562.00, 
2563.00, 
2564.00, 
2565.00, 
2566.00, 
2567.00, 
2568.00, 
2569.00, 
2570.00, 
2571.00, 
2572.00, 
2573.00, 
2574.00, 
2575.00, 
2576.00, 
2577.00, 
2578.00, 
2579.00, 
2580.00, 
2581.00, 
2582.00, 
2583.00, 
2584.00, 
2585.00, 
2586.00, 
2587.00, 
2588.00, 
2589.00, 
2590.00, 
2591.00, 
2592.00, 
2593.00, 
2594.00, 
2595.00, 
2596.00, 
2597.00, 
2598.00, 
2599.00, 
2600.00, 
