"2bP3 - RawData"
"Wavelength nm.","T%"
200.00,0.004
201.00,0.005
202.00,-0.004
203.00,-0.003
204.00,-0.002
205.00,0.002
206.00,0.000
207.00,0.003
208.00,0.002
209.00,0.001
210.00,0.004
211.00,0.002
212.00,0.001
213.00,-0.001
214.00,-0.001
215.00,0.002
216.00,0.001
217.00,-0.003
218.00,0.003
219.00,0.001
220.00,0.000
221.00,0.000
222.00,0.002
223.00,-0.000
224.00,-0.002
225.00,0.002
226.00,0.002
227.00,-0.001
228.00,0.001
229.00,0.002
230.00,0.001
231.00,-0.000
232.00,0.001
233.00,0.002
234.00,-0.000
235.00,0.001
236.00,0.000
237.00,0.001
238.00,0.000
239.00,0.001
240.00,-0.001
241.00,0.000
242.00,0.000
243.00,0.001
244.00,-0.000
245.00,-0.000
246.00,-0.001
247.00,0.001
248.00,-0.002
249.00,0.001
250.00,0.002
251.00,0.000
252.00,-0.001
253.00,0.000
254.00,0.002
255.00,0.000
256.00,-0.001
257.00,0.001
258.00,-0.000
259.00,0.000
260.00,-0.001
261.00,-0.001
262.00,-0.001
263.00,-0.001
264.00,-0.000
265.00,0.000
266.00,-0.001
267.00,-0.001
268.00,0.001
269.00,-0.001
270.00,-0.000
271.00,0.000
272.00,0.002
273.00,-0.000
274.00,-0.001
275.00,0.000
276.00,-0.000
277.00,0.000
278.00,0.000
279.00,0.000
280.00,0.000
281.00,0.000
282.00,-0.002
283.00,0.001
284.00,-0.000
285.00,0.001
286.00,-0.000
287.00,-0.000
288.00,0.003
289.00,0.000
290.00,0.000
291.00,-0.001
292.00,-0.001
293.00,-0.001
294.00,-0.000
295.00,-0.000
296.00,0.001
297.00,-0.000
298.00,0.002
299.00,0.001
300.00,0.002
301.00,0.001
302.00,0.003
303.00,0.002
304.00,0.007
305.00,0.006
306.00,0.014
307.00,0.015
308.00,0.023
309.00,0.032
310.00,0.048
311.00,0.061
312.00,0.084
313.00,0.112
314.00,0.142
315.00,0.186
316.00,0.234
317.00,0.287
318.00,0.348
319.00,0.418
320.00,0.500
321.00,0.586
322.00,0.695
323.00,0.822
324.00,0.925
325.00,1.052
326.00,1.173
327.00,1.301
328.00,1.443
329.00,1.585
330.00,1.747
331.00,1.879
332.00,2.035
333.00,2.189
334.00,2.334
335.00,2.488
336.00,2.624
337.00,2.770
338.00,2.902
339.00,3.022
340.00,3.152
341.00,3.289
342.00,3.400
343.00,3.516
344.00,3.591
345.00,3.701
346.00,3.781
347.00,3.856
348.00,3.948
349.00,4.005
350.00,4.069
351.00,4.122
352.00,4.168
353.00,4.215
354.00,4.260
355.00,4.289
356.00,4.348
357.00,4.352
358.00,4.373
359.00,4.399
360.00,4.397
361.00,4.402
362.00,4.386
363.00,4.396
364.00,4.379
365.00,4.391
366.00,4.369
367.00,4.373
368.00,4.360
369.00,4.351
370.00,4.319
371.00,4.330
372.00,4.287
373.00,4.285
374.00,4.232
375.00,4.208
376.00,4.171
377.00,4.134
378.00,4.099
379.00,4.064
380.00,4.052
381.00,4.028
382.00,4.002
383.00,3.970
384.00,3.953
385.00,3.948
386.00,3.908
387.00,3.899
388.00,3.895
389.00,3.868
390.00,3.855
391.00,3.844
392.00,3.827
393.00,3.806
394.00,3.792
395.00,3.772
396.00,3.746
397.00,3.730
398.00,3.717
399.00,3.714
400.00,3.688
401.00,3.690
402.00,3.656
403.00,3.657
404.00,3.640
405.00,3.613
406.00,3.616
407.00,3.591
408.00,3.587
409.00,3.597
410.00,3.578
411.00,3.571
412.00,3.562
413.00,3.577
414.00,3.592
415.00,3.577
416.00,3.578
417.00,3.559
418.00,3.556
419.00,3.562
420.00,3.558
421.00,3.571
422.00,3.563
423.00,3.579
424.00,3.586
425.00,3.603
426.00,3.611
427.00,3.624
428.00,3.634
429.00,3.654
430.00,3.672
431.00,3.690
432.00,3.714
433.00,3.732
434.00,3.737
435.00,3.771
436.00,3.799
437.00,3.829
438.00,3.851
439.00,3.890
440.00,3.916
441.00,3.956
442.00,3.987
443.00,4.021
444.00,4.069
445.00,4.087
446.00,4.147
447.00,4.184
448.00,4.209
449.00,4.279
450.00,4.318
451.00,4.378
452.00,4.423
453.00,4.473
454.00,4.524
455.00,4.576
456.00,4.636
457.00,4.691
458.00,4.740
459.00,4.797
460.00,4.856
461.00,4.905
462.00,4.977
463.00,5.041
464.00,5.104
465.00,5.169
466.00,5.245
467.00,5.339
468.00,5.442
469.00,5.507
470.00,5.542
471.00,5.631
472.00,5.727
473.00,5.810
474.00,5.879
475.00,5.989
476.00,6.082
477.00,6.162
478.00,6.236
479.00,6.345
480.00,6.444
481.00,6.535
482.00,6.626
483.00,6.714
484.00,6.791
485.00,6.953
486.00,7.049
487.00,7.177
488.00,7.256
489.00,7.375
490.00,7.453
491.00,7.570
492.00,7.711
493.00,7.803
494.00,7.868
495.00,8.013
496.00,8.074
497.00,8.179
498.00,8.271
499.00,8.424
500.00,8.506
501.00,8.626
502.00,8.728
503.00,8.849
504.00,8.954
505.00,9.064
506.00,9.192
507.00,9.290
508.00,9.368
509.00,9.499
510.00,9.617
511.00,9.766
512.00,9.905
513.00,10.004
514.00,10.121
515.00,10.143
516.00,10.281
517.00,10.411
518.00,10.454
519.00,10.557
520.00,10.685
521.00,10.758
522.00,10.915
523.00,11.060
524.00,11.116
525.00,11.245
526.00,11.332
527.00,11.429
528.00,11.494
529.00,11.616
530.00,11.671
531.00,11.767
532.00,11.779
533.00,11.905
534.00,12.003
535.00,12.121
536.00,12.230
537.00,12.299
538.00,12.432
539.00,12.503
540.00,12.603
541.00,12.704
542.00,12.764
543.00,12.857
544.00,12.958
545.00,13.046
546.00,13.129
547.00,13.222
548.00,13.286
549.00,13.384
550.00,13.452
551.00,13.500
552.00,13.593
553.00,13.626
554.00,13.687
555.00,13.761
556.00,13.803
557.00,13.922
558.00,13.985
559.00,14.082
560.00,14.150
561.00,14.183
562.00,14.267
563.00,14.348
564.00,14.385
565.00,14.417
566.00,14.542
567.00,14.613
568.00,14.705
569.00,14.731
570.00,14.764
571.00,14.810
572.00,14.907
573.00,14.900
574.00,14.968
575.00,15.002
576.00,15.051
577.00,15.157
578.00,15.231
579.00,15.289
580.00,15.354
581.00,15.444
582.00,15.496
583.00,15.569
584.00,15.692
585.00,15.713
586.00,15.763
587.00,15.883
588.00,15.930
589.00,15.982
590.00,16.082
591.00,16.117
592.00,16.137
593.00,16.229
594.00,16.265
595.00,16.375
596.00,16.488
597.00,16.487
598.00,16.540
599.00,16.559
600.00,16.599
601.00,16.670
602.00,16.684
603.00,16.812
604.00,16.836
605.00,16.926
606.00,17.031
607.00,17.097
608.00,17.174
609.00,17.309
610.00,17.333
611.00,17.327
612.00,17.435
613.00,17.483
614.00,17.629
615.00,17.668
616.00,17.728
617.00,17.739
618.00,17.803
619.00,17.900
620.00,17.982
621.00,18.081
622.00,18.193
623.00,18.267
624.00,18.363
625.00,18.494
626.00,18.576
627.00,18.712
628.00,18.777
629.00,18.870
630.00,19.037
631.00,19.060
632.00,19.201
633.00,19.332
634.00,19.429
635.00,19.496
636.00,19.626
637.00,19.715
638.00,19.818
639.00,19.941
640.00,20.060
641.00,20.209
642.00,20.378
643.00,20.486
644.00,20.591
645.00,20.663
646.00,20.831
647.00,21.003
648.00,21.127
649.00,21.369
650.00,21.463
651.00,21.541
652.00,21.693
653.00,21.833
654.00,21.979
655.00,22.277
656.00,22.260
657.00,23.047
658.00,23.172
659.00,23.010
660.00,22.916
661.00,23.197
662.00,23.384
663.00,23.558
664.00,23.675
665.00,23.608
666.00,24.026
667.00,24.336
668.00,24.408
669.00,24.353
670.00,24.688
671.00,24.641
672.00,24.926
673.00,25.138
674.00,25.203
675.00,25.495
676.00,25.692
677.00,25.768
678.00,26.250
679.00,26.285
680.00,26.610
681.00,26.974
682.00,27.258
683.00,27.402
684.00,27.420
685.00,27.561
686.00,27.639
687.00,27.894
688.00,28.149
689.00,28.394
690.00,28.494
691.00,28.852
692.00,28.942
693.00,29.033
694.00,29.453
695.00,29.456
696.00,29.771
697.00,30.020
698.00,30.333
699.00,30.288
700.00,30.410
701.00,30.787
702.00,31.133
703.00,31.433
704.00,31.832
705.00,31.837
706.00,31.736
707.00,31.915
708.00,32.047
709.00,32.360
710.00,32.347
711.00,32.575
712.00,33.227
713.00,33.319
714.00,33.317
715.00,33.764
716.00,34.121
717.00,34.149
718.00,34.373
719.00,34.796
720.00,35.166
721.00,38.457
722.00,38.626
723.00,38.790
724.00,38.926
725.00,39.147
726.00,39.294
727.00,39.459
728.00,39.702
729.00,39.836
730.00,40.097
731.00,40.267
732.00,40.436
733.00,40.599
734.00,40.830
735.00,41.014
736.00,41.118
737.00,41.330
738.00,41.576
739.00,41.720
740.00,41.843
741.00,42.048
742.00,42.195
743.00,42.358
744.00,42.422
745.00,42.590
746.00,42.718
747.00,42.910
748.00,43.000
749.00,43.185
750.00,43.334
751.00,43.472
752.00,43.638
753.00,43.645
754.00,43.777
755.00,43.871
756.00,44.032
757.00,44.164
758.00,44.312
759.00,44.434
760.00,44.520
761.00,44.695
762.00,44.831
763.00,44.985
764.00,45.103
765.00,45.244
766.00,45.325
767.00,45.401
768.00,45.537
769.00,45.598
770.00,45.796
771.00,45.846
772.00,46.016
773.00,46.087
774.00,46.298
775.00,46.351
776.00,46.408
777.00,46.528
778.00,46.602
779.00,46.769
780.00,46.856
781.00,46.931
782.00,47.019
783.00,47.026
784.00,47.126
785.00,47.124
786.00,47.262
787.00,47.345
788.00,47.413
789.00,47.487
790.00,47.519
791.00,47.698
792.00,47.629
793.00,47.793
794.00,47.876
795.00,47.875
796.00,48.047
797.00,47.979
798.00,48.033
799.00,48.076
800.00,48.122
801.00,48.109
802.00,48.044
803.00,48.201
804.00,48.266
805.00,48.321
806.00,48.325
807.00,48.405
808.00,48.539
809.00,48.471
810.00,48.595
811.00,48.561
812.00,48.707
813.00,48.755
814.00,48.753
815.00,48.845
816.00,48.821
817.00,48.877
818.00,48.867
819.00,48.889
820.00,49.007
821.00,48.921
822.00,48.986
823.00,49.171
824.00,49.147
825.00,49.018
826.00,48.999
827.00,49.175
828.00,48.996
829.00,49.257
830.00,49.221
831.00,51.673
832.00,51.696
833.00,51.725
834.00,51.732
835.00,51.792
836.00,51.814
837.00,51.830
838.00,51.847
839.00,51.881
840.00,51.930
841.00,51.907
842.00,51.950
843.00,51.932
844.00,52.004
845.00,51.890
846.00,51.927
847.00,51.890
848.00,52.010
849.00,52.094
850.00,52.039
851.00,52.084
852.00,51.986
853.00,52.079
854.00,52.081
855.00,52.075
856.00,51.964
857.00,52.007
858.00,52.079
859.00,52.104
860.00,52.143
861.00,52.068
862.00,52.111
863.00,52.057
864.00,52.205
865.00,52.090
866.00,52.149
867.00,52.122
868.00,52.204
869.00,52.210
870.00,52.166
871.00,52.197
872.00,52.235
873.00,52.232
874.00,52.129
875.00,52.226
876.00,52.163
877.00,52.312
878.00,52.210
879.00,52.313
880.00,52.307
881.00,52.344
882.00,52.191
883.00,52.364
884.00,52.335
885.00,52.311
886.00,52.245
887.00,52.301
888.00,52.348
889.00,52.311
890.00,52.178
891.00,52.248
892.00,52.282
893.00,52.280
894.00,52.194
895.00,52.269
896.00,52.310
897.00,52.291
898.00,52.230
899.00,52.138
900.00,52.203
901.00,52.136
902.00,52.090
903.00,52.259
904.00,52.293
905.00,52.238
906.00,52.126
907.00,52.173
908.00,52.305
909.00,52.250
910.00,52.169
911.00,52.056
912.00,52.167
913.00,52.075
914.00,52.118
915.00,52.245
916.00,52.394
917.00,52.256
918.00,52.123
919.00,52.207
920.00,52.331
921.00,52.164
922.00,52.037
923.00,52.116
924.00,52.297
925.00,52.087
926.00,52.028
927.00,52.077
928.00,52.236
929.00,52.059
930.00,52.125
931.00,52.013
932.00,52.144
933.00,51.996
934.00,52.012
935.00,52.023
936.00,52.121
937.00,51.955
938.00,51.876
939.00,51.932
940.00,52.055
941.00,51.954
942.00,51.858
943.00,51.927
944.00,52.007
945.00,51.905
946.00,51.865
947.00,51.902
948.00,51.875
949.00,51.843
950.00,51.762
951.00,51.838
952.00,51.826
953.00,51.812
954.00,51.685
955.00,51.724
956.00,51.708
957.00,51.685
958.00,51.642
959.00,51.663
960.00,51.649
961.00,51.633
962.00,51.601
963.00,51.602
964.00,51.630
965.00,51.597
966.00,51.610
967.00,51.582
968.00,51.642
969.00,51.556
970.00,51.537
971.00,51.628
972.00,51.591
973.00,51.593
974.00,51.599
975.00,51.626
976.00,51.574
977.00,51.593
978.00,51.615
979.00,51.623
980.00,51.622
981.00,51.604
982.00,51.612
983.00,51.563
984.00,51.601
985.00,51.583
986.00,51.599
987.00,51.588
988.00,51.579
989.00,51.551
990.00,51.524
991.00,51.547
992.00,51.542
993.00,51.550
994.00,51.506
995.00,51.474
996.00,51.501
997.00,51.478
998.00,51.503
999.00,51.484
1000.00,51.475
1001.00,51.454
1002.00,51.436
1003.00,51.462
1004.00,51.418
1005.00,51.387
1006.00,51.400
1007.00,51.473
1008.00,51.410
1009.00,51.394
1010.00,51.391
1011.00,51.358
1012.00,51.373
1013.00,51.351
1014.00,51.346
1015.00,51.318
1016.00,51.281
1017.00,51.292
1018.00,51.274
1019.00,51.265
1020.00,51.250
1021.00,51.258
1022.00,51.233
1023.00,51.207
1024.00,51.166
1025.00,51.184
1026.00,51.209
1027.00,51.162
1028.00,51.153
1029.00,51.144
1030.00,51.147
1031.00,51.118
1032.00,51.068
1033.00,51.068
1034.00,51.071
1035.00,51.033
1036.00,50.973
1037.00,50.983
1038.00,50.963
1039.00,50.940
1040.00,50.916
1041.00,50.858
1042.00,50.869
1043.00,50.858
1044.00,50.911
1045.00,50.873
1046.00,50.850
1047.00,50.865
1048.00,50.917
1049.00,50.914
1050.00,50.948
1051.00,50.946
1052.00,50.986
1053.00,50.988
1054.00,51.013
1055.00,50.997
1056.00,50.998
1057.00,51.024
1058.00,51.018
1059.00,51.009
1060.00,50.978
1061.00,50.993
1062.00,50.976
1063.00,50.963
1064.00,50.942
1065.00,50.984
1066.00,50.947
1067.00,50.964
1068.00,50.956
1069.00,50.943
1070.00,50.919
1071.00,50.893
1072.00,50.912
1073.00,50.916
1074.00,50.899
1075.00,50.880
1076.00,50.873
1077.00,50.871
1078.00,50.864
1079.00,50.843
1080.00,50.846
1081.00,50.828
1082.00,50.841
1083.00,50.821
1084.00,50.840
1085.00,50.817
1086.00,50.821
1087.00,50.800
1088.00,50.798
1089.00,50.781
1090.00,50.792
1091.00,50.777
1092.00,50.787
1093.00,50.746
1094.00,50.747
1095.00,50.723
1096.00,50.718
1097.00,50.709
1098.00,50.715
1099.00,50.677
1100.00,50.683
1101.00,50.661
1102.00,50.664
1103.00,50.660
1104.00,50.663
1105.00,50.635
1106.00,50.633
1107.00,50.608
1108.00,50.608
1109.00,50.600
1110.00,50.605
1111.00,50.578
1112.00,50.582
1113.00,50.582
1114.00,50.575
1115.00,50.573
1116.00,50.571
1117.00,50.540
1118.00,50.516
1119.00,50.498
1120.00,50.506
1121.00,50.515
1122.00,50.524
1123.00,50.472
1124.00,50.459
1125.00,50.456
1126.00,50.495
1127.00,50.487
1128.00,50.478
1129.00,50.426
1130.00,50.468
1131.00,50.460
1132.00,50.430
1133.00,50.470
1134.00,50.395
1135.00,50.333
1136.00,50.426
1137.00,50.425
1138.00,50.430
1139.00,50.421
1140.00,50.387
1141.00,50.368
1142.00,50.399
1143.00,50.426
1144.00,50.382
1145.00,50.367
1146.00,50.325
1147.00,50.320
1148.00,50.338
1149.00,50.352
1150.00,50.385
1151.00,50.380
1152.00,50.354
1153.00,50.335
1154.00,50.344
1155.00,50.356
1156.00,50.353
1157.00,50.344
1158.00,50.338
1159.00,50.334
1160.00,50.316
1161.00,50.334
1162.00,50.315
1163.00,50.327
1164.00,50.313
1165.00,50.292
1166.00,50.291
1167.00,50.299
1168.00,50.314
1169.00,50.308
1170.00,50.293
1171.00,50.280
1172.00,50.259
1173.00,50.261
1174.00,50.291
1175.00,50.269
1176.00,50.270
1177.00,50.255
1178.00,50.243
1179.00,50.270
1180.00,50.289
1181.00,50.273
1182.00,50.269
1183.00,50.257
1184.00,50.248
1185.00,50.288
1186.00,50.269
1187.00,50.292
1188.00,50.277
1189.00,50.314
1190.00,50.283
1191.00,50.274
1192.00,50.278
1193.00,50.262
1194.00,50.269
1195.00,50.228
1196.00,50.254
1197.00,50.261
1198.00,50.265
1199.00,50.249
1200.00,50.238
1201.00,50.243
1202.00,50.231
1203.00,50.235
1204.00,50.228
1205.00,50.238
1206.00,50.223
1207.00,50.241
1208.00,50.211
1209.00,50.242
1210.00,50.241
1211.00,50.226
1212.00,50.237
1213.00,50.195
1214.00,50.243
1215.00,50.231
1216.00,50.224
1217.00,50.211
1218.00,50.215
1219.00,50.219
1220.00,50.207
1221.00,50.241
1222.00,50.231
1223.00,50.252
1224.00,50.222
1225.00,50.218
1226.00,50.201
1227.00,50.223
1228.00,50.231
1229.00,50.238
1230.00,50.277
1231.00,50.249
1232.00,50.261
1233.00,50.255
1234.00,50.262
1235.00,50.262
1236.00,50.249
1237.00,50.243
1238.00,50.263
1239.00,50.258
1240.00,50.249
1241.00,50.261
1242.00,50.265
1243.00,50.286
1244.00,50.244
1245.00,50.259
1246.00,50.291
1247.00,50.294
1248.00,50.294
1249.00,50.308
1250.00,50.300
1251.00,50.279
1252.00,50.278
1253.00,50.294
1254.00,50.299
1255.00,50.257
1256.00,50.224
1257.00,50.212
1258.00,50.318
1259.00,50.324
1260.00,50.324
1261.00,50.294
1262.00,50.307
1263.00,50.305
1264.00,50.304
1265.00,50.335
1266.00,50.328
1267.00,50.341
1268.00,50.348
1269.00,50.343
1270.00,50.374
1271.00,50.370
1272.00,50.359
1273.00,50.377
1274.00,50.372
1275.00,50.362
1276.00,50.366
1277.00,50.378
1278.00,50.420
1279.00,50.408
1280.00,50.391
1281.00,50.404
1282.00,50.399
1283.00,50.390
1284.00,50.354
1285.00,50.361
1286.00,50.416
1287.00,50.402
1288.00,50.409
1289.00,50.409
1290.00,50.444
1291.00,50.436
1292.00,50.432
1293.00,50.433
1294.00,50.423
1295.00,50.468
1296.00,50.485
1297.00,50.463
1298.00,50.477
1299.00,50.436
1300.00,50.459
1301.00,50.470
1302.00,50.513
1303.00,50.507
1304.00,50.489
1305.00,50.513
1306.00,50.488
1307.00,50.482
1308.00,50.472
1309.00,50.538
1310.00,50.547
1311.00,50.497
1312.00,50.477
1313.00,50.513
1314.00,50.562
1315.00,50.562
1316.00,50.561
1317.00,50.579
1318.00,50.587
1319.00,50.585
1320.00,50.611
1321.00,50.666
1322.00,50.725
1323.00,50.694
1324.00,50.660
1325.00,50.688
1326.00,50.777
1327.00,50.681
1328.00,50.641
1329.00,50.699
1330.00,50.726
1331.00,50.685
1332.00,50.640
1333.00,50.699
1334.00,50.785
1335.00,50.718
1336.00,50.689
1337.00,50.751
1338.00,50.880
1339.00,50.905
1340.00,50.978
1341.00,51.025
1342.00,51.100
1343.00,51.163
1344.00,51.234
1345.00,51.296
1346.00,51.291
1347.00,51.286
1348.00,51.370
1349.00,51.384
1350.00,51.345
1351.00,51.254
1352.00,51.200
1353.00,51.306
1354.00,51.400
1355.00,51.399
1356.00,51.524
1357.00,51.451
1358.00,51.474
1359.00,50.924
1360.00,50.700
1361.00,50.674
1362.00,51.184
1363.00,51.948
1364.00,51.978
1365.00,51.790
1366.00,51.509
1367.00,51.324
1368.00,51.517
1369.00,51.673
1370.00,51.343
1371.00,51.779
1372.00,51.560
1373.00,51.530
1374.00,51.431
1375.00,51.344
1376.00,51.318
1377.00,51.281
1378.00,51.509
1379.00,51.234
1380.00,51.197
1381.00,51.285
1382.00,51.625
1383.00,51.713
1384.00,51.664
1385.00,51.518
1386.00,51.156
1387.00,51.297
1388.00,51.741
1389.00,51.763
1390.00,51.128
1391.00,51.165
1392.00,51.549
1393.00,52.088
1394.00,51.391
1395.00,51.377
1396.00,52.017
1397.00,52.104
1398.00,51.506
1399.00,51.613
1400.00,51.696
1401.00,51.480
1402.00,51.568
1403.00,51.342
1404.00,51.572
1405.00,51.581
1406.00,51.411
1407.00,51.494
1408.00,51.359
1409.00,51.501
1410.00,51.442
1411.00,51.369
1412.00,51.311
1413.00,51.300
1414.00,51.349
1415.00,51.545
1416.00,51.564
1417.00,51.699
1418.00,51.559
1419.00,51.471
1420.00,51.600
1421.00,51.712
1422.00,51.547
1423.00,51.497
1424.00,51.611
1425.00,51.617
1426.00,51.575
1427.00,51.603
1428.00,51.669
1429.00,51.693
1430.00,51.647
1431.00,51.610
1432.00,51.714
1433.00,51.728
1434.00,51.706
1435.00,51.780
1436.00,51.720
1437.00,51.714
1438.00,51.741
1439.00,51.794
1440.00,51.807
1441.00,51.826
1442.00,51.839
1443.00,51.889
1444.00,51.879
1445.00,51.833
1446.00,51.912
1447.00,51.974
1448.00,52.018
1449.00,51.976
1450.00,51.936
1451.00,51.982
1452.00,52.019
1453.00,52.042
1454.00,52.017
1455.00,52.051
1456.00,52.061
1457.00,52.037
1458.00,52.072
1459.00,52.076
1460.00,52.090
1461.00,52.148
1462.00,52.151
1463.00,52.134
1464.00,52.144
1465.00,52.164
1466.00,52.168
1467.00,52.205
1468.00,52.224
1469.00,52.211
1470.00,52.231
1471.00,52.251
1472.00,52.276
1473.00,52.291
1474.00,52.331
1475.00,52.335
1476.00,52.328
1477.00,52.327
1478.00,52.357
1479.00,52.360
1480.00,52.383
1481.00,52.384
1482.00,52.413
1483.00,52.417
1484.00,52.428
1485.00,52.444
1486.00,52.457
1487.00,52.482
1488.00,52.480
1489.00,52.479
1490.00,52.484
1491.00,52.514
1492.00,52.552
1493.00,52.522
1494.00,52.533
1495.00,52.527
1496.00,52.580
1497.00,52.573
1498.00,52.563
1499.00,52.609
1500.00,52.617
1501.00, 
1502.00, 
1503.00, 
1504.00, 
1505.00, 
1506.00, 
1507.00, 
1508.00, 
1509.00, 
1510.00, 
1511.00, 
1512.00, 
1513.00, 
1514.00, 
1515.00, 
1516.00, 
1517.00, 
1518.00, 
1519.00, 
1520.00, 
1521.00, 
1522.00, 
1523.00, 
1524.00, 
1525.00, 
1526.00, 
1527.00, 
1528.00, 
1529.00, 
1530.00, 
1531.00, 
1532.00, 
1533.00, 
1534.00, 
1535.00, 
1536.00, 
1537.00, 
1538.00, 
1539.00, 
1540.00, 
1541.00, 
1542.00, 
1543.00, 
1544.00, 
1545.00, 
1546.00, 
1547.00, 
1548.00, 
1549.00, 
1550.00, 
1551.00, 
1552.00, 
1553.00, 
1554.00, 
1555.00, 
1556.00, 
1557.00, 
1558.00, 
1559.00, 
1560.00, 
1561.00, 
1562.00, 
1563.00, 
1564.00, 
1565.00, 
1566.00, 
1567.00, 
1568.00, 
1569.00, 
1570.00, 
1571.00, 
1572.00, 
1573.00, 
1574.00, 
1575.00, 
1576.00, 
1577.00, 
1578.00, 
1579.00, 
1580.00, 
1581.00, 
1582.00, 
1583.00, 
1584.00, 
1585.00, 
1586.00, 
1587.00, 
1588.00, 
1589.00, 
1590.00, 
1591.00, 
1592.00, 
1593.00, 
1594.00, 
1595.00, 
1596.00, 
1597.00, 
1598.00, 
1599.00, 
1600.00, 
1601.00, 
1602.00, 
1603.00, 
1604.00, 
1605.00, 
1606.00, 
1607.00, 
1608.00, 
1609.00, 
1610.00, 
1611.00, 
1612.00, 
1613.00, 
1614.00, 
1615.00, 
1616.00, 
1617.00, 
1618.00, 
1619.00, 
1620.00, 
1621.00, 
1622.00, 
1623.00, 
1624.00, 
1625.00, 
1626.00, 
1627.00, 
1628.00, 
1629.00, 
1630.00, 
1631.00, 
1632.00, 
1633.00, 
1634.00, 
1635.00, 
1636.00, 
1637.00, 
1638.00, 
1639.00, 
1640.00, 
1641.00, 
1642.00, 
1643.00, 
1644.00, 
1645.00, 
1646.00, 
1647.00, 
1648.00, 
1649.00, 
1650.00, 
1651.00, 
1652.00, 
1653.00, 
1654.00, 
1655.00, 
1656.00, 
1657.00, 
1658.00, 
1659.00, 
1660.00, 
1661.00, 
1662.00, 
1663.00, 
1664.00, 
1665.00, 
1666.00, 
1667.00, 
1668.00, 
1669.00, 
1670.00, 
1671.00, 
1672.00, 
1673.00, 
1674.00, 
1675.00, 
1676.00, 
1677.00, 
1678.00, 
1679.00, 
1680.00, 
1681.00, 
1682.00, 
1683.00, 
1684.00, 
1685.00, 
1686.00, 
1687.00, 
1688.00, 
1689.00, 
1690.00, 
1691.00, 
1692.00, 
1693.00, 
1694.00, 
1695.00, 
1696.00, 
1697.00, 
1698.00, 
1699.00, 
1700.00, 
1701.00, 
1702.00, 
1703.00, 
1704.00, 
1705.00, 
1706.00, 
1707.00, 
1708.00, 
1709.00, 
1710.00, 
1711.00, 
1712.00, 
1713.00, 
1714.00, 
1715.00, 
1716.00, 
1717.00, 
1718.00, 
1719.00, 
1720.00, 
1721.00, 
1722.00, 
1723.00, 
1724.00, 
1725.00, 
1726.00, 
1727.00, 
1728.00, 
1729.00, 
1730.00, 
1731.00, 
1732.00, 
1733.00, 
1734.00, 
1735.00, 
1736.00, 
1737.00, 
1738.00, 
1739.00, 
1740.00, 
1741.00, 
1742.00, 
1743.00, 
1744.00, 
1745.00, 
1746.00, 
1747.00, 
1748.00, 
1749.00, 
1750.00, 
1751.00, 
1752.00, 
1753.00, 
1754.00, 
1755.00, 
1756.00, 
1757.00, 
1758.00, 
1759.00, 
1760.00, 
1761.00, 
1762.00, 
1763.00, 
1764.00, 
1765.00, 
1766.00, 
1767.00, 
1768.00, 
1769.00, 
1770.00, 
1771.00, 
1772.00, 
1773.00, 
1774.00, 
1775.00, 
1776.00, 
1777.00, 
1778.00, 
1779.00, 
1780.00, 
1781.00, 
1782.00, 
1783.00, 
1784.00, 
1785.00, 
1786.00, 
1787.00, 
1788.00, 
1789.00, 
1790.00, 
1791.00, 
1792.00, 
1793.00, 
1794.00, 
1795.00, 
1796.00, 
1797.00, 
1798.00, 
1799.00, 
1800.00, 
1801.00, 
1802.00, 
1803.00, 
1804.00, 
1805.00, 
1806.00, 
1807.00, 
1808.00, 
1809.00, 
1810.00, 
1811.00, 
1812.00, 
1813.00, 
1814.00, 
1815.00, 
1816.00, 
1817.00, 
1818.00, 
1819.00, 
1820.00, 
1821.00, 
1822.00, 
1823.00, 
1824.00, 
1825.00, 
1826.00, 
1827.00, 
1828.00, 
1829.00, 
1830.00, 
1831.00, 
1832.00, 
1833.00, 
1834.00, 
1835.00, 
1836.00, 
1837.00, 
1838.00, 
1839.00, 
1840.00, 
1841.00, 
1842.00, 
1843.00, 
1844.00, 
1845.00, 
1846.00, 
1847.00, 
1848.00, 
1849.00, 
1850.00, 
1851.00, 
1852.00, 
1853.00, 
1854.00, 
1855.00, 
1856.00, 
1857.00, 
1858.00, 
1859.00, 
1860.00, 
1861.00, 
1862.00, 
1863.00, 
1864.00, 
1865.00, 
1866.00, 
1867.00, 
1868.00, 
1869.00, 
1870.00, 
1871.00, 
1872.00, 
1873.00, 
1874.00, 
1875.00, 
1876.00, 
1877.00, 
1878.00, 
1879.00, 
1880.00, 
1881.00, 
1882.00, 
1883.00, 
1884.00, 
1885.00, 
1886.00, 
1887.00, 
1888.00, 
1889.00, 
1890.00, 
1891.00, 
1892.00, 
1893.00, 
1894.00, 
1895.00, 
1896.00, 
1897.00, 
1898.00, 
1899.00, 
1900.00, 
1901.00, 
1902.00, 
1903.00, 
1904.00, 
1905.00, 
1906.00, 
1907.00, 
1908.00, 
1909.00, 
1910.00, 
1911.00, 
1912.00, 
1913.00, 
1914.00, 
1915.00, 
1916.00, 
1917.00, 
1918.00, 
1919.00, 
1920.00, 
1921.00, 
1922.00, 
1923.00, 
1924.00, 
1925.00, 
1926.00, 
1927.00, 
1928.00, 
1929.00, 
1930.00, 
1931.00, 
1932.00, 
1933.00, 
1934.00, 
1935.00, 
1936.00, 
1937.00, 
1938.00, 
1939.00, 
1940.00, 
1941.00, 
1942.00, 
1943.00, 
1944.00, 
1945.00, 
1946.00, 
1947.00, 
1948.00, 
1949.00, 
1950.00, 
1951.00, 
1952.00, 
1953.00, 
1954.00, 
1955.00, 
1956.00, 
1957.00, 
1958.00, 
1959.00, 
1960.00, 
1961.00, 
1962.00, 
1963.00, 
1964.00, 
1965.00, 
1966.00, 
1967.00, 
1968.00, 
1969.00, 
1970.00, 
1971.00, 
1972.00, 
1973.00, 
1974.00, 
1975.00, 
1976.00, 
1977.00, 
1978.00, 
1979.00, 
1980.00, 
1981.00, 
1982.00, 
1983.00, 
1984.00, 
1985.00, 
1986.00, 
1987.00, 
1988.00, 
1989.00, 
1990.00, 
1991.00, 
1992.00, 
1993.00, 
1994.00, 
1995.00, 
1996.00, 
1997.00, 
1998.00, 
1999.00, 
2000.00, 
2001.00, 
2002.00, 
2003.00, 
2004.00, 
2005.00, 
2006.00, 
2007.00, 
2008.00, 
2009.00, 
2010.00, 
2011.00, 
2012.00, 
2013.00, 
2014.00, 
2015.00, 
2016.00, 
2017.00, 
2018.00, 
2019.00, 
2020.00, 
2021.00, 
2022.00, 
2023.00, 
2024.00, 
2025.00, 
2026.00, 
2027.00, 
2028.00, 
2029.00, 
2030.00, 
2031.00, 
2032.00, 
2033.00, 
2034.00, 
2035.00, 
2036.00, 
2037.00, 
2038.00, 
2039.00, 
2040.00, 
2041.00, 
2042.00, 
2043.00, 
2044.00, 
2045.00, 
2046.00, 
2047.00, 
2048.00, 
2049.00, 
2050.00, 
2051.00, 
2052.00, 
2053.00, 
2054.00, 
2055.00, 
2056.00, 
2057.00, 
2058.00, 
2059.00, 
2060.00, 
2061.00, 
2062.00, 
2063.00, 
2064.00, 
2065.00, 
2066.00, 
2067.00, 
2068.00, 
2069.00, 
2070.00, 
2071.00, 
2072.00, 
2073.00, 
2074.00, 
2075.00, 
2076.00, 
2077.00, 
2078.00, 
2079.00, 
2080.00, 
2081.00, 
2082.00, 
2083.00, 
2084.00, 
2085.00, 
2086.00, 
2087.00, 
2088.00, 
2089.00, 
2090.00, 
2091.00, 
2092.00, 
2093.00, 
2094.00, 
2095.00, 
2096.00, 
2097.00, 
2098.00, 
2099.00, 
2100.00, 
2101.00, 
2102.00, 
2103.00, 
2104.00, 
2105.00, 
2106.00, 
2107.00, 
2108.00, 
2109.00, 
2110.00, 
2111.00, 
2112.00, 
2113.00, 
2114.00, 
2115.00, 
2116.00, 
2117.00, 
2118.00, 
2119.00, 
2120.00, 
2121.00, 
2122.00, 
2123.00, 
2124.00, 
2125.00, 
2126.00, 
2127.00, 
2128.00, 
2129.00, 
2130.00, 
2131.00, 
2132.00, 
2133.00, 
2134.00, 
2135.00, 
2136.00, 
2137.00, 
2138.00, 
2139.00, 
2140.00, 
2141.00, 
2142.00, 
2143.00, 
2144.00, 
2145.00, 
2146.00, 
2147.00, 
2148.00, 
2149.00, 
2150.00, 
2151.00, 
2152.00, 
2153.00, 
2154.00, 
2155.00, 
2156.00, 
2157.00, 
2158.00, 
2159.00, 
2160.00, 
2161.00, 
2162.00, 
2163.00, 
2164.00, 
2165.00, 
2166.00, 
2167.00, 
2168.00, 
2169.00, 
2170.00, 
2171.00, 
2172.00, 
2173.00, 
2174.00, 
2175.00, 
2176.00, 
2177.00, 
2178.00, 
2179.00, 
2180.00, 
2181.00, 
2182.00, 
2183.00, 
2184.00, 
2185.00, 
2186.00, 
2187.00, 
2188.00, 
2189.00, 
2190.00, 
2191.00, 
2192.00, 
2193.00, 
2194.00, 
2195.00, 
2196.00, 
2197.00, 
2198.00, 
2199.00, 
2200.00, 
2201.00, 
2202.00, 
2203.00, 
2204.00, 
2205.00, 
2206.00, 
2207.00, 
2208.00, 
2209.00, 
2210.00, 
2211.00, 
2212.00, 
2213.00, 
2214.00, 
2215.00, 
2216.00, 
2217.00, 
2218.00, 
2219.00, 
2220.00, 
2221.00, 
2222.00, 
2223.00, 
2224.00, 
2225.00, 
2226.00, 
2227.00, 
2228.00, 
2229.00, 
2230.00, 
2231.00, 
2232.00, 
2233.00, 
2234.00, 
2235.00, 
2236.00, 
2237.00, 
2238.00, 
2239.00, 
2240.00, 
2241.00, 
2242.00, 
2243.00, 
2244.00, 
2245.00, 
2246.00, 
2247.00, 
2248.00, 
2249.00, 
2250.00, 
2251.00, 
2252.00, 
2253.00, 
2254.00, 
2255.00, 
2256.00, 
2257.00, 
2258.00, 
2259.00, 
2260.00, 
2261.00, 
2262.00, 
2263.00, 
2264.00, 
2265.00, 
2266.00, 
2267.00, 
2268.00, 
2269.00, 
2270.00, 
2271.00, 
2272.00, 
2273.00, 
2274.00, 
2275.00, 
2276.00, 
2277.00, 
2278.00, 
2279.00, 
2280.00, 
2281.00, 
2282.00, 
2283.00, 
2284.00, 
2285.00, 
2286.00, 
2287.00, 
2288.00, 
2289.00, 
2290.00, 
2291.00, 
2292.00, 
2293.00, 
2294.00, 
2295.00, 
2296.00, 
2297.00, 
2298.00, 
2299.00, 
2300.00, 
2301.00, 
2302.00, 
2303.00, 
2304.00, 
2305.00, 
2306.00, 
2307.00, 
2308.00, 
2309.00, 
2310.00, 
2311.00, 
2312.00, 
2313.00, 
2314.00, 
2315.00, 
2316.00, 
2317.00, 
2318.00, 
2319.00, 
2320.00, 
2321.00, 
2322.00, 
2323.00, 
2324.00, 
2325.00, 
2326.00, 
2327.00, 
2328.00, 
2329.00, 
2330.00, 
2331.00, 
2332.00, 
2333.00, 
2334.00, 
2335.00, 
2336.00, 
2337.00, 
2338.00, 
2339.00, 
2340.00, 
2341.00, 
2342.00, 
2343.00, 
2344.00, 
2345.00, 
2346.00, 
2347.00, 
2348.00, 
2349.00, 
2350.00, 
2351.00, 
2352.00, 
2353.00, 
2354.00, 
2355.00, 
2356.00, 
2357.00, 
2358.00, 
2359.00, 
2360.00, 
2361.00, 
2362.00, 
2363.00, 
2364.00, 
2365.00, 
2366.00, 
2367.00, 
2368.00, 
2369.00, 
2370.00, 
2371.00, 
2372.00, 
2373.00, 
2374.00, 
2375.00, 
2376.00, 
2377.00, 
2378.00, 
2379.00, 
2380.00, 
2381.00, 
2382.00, 
2383.00, 
2384.00, 
2385.00, 
2386.00, 
2387.00, 
2388.00, 
2389.00, 
2390.00, 
2391.00, 
2392.00, 
2393.00, 
2394.00, 
2395.00, 
2396.00, 
2397.00, 
2398.00, 
2399.00, 
2400.00, 
2401.00, 
2402.00, 
2403.00, 
2404.00, 
2405.00, 
2406.00, 
2407.00, 
2408.00, 
2409.00, 
2410.00, 
2411.00, 
2412.00, 
2413.00, 
2414.00, 
2415.00, 
2416.00, 
2417.00, 
2418.00, 
2419.00, 
2420.00, 
2421.00, 
2422.00, 
2423.00, 
2424.00, 
2425.00, 
2426.00, 
2427.00, 
2428.00, 
2429.00, 
2430.00, 
2431.00, 
2432.00, 
2433.00, 
2434.00, 
2435.00, 
2436.00, 
2437.00, 
2438.00, 
2439.00, 
2440.00, 
2441.00, 
2442.00, 
2443.00, 
2444.00, 
2445.00, 
2446.00, 
2447.00, 
2448.00, 
2449.00, 
2450.00, 
2451.00, 
2452.00, 
2453.00, 
2454.00, 
2455.00, 
2456.00, 
2457.00, 
2458.00, 
2459.00, 
2460.00, 
2461.00, 
2462.00, 
2463.00, 
2464.00, 
2465.00, 
2466.00, 
2467.00, 
2468.00, 
2469.00, 
2470.00, 
2471.00, 
2472.00, 
2473.00, 
2474.00, 
2475.00, 
2476.00, 
2477.00, 
2478.00, 
2479.00, 
2480.00, 
2481.00, 
2482.00, 
2483.00, 
2484.00, 
2485.00, 
2486.00, 
2487.00, 
2488.00, 
2489.00, 
2490.00, 
2491.00, 
2492.00, 
2493.00, 
2494.00, 
2495.00, 
2496.00, 
2497.00, 
2498.00, 
2499.00, 
2500.00, 
2501.00, 
2502.00, 
2503.00, 
2504.00, 
2505.00, 
2506.00, 
2507.00, 
2508.00, 
2509.00, 
2510.00, 
2511.00, 
2512.00, 
2513.00, 
2514.00, 
2515.00, 
2516.00, 
2517.00, 
2518.00, 
2519.00, 
2520.00, 
2521.00, 
2522.00, 
2523.00, 
2524.00, 
2525.00, 
2526.00, 
2527.00, 
2528.00, 
2529.00, 
2530.00, 
2531.00, 
2532.00, 
2533.00, 
2534.00, 
2535.00, 
2536.00, 
2537.00, 
2538.00, 
2539.00, 
2540.00, 
2541.00, 
2542.00, 
2543.00, 
2544.00, 
2545.00, 
2546.00, 
2547.00, 
2548.00, 
2549.00, 
2550.00, 
2551.00, 
2552.00, 
2553.00, 
2554.00, 
2555.00, 
2556.00, 
2557.00, 
2558.00, 
2559.00, 
2560.00, 
2561.00, 
2562.00, 
2563.00, 
2564.00, 
2565.00, 
2566.00, 
2567.00, 
2568.00, 
2569.00, 
2570.00, 
2571.00, 
2572.00, 
2573.00, 
2574.00, 
2575.00, 
2576.00, 
2577.00, 
2578.00, 
2579.00, 
2580.00, 
2581.00, 
2582.00, 
2583.00, 
2584.00, 
2585.00, 
2586.00, 
2587.00, 
2588.00, 
2589.00, 
2590.00, 
2591.00, 
2592.00, 
2593.00, 
2594.00, 
2595.00, 
2596.00, 
2597.00, 
2598.00, 
2599.00, 
2600.00, 
