"2bP4 - RawData"
"Wavelength nm.","T%"
200.00,0.004
201.00,-0.002
202.00,0.002
203.00,0.001
204.00,-0.002
205.00,-0.000
206.00,-0.000
207.00,-0.002
208.00,0.004
209.00,-0.000
210.00,0.002
211.00,-0.001
212.00,0.002
213.00,0.000
214.00,-0.001
215.00,0.001
216.00,-0.001
217.00,-0.002
218.00,0.002
219.00,0.001
220.00,-0.001
221.00,-0.002
222.00,-0.001
223.00,0.000
224.00,-0.001
225.00,0.001
226.00,-0.001
227.00,0.002
228.00,0.003
229.00,0.001
230.00,0.002
231.00,0.001
232.00,-0.001
233.00,0.001
234.00,0.000
235.00,-0.000
236.00,-0.002
237.00,-0.002
238.00,-0.001
239.00,0.001
240.00,-0.000
241.00,0.001
242.00,0.000
243.00,0.000
244.00,0.001
245.00,-0.001
246.00,-0.000
247.00,0.000
248.00,-0.000
249.00,0.001
250.00,-0.001
251.00,-0.001
252.00,-0.002
253.00,0.000
254.00,0.001
255.00,0.001
256.00,0.000
257.00,0.000
258.00,0.000
259.00,0.001
260.00,-0.000
261.00,0.000
262.00,0.001
263.00,0.001
264.00,-0.001
265.00,-0.001
266.00,0.000
267.00,0.001
268.00,-0.001
269.00,-0.000
270.00,-0.000
271.00,0.001
272.00,-0.001
273.00,-0.000
274.00,0.000
275.00,0.000
276.00,-0.001
277.00,0.001
278.00,-0.001
279.00,-0.001
280.00,-0.001
281.00,-0.002
282.00,0.000
283.00,0.001
284.00,-0.000
285.00,0.001
286.00,-0.001
287.00,0.002
288.00,0.002
289.00,-0.000
290.00,0.000
291.00,-0.001
292.00,-0.001
293.00,-0.000
294.00,-0.000
295.00,0.001
296.00,0.001
297.00,0.002
298.00,0.000
299.00,0.000
300.00,0.001
301.00,0.001
302.00,0.002
303.00,0.003
304.00,0.005
305.00,0.009
306.00,0.010
307.00,0.015
308.00,0.023
309.00,0.036
310.00,0.045
311.00,0.063
312.00,0.081
313.00,0.112
314.00,0.147
315.00,0.184
316.00,0.232
317.00,0.285
318.00,0.348
319.00,0.422
320.00,0.504
321.00,0.594
322.00,0.696
323.00,0.790
324.00,0.928
325.00,1.038
326.00,1.163
327.00,1.299
328.00,1.436
329.00,1.585
330.00,1.743
331.00,1.888
332.00,2.027
333.00,2.186
334.00,2.317
335.00,2.483
336.00,2.633
337.00,2.752
338.00,2.894
339.00,2.993
340.00,3.152
341.00,3.279
342.00,3.391
343.00,3.511
344.00,3.585
345.00,3.699
346.00,3.779
347.00,3.843
348.00,3.932
349.00,3.987
350.00,4.067
351.00,4.112
352.00,4.157
353.00,4.212
354.00,4.253
355.00,4.291
356.00,4.337
357.00,4.345
358.00,4.366
359.00,4.390
360.00,4.395
361.00,4.410
362.00,4.389
363.00,4.371
364.00,4.369
365.00,4.379
366.00,4.362
367.00,4.363
368.00,4.352
369.00,4.335
370.00,4.323
371.00,4.305
372.00,4.287
373.00,4.272
374.00,4.229
375.00,4.198
376.00,4.160
377.00,4.130
378.00,4.101
379.00,4.062
380.00,4.043
381.00,4.015
382.00,3.983
383.00,3.964
384.00,3.946
385.00,3.938
386.00,3.907
387.00,3.898
388.00,3.880
389.00,3.861
390.00,3.851
391.00,3.829
392.00,3.814
393.00,3.803
394.00,3.779
395.00,3.770
396.00,3.741
397.00,3.721
398.00,3.714
399.00,3.707
400.00,3.689
401.00,3.674
402.00,3.656
403.00,3.667
404.00,3.637
405.00,3.619
406.00,3.610
407.00,3.588
408.00,3.583
409.00,3.583
410.00,3.572
411.00,3.574
412.00,3.550
413.00,3.579
414.00,3.582
415.00,3.573
416.00,3.567
417.00,3.560
418.00,3.551
419.00,3.557
420.00,3.551
421.00,3.572
422.00,3.579
423.00,3.574
424.00,3.587
425.00,3.594
426.00,3.606
427.00,3.618
428.00,3.627
429.00,3.641
430.00,3.672
431.00,3.685
432.00,3.698
433.00,3.731
434.00,3.743
435.00,3.777
436.00,3.804
437.00,3.823
438.00,3.853
439.00,3.886
440.00,3.918
441.00,3.947
442.00,3.991
443.00,4.017
444.00,4.057
445.00,4.096
446.00,4.139
447.00,4.188
448.00,4.223
449.00,4.275
450.00,4.326
451.00,4.377
452.00,4.425
453.00,4.481
454.00,4.535
455.00,4.582
456.00,4.631
457.00,4.704
458.00,4.739
459.00,4.808
460.00,4.862
461.00,4.924
462.00,4.981
463.00,5.052
464.00,5.114
465.00,5.178
466.00,5.253
467.00,5.350
468.00,5.467
469.00,5.521
470.00,5.556
471.00,5.645
472.00,5.737
473.00,5.819
474.00,5.893
475.00,6.012
476.00,6.099
477.00,6.181
478.00,6.254
479.00,6.359
480.00,6.471
481.00,6.557
482.00,6.652
483.00,6.745
484.00,6.821
485.00,6.986
486.00,7.075
487.00,7.202
488.00,7.288
489.00,7.404
490.00,7.479
491.00,7.608
492.00,7.742
493.00,7.845
494.00,7.906
495.00,8.046
496.00,8.120
497.00,8.228
498.00,8.323
499.00,8.454
500.00,8.557
501.00,8.662
502.00,8.712
503.00,8.898
504.00,9.007
505.00,9.124
506.00,9.243
507.00,9.341
508.00,9.426
509.00,9.554
510.00,9.661
511.00,9.806
512.00,9.982
513.00,10.087
514.00,10.168
515.00,10.233
516.00,10.345
517.00,10.405
518.00,10.558
519.00,10.655
520.00,10.777
521.00,10.860
522.00,10.975
523.00,11.122
524.00,11.188
525.00,11.320
526.00,11.397
527.00,11.484
528.00,11.569
529.00,11.675
530.00,11.742
531.00,11.862
532.00,11.842
533.00,11.970
534.00,12.114
535.00,12.199
536.00,12.317
537.00,12.372
538.00,12.511
539.00,12.571
540.00,12.697
541.00,12.775
542.00,12.835
543.00,12.940
544.00,13.041
545.00,13.141
546.00,13.221
547.00,13.308
548.00,13.390
549.00,13.468
550.00,13.567
551.00,13.602
552.00,13.691
553.00,13.733
554.00,13.773
555.00,13.845
556.00,13.904
557.00,14.027
558.00,14.111
559.00,14.218
560.00,14.255
561.00,14.302
562.00,14.395
563.00,14.444
564.00,14.535
565.00,14.581
566.00,14.626
567.00,14.721
568.00,14.766
569.00,14.835
570.00,14.868
571.00,14.874
572.00,14.992
573.00,14.990
574.00,15.026
575.00,15.051
576.00,15.166
577.00,15.274
578.00,15.342
579.00,15.422
580.00,15.450
581.00,15.538
582.00,15.627
583.00,15.690
584.00,15.813
585.00,15.829
586.00,15.881
587.00,15.993
588.00,16.041
589.00,16.119
590.00,16.184
591.00,16.237
592.00,16.306
593.00,16.357
594.00,16.443
595.00,16.502
596.00,16.622
597.00,16.636
598.00,16.680
599.00,16.689
600.00,16.717
601.00,16.813
602.00,16.834
603.00,16.933
604.00,16.976
605.00,17.067
606.00,17.170
607.00,17.236
608.00,17.308
609.00,17.441
610.00,17.472
611.00,17.475
612.00,17.570
613.00,17.633
614.00,17.767
615.00,17.808
616.00,17.871
617.00,17.883
618.00,17.949
619.00,18.034
620.00,18.112
621.00,18.219
622.00,18.325
623.00,18.412
624.00,18.525
625.00,18.634
626.00,18.725
627.00,18.853
628.00,18.935
629.00,19.036
630.00,19.196
631.00,19.234
632.00,19.372
633.00,19.487
634.00,19.584
635.00,19.677
636.00,19.766
637.00,19.841
638.00,19.967
639.00,20.077
640.00,20.248
641.00,20.389
642.00,20.533
643.00,20.654
644.00,20.738
645.00,20.802
646.00,20.965
647.00,21.161
648.00,21.288
649.00,21.556
650.00,21.635
651.00,21.708
652.00,21.862
653.00,22.036
654.00,22.178
655.00,22.484
656.00,22.506
657.00,23.295
658.00,23.378
659.00,23.060
660.00,23.168
661.00,23.391
662.00,23.605
663.00,23.813
664.00,23.880
665.00,23.821
666.00,24.199
667.00,24.555
668.00,24.688
669.00,24.586
670.00,24.877
671.00,24.859
672.00,25.174
673.00,25.364
674.00,25.451
675.00,25.751
676.00,25.898
677.00,26.109
678.00,26.488
679.00,26.610
680.00,26.962
681.00,27.312
682.00,27.696
683.00,27.766
684.00,27.738
685.00,27.890
686.00,27.997
687.00,28.162
688.00,28.432
689.00,28.706
690.00,28.790
691.00,29.145
692.00,29.203
693.00,29.353
694.00,29.758
695.00,29.901
696.00,30.150
697.00,30.395
698.00,30.742
699.00,30.672
700.00,30.825
701.00,31.194
702.00,31.559
703.00,31.867
704.00,32.230
705.00,32.285
706.00,32.190
707.00,32.302
708.00,32.512
709.00,32.801
710.00,32.764
711.00,32.997
712.00,33.657
713.00,33.779
714.00,33.819
715.00,34.252
716.00,34.649
717.00,34.578
718.00,34.837
719.00,35.263
720.00,35.719
721.00,38.991
722.00,39.151
723.00,39.265
724.00,39.439
725.00,39.639
726.00,39.791
727.00,39.947
728.00,40.162
729.00,40.342
730.00,40.614
731.00,40.774
732.00,40.956
733.00,41.144
734.00,41.370
735.00,41.533
736.00,41.708
737.00,41.912
738.00,42.081
739.00,42.288
740.00,42.457
741.00,42.601
742.00,42.753
743.00,42.927
744.00,43.032
745.00,43.129
746.00,43.316
747.00,43.493
748.00,43.580
749.00,43.752
750.00,43.905
751.00,44.041
752.00,44.282
753.00,44.279
754.00,44.433
755.00,44.522
756.00,44.702
757.00,44.781
758.00,44.965
759.00,45.084
760.00,45.190
761.00,45.364
762.00,45.473
763.00,45.633
764.00,45.769
765.00,45.905
766.00,45.975
767.00,46.087
768.00,46.236
769.00,46.300
770.00,46.509
771.00,46.540
772.00,46.688
773.00,46.821
774.00,46.988
775.00,47.128
776.00,47.082
777.00,47.210
778.00,47.240
779.00,47.535
780.00,47.560
781.00,47.590
782.00,47.694
783.00,47.733
784.00,47.880
785.00,47.919
786.00,47.980
787.00,48.075
788.00,48.130
789.00,48.265
790.00,48.257
791.00,48.431
792.00,48.405
793.00,48.572
794.00,48.605
795.00,48.684
796.00,48.837
797.00,48.713
798.00,48.767
799.00,48.790
800.00,48.821
801.00,48.849
802.00,48.802
803.00,48.960
804.00,48.974
805.00,49.111
806.00,49.030
807.00,49.204
808.00,49.290
809.00,49.180
810.00,49.344
811.00,49.344
812.00,49.546
813.00,49.510
814.00,49.578
815.00,49.653
816.00,49.622
817.00,49.672
818.00,49.670
819.00,49.662
820.00,49.804
821.00,49.760
822.00,49.753
823.00,49.914
824.00,49.942
825.00,49.806
826.00,49.835
827.00,49.981
828.00,49.785
829.00,50.000
830.00,49.965
831.00,52.378
832.00,52.442
833.00,52.476
834.00,52.458
835.00,52.534
836.00,52.499
837.00,52.558
838.00,52.553
839.00,52.596
840.00,52.628
841.00,52.641
842.00,52.681
843.00,52.629
844.00,52.665
845.00,52.631
846.00,52.660
847.00,52.597
848.00,52.724
849.00,52.801
850.00,52.740
851.00,52.814
852.00,52.701
853.00,52.804
854.00,52.767
855.00,52.750
856.00,52.715
857.00,52.770
858.00,52.843
859.00,52.823
860.00,52.857
861.00,52.792
862.00,52.845
863.00,52.821
864.00,52.966
865.00,52.846
866.00,52.890
867.00,52.850
868.00,52.947
869.00,52.959
870.00,52.906
871.00,52.941
872.00,52.978
873.00,52.974
874.00,52.886
875.00,52.968
876.00,52.931
877.00,53.069
878.00,52.947
879.00,53.087
880.00,53.068
881.00,53.052
882.00,52.923
883.00,53.072
884.00,53.059
885.00,53.046
886.00,52.902
887.00,53.164
888.00,53.061
889.00,53.030
890.00,52.898
891.00,52.985
892.00,53.014
893.00,53.014
894.00,52.952
895.00,53.015
896.00,53.056
897.00,53.009
898.00,52.949
899.00,52.886
900.00,52.920
901.00,52.856
902.00,52.840
903.00,52.974
904.00,53.043
905.00,52.977
906.00,52.853
907.00,52.937
908.00,53.023
909.00,52.967
910.00,52.908
911.00,52.794
912.00,52.852
913.00,52.797
914.00,52.840
915.00,52.969
916.00,53.091
917.00,52.947
918.00,52.841
919.00,52.947
920.00,53.073
921.00,52.880
922.00,52.760
923.00,52.854
924.00,53.023
925.00,52.801
926.00,52.851
927.00,52.774
928.00,52.942
929.00,52.776
930.00,52.732
931.00,52.737
932.00,52.872
933.00,52.716
934.00,52.728
935.00,52.770
936.00,52.834
937.00,52.674
938.00,52.601
939.00,52.689
940.00,52.778
941.00,52.647
942.00,52.697
943.00,52.630
944.00,52.734
945.00,52.639
946.00,52.559
947.00,52.607
948.00,52.570
949.00,52.543
950.00,52.464
951.00,52.533
952.00,52.538
953.00,52.504
954.00,52.395
955.00,52.436
956.00,52.434
957.00,52.400
958.00,52.345
959.00,52.364
960.00,52.343
961.00,52.341
962.00,52.304
963.00,52.304
964.00,52.345
965.00,52.263
966.00,52.267
967.00,52.299
968.00,52.311
969.00,52.268
970.00,52.270
971.00,52.292
972.00,52.308
973.00,52.301
974.00,52.300
975.00,52.331
976.00,52.263
977.00,52.286
978.00,52.301
979.00,52.308
980.00,52.304
981.00,52.269
982.00,52.289
983.00,52.230
984.00,52.281
985.00,52.251
986.00,52.270
987.00,52.264
988.00,52.237
989.00,52.232
990.00,52.206
991.00,52.221
992.00,52.217
993.00,52.228
994.00,52.179
995.00,52.148
996.00,52.166
997.00,52.153
998.00,52.162
999.00,52.136
1000.00,52.157
1001.00,52.093
1002.00,52.102
1003.00,52.114
1004.00,52.065
1005.00,52.069
1006.00,52.062
1007.00,52.100
1008.00,52.072
1009.00,52.033
1010.00,52.038
1011.00,51.995
1012.00,52.013
1013.00,52.004
1014.00,52.008
1015.00,51.975
1016.00,51.954
1017.00,51.963
1018.00,51.981
1019.00,51.939
1020.00,51.885
1021.00,51.909
1022.00,51.889
1023.00,51.855
1024.00,51.822
1025.00,51.821
1026.00,51.856
1027.00,51.830
1028.00,51.814
1029.00,51.796
1030.00,51.840
1031.00,51.773
1032.00,51.704
1033.00,51.738
1034.00,51.728
1035.00,51.698
1036.00,51.643
1037.00,51.646
1038.00,51.632
1039.00,51.592
1040.00,51.578
1041.00,51.533
1042.00,51.529
1043.00,51.521
1044.00,51.586
1045.00,51.523
1046.00,51.519
1047.00,51.541
1048.00,51.576
1049.00,51.577
1050.00,51.614
1051.00,51.615
1052.00,51.634
1053.00,51.631
1054.00,51.660
1055.00,51.639
1056.00,51.626
1057.00,51.669
1058.00,51.650
1059.00,51.629
1060.00,51.633
1061.00,51.681
1062.00,51.615
1063.00,51.621
1064.00,51.590
1065.00,51.627
1066.00,51.603
1067.00,51.603
1068.00,51.601
1069.00,51.609
1070.00,51.567
1071.00,51.572
1072.00,51.572
1073.00,51.566
1074.00,51.549
1075.00,51.525
1076.00,51.527
1077.00,51.532
1078.00,51.521
1079.00,51.505
1080.00,51.492
1081.00,51.471
1082.00,51.484
1083.00,51.473
1084.00,51.473
1085.00,51.458
1086.00,51.451
1087.00,51.448
1088.00,51.465
1089.00,51.426
1090.00,51.451
1091.00,51.436
1092.00,51.423
1093.00,51.401
1094.00,51.427
1095.00,51.363
1096.00,51.376
1097.00,51.363
1098.00,51.378
1099.00,51.343
1100.00,51.332
1101.00,51.326
1102.00,51.325
1103.00,51.315
1104.00,51.332
1105.00,51.297
1106.00,51.302
1107.00,51.285
1108.00,51.286
1109.00,51.283
1110.00,51.276
1111.00,51.237
1112.00,51.230
1113.00,51.230
1114.00,51.232
1115.00,51.243
1116.00,51.233
1117.00,51.189
1118.00,51.190
1119.00,51.161
1120.00,51.180
1121.00,51.207
1122.00,51.193
1123.00,51.148
1124.00,51.148
1125.00,51.129
1126.00,51.177
1127.00,51.165
1128.00,51.140
1129.00,51.098
1130.00,51.123
1131.00,51.115
1132.00,51.103
1133.00,51.129
1134.00,51.082
1135.00,51.010
1136.00,51.109
1137.00,51.112
1138.00,51.106
1139.00,51.091
1140.00,51.059
1141.00,51.023
1142.00,51.060
1143.00,51.086
1144.00,51.027
1145.00,51.027
1146.00,50.993
1147.00,50.972
1148.00,51.014
1149.00,51.012
1150.00,51.040
1151.00,51.041
1152.00,51.002
1153.00,50.982
1154.00,50.986
1155.00,50.982
1156.00,50.982
1157.00,50.970
1158.00,50.954
1159.00,50.961
1160.00,50.969
1161.00,50.990
1162.00,50.979
1163.00,50.974
1164.00,50.957
1165.00,50.945
1166.00,50.928
1167.00,50.952
1168.00,50.968
1169.00,50.951
1170.00,50.950
1171.00,50.932
1172.00,50.933
1173.00,50.934
1174.00,50.943
1175.00,50.940
1176.00,50.939
1177.00,50.899
1178.00,50.912
1179.00,50.939
1180.00,50.938
1181.00,50.949
1182.00,50.933
1183.00,50.925
1184.00,50.914
1185.00,50.941
1186.00,50.931
1187.00,50.937
1188.00,50.913
1189.00,50.921
1190.00,50.890
1191.00,50.912
1192.00,50.920
1193.00,50.922
1194.00,50.917
1195.00,50.891
1196.00,50.905
1197.00,50.909
1198.00,50.929
1199.00,50.886
1200.00,50.917
1201.00,50.929
1202.00,50.892
1203.00,50.909
1204.00,50.897
1205.00,50.912
1206.00,50.892
1207.00,50.894
1208.00,50.870
1209.00,50.902
1210.00,50.891
1211.00,50.891
1212.00,50.900
1213.00,50.854
1214.00,50.882
1215.00,50.867
1216.00,50.891
1217.00,50.884
1218.00,50.879
1219.00,50.893
1220.00,50.874
1221.00,50.893
1222.00,50.897
1223.00,50.906
1224.00,50.872
1225.00,50.862
1226.00,50.860
1227.00,50.865
1228.00,50.876
1229.00,50.901
1230.00,50.936
1231.00,50.902
1232.00,50.887
1233.00,50.898
1234.00,50.910
1235.00,50.888
1236.00,50.908
1237.00,50.884
1238.00,50.896
1239.00,50.891
1240.00,50.897
1241.00,50.940
1242.00,50.912
1243.00,50.922
1244.00,50.901
1245.00,50.941
1246.00,50.953
1247.00,50.963
1248.00,50.942
1249.00,50.946
1250.00,50.938
1251.00,50.937
1252.00,50.947
1253.00,50.933
1254.00,50.948
1255.00,50.911
1256.00,50.862
1257.00,50.878
1258.00,50.966
1259.00,50.989
1260.00,50.966
1261.00,50.966
1262.00,50.994
1263.00,50.979
1264.00,51.005
1265.00,51.005
1266.00,51.016
1267.00,51.013
1268.00,51.002
1269.00,51.009
1270.00,51.048
1271.00,51.045
1272.00,51.045
1273.00,51.058
1274.00,51.064
1275.00,51.043
1276.00,51.048
1277.00,51.076
1278.00,51.083
1279.00,51.065
1280.00,51.045
1281.00,51.044
1282.00,51.054
1283.00,51.057
1284.00,51.014
1285.00,51.015
1286.00,51.080
1287.00,51.070
1288.00,51.088
1289.00,51.091
1290.00,51.129
1291.00,51.129
1292.00,51.123
1293.00,51.120
1294.00,51.126
1295.00,51.138
1296.00,51.157
1297.00,51.146
1298.00,51.149
1299.00,51.121
1300.00,51.149
1301.00,51.162
1302.00,51.201
1303.00,51.187
1304.00,51.164
1305.00,51.195
1306.00,51.174
1307.00,51.198
1308.00,51.151
1309.00,51.204
1310.00,51.237
1311.00,51.190
1312.00,51.157
1313.00,51.206
1314.00,51.260
1315.00,51.253
1316.00,51.267
1317.00,51.291
1318.00,51.283
1319.00,51.280
1320.00,51.302
1321.00,51.409
1322.00,51.441
1323.00,51.388
1324.00,51.378
1325.00,51.411
1326.00,51.479
1327.00,51.415
1328.00,51.375
1329.00,51.417
1330.00,51.460
1331.00,51.400
1332.00,51.361
1333.00,51.422
1334.00,51.515
1335.00,51.452
1336.00,51.446
1337.00,51.518
1338.00,51.656
1339.00,51.671
1340.00,51.722
1341.00,51.786
1342.00,51.848
1343.00,51.920
1344.00,51.999
1345.00,52.044
1346.00,52.035
1347.00,52.038
1348.00,52.105
1349.00,52.115
1350.00,52.059
1351.00,51.964
1352.00,51.928
1353.00,52.049
1354.00,52.150
1355.00,52.104
1356.00,52.283
1357.00,52.212
1358.00,52.173
1359.00,51.640
1360.00,51.424
1361.00,51.458
1362.00,51.843
1363.00,52.706
1364.00,52.807
1365.00,52.538
1366.00,52.390
1367.00,52.178
1368.00,52.196
1369.00,52.396
1370.00,52.141
1371.00,52.191
1372.00,52.350
1373.00,52.282
1374.00,52.191
1375.00,52.097
1376.00,52.081
1377.00,52.067
1378.00,52.250
1379.00,51.961
1380.00,51.965
1381.00,52.048
1382.00,52.366
1383.00,52.537
1384.00,52.472
1385.00,52.322
1386.00,52.079
1387.00,52.071
1388.00,52.504
1389.00,52.480
1390.00,51.887
1391.00,51.982
1392.00,52.319
1393.00,52.831
1394.00,52.197
1395.00,51.988
1396.00,52.980
1397.00,52.876
1398.00,52.345
1399.00,52.436
1400.00,52.653
1401.00,52.284
1402.00,52.309
1403.00,52.152
1404.00,52.346
1405.00,52.390
1406.00,52.161
1407.00,52.272
1408.00,52.131
1409.00,52.288
1410.00,52.251
1411.00,52.134
1412.00,52.152
1413.00,51.961
1414.00,52.146
1415.00,52.379
1416.00,52.368
1417.00,52.497
1418.00,52.374
1419.00,52.275
1420.00,52.401
1421.00,52.524
1422.00,52.354
1423.00,52.315
1424.00,52.424
1425.00,52.409
1426.00,52.428
1427.00,52.474
1428.00,52.539
1429.00,52.536
1430.00,52.491
1431.00,52.437
1432.00,52.535
1433.00,52.551
1434.00,52.530
1435.00,52.621
1436.00,52.534
1437.00,52.529
1438.00,52.582
1439.00,52.625
1440.00,52.665
1441.00,52.662
1442.00,52.665
1443.00,52.728
1444.00,52.708
1445.00,52.658
1446.00,52.733
1447.00,52.781
1448.00,52.849
1449.00,52.813
1450.00,52.762
1451.00,52.808
1452.00,52.818
1453.00,52.854
1454.00,52.833
1455.00,52.858
1456.00,52.890
1457.00,52.878
1458.00,52.913
1459.00,52.925
1460.00,52.949
1461.00,52.970
1462.00,53.000
1463.00,52.998
1464.00,52.999
1465.00,53.025
1466.00,53.029
1467.00,53.069
1468.00,53.105
1469.00,53.070
1470.00,53.106
1471.00,53.116
1472.00,53.112
1473.00,53.193
1474.00,53.196
1475.00,53.209
1476.00,53.201
1477.00,53.210
1478.00,53.249
1479.00,53.250
1480.00,53.265
1481.00,53.278
1482.00,53.293
1483.00,53.293
1484.00,53.332
1485.00,53.329
1486.00,53.320
1487.00,53.350
1488.00,53.347
1489.00,53.356
1490.00,53.368
1491.00,53.387
1492.00,53.434
1493.00,53.402
1494.00,53.430
1495.00,53.440
1496.00,53.463
1497.00,53.457
1498.00,53.459
1499.00,53.498
1500.00,53.514
1501.00, 
1502.00, 
1503.00, 
1504.00, 
1505.00, 
1506.00, 
1507.00, 
1508.00, 
1509.00, 
1510.00, 
1511.00, 
1512.00, 
1513.00, 
1514.00, 
1515.00, 
1516.00, 
1517.00, 
1518.00, 
1519.00, 
1520.00, 
1521.00, 
1522.00, 
1523.00, 
1524.00, 
1525.00, 
1526.00, 
1527.00, 
1528.00, 
1529.00, 
1530.00, 
1531.00, 
1532.00, 
1533.00, 
1534.00, 
1535.00, 
1536.00, 
1537.00, 
1538.00, 
1539.00, 
1540.00, 
1541.00, 
1542.00, 
1543.00, 
1544.00, 
1545.00, 
1546.00, 
1547.00, 
1548.00, 
1549.00, 
1550.00, 
1551.00, 
1552.00, 
1553.00, 
1554.00, 
1555.00, 
1556.00, 
1557.00, 
1558.00, 
1559.00, 
1560.00, 
1561.00, 
1562.00, 
1563.00, 
1564.00, 
1565.00, 
1566.00, 
1567.00, 
1568.00, 
1569.00, 
1570.00, 
1571.00, 
1572.00, 
1573.00, 
1574.00, 
1575.00, 
1576.00, 
1577.00, 
1578.00, 
1579.00, 
1580.00, 
1581.00, 
1582.00, 
1583.00, 
1584.00, 
1585.00, 
1586.00, 
1587.00, 
1588.00, 
1589.00, 
1590.00, 
1591.00, 
1592.00, 
1593.00, 
1594.00, 
1595.00, 
1596.00, 
1597.00, 
1598.00, 
1599.00, 
1600.00, 
1601.00, 
1602.00, 
1603.00, 
1604.00, 
1605.00, 
1606.00, 
1607.00, 
1608.00, 
1609.00, 
1610.00, 
1611.00, 
1612.00, 
1613.00, 
1614.00, 
1615.00, 
1616.00, 
1617.00, 
1618.00, 
1619.00, 
1620.00, 
1621.00, 
1622.00, 
1623.00, 
1624.00, 
1625.00, 
1626.00, 
1627.00, 
1628.00, 
1629.00, 
1630.00, 
1631.00, 
1632.00, 
1633.00, 
1634.00, 
1635.00, 
1636.00, 
1637.00, 
1638.00, 
1639.00, 
1640.00, 
1641.00, 
1642.00, 
1643.00, 
1644.00, 
1645.00, 
1646.00, 
1647.00, 
1648.00, 
1649.00, 
1650.00, 
1651.00, 
1652.00, 
1653.00, 
1654.00, 
1655.00, 
1656.00, 
1657.00, 
1658.00, 
1659.00, 
1660.00, 
1661.00, 
1662.00, 
1663.00, 
1664.00, 
1665.00, 
1666.00, 
1667.00, 
1668.00, 
1669.00, 
1670.00, 
1671.00, 
1672.00, 
1673.00, 
1674.00, 
1675.00, 
1676.00, 
1677.00, 
1678.00, 
1679.00, 
1680.00, 
1681.00, 
1682.00, 
1683.00, 
1684.00, 
1685.00, 
1686.00, 
1687.00, 
1688.00, 
1689.00, 
1690.00, 
1691.00, 
1692.00, 
1693.00, 
1694.00, 
1695.00, 
1696.00, 
1697.00, 
1698.00, 
1699.00, 
1700.00, 
1701.00, 
1702.00, 
1703.00, 
1704.00, 
1705.00, 
1706.00, 
1707.00, 
1708.00, 
1709.00, 
1710.00, 
1711.00, 
1712.00, 
1713.00, 
1714.00, 
1715.00, 
1716.00, 
1717.00, 
1718.00, 
1719.00, 
1720.00, 
1721.00, 
1722.00, 
1723.00, 
1724.00, 
1725.00, 
1726.00, 
1727.00, 
1728.00, 
1729.00, 
1730.00, 
1731.00, 
1732.00, 
1733.00, 
1734.00, 
1735.00, 
1736.00, 
1737.00, 
1738.00, 
1739.00, 
1740.00, 
1741.00, 
1742.00, 
1743.00, 
1744.00, 
1745.00, 
1746.00, 
1747.00, 
1748.00, 
1749.00, 
1750.00, 
1751.00, 
1752.00, 
1753.00, 
1754.00, 
1755.00, 
1756.00, 
1757.00, 
1758.00, 
1759.00, 
1760.00, 
1761.00, 
1762.00, 
1763.00, 
1764.00, 
1765.00, 
1766.00, 
1767.00, 
1768.00, 
1769.00, 
1770.00, 
1771.00, 
1772.00, 
1773.00, 
1774.00, 
1775.00, 
1776.00, 
1777.00, 
1778.00, 
1779.00, 
1780.00, 
1781.00, 
1782.00, 
1783.00, 
1784.00, 
1785.00, 
1786.00, 
1787.00, 
1788.00, 
1789.00, 
1790.00, 
1791.00, 
1792.00, 
1793.00, 
1794.00, 
1795.00, 
1796.00, 
1797.00, 
1798.00, 
1799.00, 
1800.00, 
1801.00, 
1802.00, 
1803.00, 
1804.00, 
1805.00, 
1806.00, 
1807.00, 
1808.00, 
1809.00, 
1810.00, 
1811.00, 
1812.00, 
1813.00, 
1814.00, 
1815.00, 
1816.00, 
1817.00, 
1818.00, 
1819.00, 
1820.00, 
1821.00, 
1822.00, 
1823.00, 
1824.00, 
1825.00, 
1826.00, 
1827.00, 
1828.00, 
1829.00, 
1830.00, 
1831.00, 
1832.00, 
1833.00, 
1834.00, 
1835.00, 
1836.00, 
1837.00, 
1838.00, 
1839.00, 
1840.00, 
1841.00, 
1842.00, 
1843.00, 
1844.00, 
1845.00, 
1846.00, 
1847.00, 
1848.00, 
1849.00, 
1850.00, 
1851.00, 
1852.00, 
1853.00, 
1854.00, 
1855.00, 
1856.00, 
1857.00, 
1858.00, 
1859.00, 
1860.00, 
1861.00, 
1862.00, 
1863.00, 
1864.00, 
1865.00, 
1866.00, 
1867.00, 
1868.00, 
1869.00, 
1870.00, 
1871.00, 
1872.00, 
1873.00, 
1874.00, 
1875.00, 
1876.00, 
1877.00, 
1878.00, 
1879.00, 
1880.00, 
1881.00, 
1882.00, 
1883.00, 
1884.00, 
1885.00, 
1886.00, 
1887.00, 
1888.00, 
1889.00, 
1890.00, 
1891.00, 
1892.00, 
1893.00, 
1894.00, 
1895.00, 
1896.00, 
1897.00, 
1898.00, 
1899.00, 
1900.00, 
1901.00, 
1902.00, 
1903.00, 
1904.00, 
1905.00, 
1906.00, 
1907.00, 
1908.00, 
1909.00, 
1910.00, 
1911.00, 
1912.00, 
1913.00, 
1914.00, 
1915.00, 
1916.00, 
1917.00, 
1918.00, 
1919.00, 
1920.00, 
1921.00, 
1922.00, 
1923.00, 
1924.00, 
1925.00, 
1926.00, 
1927.00, 
1928.00, 
1929.00, 
1930.00, 
1931.00, 
1932.00, 
1933.00, 
1934.00, 
1935.00, 
1936.00, 
1937.00, 
1938.00, 
1939.00, 
1940.00, 
1941.00, 
1942.00, 
1943.00, 
1944.00, 
1945.00, 
1946.00, 
1947.00, 
1948.00, 
1949.00, 
1950.00, 
1951.00, 
1952.00, 
1953.00, 
1954.00, 
1955.00, 
1956.00, 
1957.00, 
1958.00, 
1959.00, 
1960.00, 
1961.00, 
1962.00, 
1963.00, 
1964.00, 
1965.00, 
1966.00, 
1967.00, 
1968.00, 
1969.00, 
1970.00, 
1971.00, 
1972.00, 
1973.00, 
1974.00, 
1975.00, 
1976.00, 
1977.00, 
1978.00, 
1979.00, 
1980.00, 
1981.00, 
1982.00, 
1983.00, 
1984.00, 
1985.00, 
1986.00, 
1987.00, 
1988.00, 
1989.00, 
1990.00, 
1991.00, 
1992.00, 
1993.00, 
1994.00, 
1995.00, 
1996.00, 
1997.00, 
1998.00, 
1999.00, 
2000.00, 
2001.00, 
2002.00, 
2003.00, 
2004.00, 
2005.00, 
2006.00, 
2007.00, 
2008.00, 
2009.00, 
2010.00, 
2011.00, 
2012.00, 
2013.00, 
2014.00, 
2015.00, 
2016.00, 
2017.00, 
2018.00, 
2019.00, 
2020.00, 
2021.00, 
2022.00, 
2023.00, 
2024.00, 
2025.00, 
2026.00, 
2027.00, 
2028.00, 
2029.00, 
2030.00, 
2031.00, 
2032.00, 
2033.00, 
2034.00, 
2035.00, 
2036.00, 
2037.00, 
2038.00, 
2039.00, 
2040.00, 
2041.00, 
2042.00, 
2043.00, 
2044.00, 
2045.00, 
2046.00, 
2047.00, 
2048.00, 
2049.00, 
2050.00, 
2051.00, 
2052.00, 
2053.00, 
2054.00, 
2055.00, 
2056.00, 
2057.00, 
2058.00, 
2059.00, 
2060.00, 
2061.00, 
2062.00, 
2063.00, 
2064.00, 
2065.00, 
2066.00, 
2067.00, 
2068.00, 
2069.00, 
2070.00, 
2071.00, 
2072.00, 
2073.00, 
2074.00, 
2075.00, 
2076.00, 
2077.00, 
2078.00, 
2079.00, 
2080.00, 
2081.00, 
2082.00, 
2083.00, 
2084.00, 
2085.00, 
2086.00, 
2087.00, 
2088.00, 
2089.00, 
2090.00, 
2091.00, 
2092.00, 
2093.00, 
2094.00, 
2095.00, 
2096.00, 
2097.00, 
2098.00, 
2099.00, 
2100.00, 
2101.00, 
2102.00, 
2103.00, 
2104.00, 
2105.00, 
2106.00, 
2107.00, 
2108.00, 
2109.00, 
2110.00, 
2111.00, 
2112.00, 
2113.00, 
2114.00, 
2115.00, 
2116.00, 
2117.00, 
2118.00, 
2119.00, 
2120.00, 
2121.00, 
2122.00, 
2123.00, 
2124.00, 
2125.00, 
2126.00, 
2127.00, 
2128.00, 
2129.00, 
2130.00, 
2131.00, 
2132.00, 
2133.00, 
2134.00, 
2135.00, 
2136.00, 
2137.00, 
2138.00, 
2139.00, 
2140.00, 
2141.00, 
2142.00, 
2143.00, 
2144.00, 
2145.00, 
2146.00, 
2147.00, 
2148.00, 
2149.00, 
2150.00, 
2151.00, 
2152.00, 
2153.00, 
2154.00, 
2155.00, 
2156.00, 
2157.00, 
2158.00, 
2159.00, 
2160.00, 
2161.00, 
2162.00, 
2163.00, 
2164.00, 
2165.00, 
2166.00, 
2167.00, 
2168.00, 
2169.00, 
2170.00, 
2171.00, 
2172.00, 
2173.00, 
2174.00, 
2175.00, 
2176.00, 
2177.00, 
2178.00, 
2179.00, 
2180.00, 
2181.00, 
2182.00, 
2183.00, 
2184.00, 
2185.00, 
2186.00, 
2187.00, 
2188.00, 
2189.00, 
2190.00, 
2191.00, 
2192.00, 
2193.00, 
2194.00, 
2195.00, 
2196.00, 
2197.00, 
2198.00, 
2199.00, 
2200.00, 
2201.00, 
2202.00, 
2203.00, 
2204.00, 
2205.00, 
2206.00, 
2207.00, 
2208.00, 
2209.00, 
2210.00, 
2211.00, 
2212.00, 
2213.00, 
2214.00, 
2215.00, 
2216.00, 
2217.00, 
2218.00, 
2219.00, 
2220.00, 
2221.00, 
2222.00, 
2223.00, 
2224.00, 
2225.00, 
2226.00, 
2227.00, 
2228.00, 
2229.00, 
2230.00, 
2231.00, 
2232.00, 
2233.00, 
2234.00, 
2235.00, 
2236.00, 
2237.00, 
2238.00, 
2239.00, 
2240.00, 
2241.00, 
2242.00, 
2243.00, 
2244.00, 
2245.00, 
2246.00, 
2247.00, 
2248.00, 
2249.00, 
2250.00, 
2251.00, 
2252.00, 
2253.00, 
2254.00, 
2255.00, 
2256.00, 
2257.00, 
2258.00, 
2259.00, 
2260.00, 
2261.00, 
2262.00, 
2263.00, 
2264.00, 
2265.00, 
2266.00, 
2267.00, 
2268.00, 
2269.00, 
2270.00, 
2271.00, 
2272.00, 
2273.00, 
2274.00, 
2275.00, 
2276.00, 
2277.00, 
2278.00, 
2279.00, 
2280.00, 
2281.00, 
2282.00, 
2283.00, 
2284.00, 
2285.00, 
2286.00, 
2287.00, 
2288.00, 
2289.00, 
2290.00, 
2291.00, 
2292.00, 
2293.00, 
2294.00, 
2295.00, 
2296.00, 
2297.00, 
2298.00, 
2299.00, 
2300.00, 
2301.00, 
2302.00, 
2303.00, 
2304.00, 
2305.00, 
2306.00, 
2307.00, 
2308.00, 
2309.00, 
2310.00, 
2311.00, 
2312.00, 
2313.00, 
2314.00, 
2315.00, 
2316.00, 
2317.00, 
2318.00, 
2319.00, 
2320.00, 
2321.00, 
2322.00, 
2323.00, 
2324.00, 
2325.00, 
2326.00, 
2327.00, 
2328.00, 
2329.00, 
2330.00, 
2331.00, 
2332.00, 
2333.00, 
2334.00, 
2335.00, 
2336.00, 
2337.00, 
2338.00, 
2339.00, 
2340.00, 
2341.00, 
2342.00, 
2343.00, 
2344.00, 
2345.00, 
2346.00, 
2347.00, 
2348.00, 
2349.00, 
2350.00, 
2351.00, 
2352.00, 
2353.00, 
2354.00, 
2355.00, 
2356.00, 
2357.00, 
2358.00, 
2359.00, 
2360.00, 
2361.00, 
2362.00, 
2363.00, 
2364.00, 
2365.00, 
2366.00, 
2367.00, 
2368.00, 
2369.00, 
2370.00, 
2371.00, 
2372.00, 
2373.00, 
2374.00, 
2375.00, 
2376.00, 
2377.00, 
2378.00, 
2379.00, 
2380.00, 
2381.00, 
2382.00, 
2383.00, 
2384.00, 
2385.00, 
2386.00, 
2387.00, 
2388.00, 
2389.00, 
2390.00, 
2391.00, 
2392.00, 
2393.00, 
2394.00, 
2395.00, 
2396.00, 
2397.00, 
2398.00, 
2399.00, 
2400.00, 
2401.00, 
2402.00, 
2403.00, 
2404.00, 
2405.00, 
2406.00, 
2407.00, 
2408.00, 
2409.00, 
2410.00, 
2411.00, 
2412.00, 
2413.00, 
2414.00, 
2415.00, 
2416.00, 
2417.00, 
2418.00, 
2419.00, 
2420.00, 
2421.00, 
2422.00, 
2423.00, 
2424.00, 
2425.00, 
2426.00, 
2427.00, 
2428.00, 
2429.00, 
2430.00, 
2431.00, 
2432.00, 
2433.00, 
2434.00, 
2435.00, 
2436.00, 
2437.00, 
2438.00, 
2439.00, 
2440.00, 
2441.00, 
2442.00, 
2443.00, 
2444.00, 
2445.00, 
2446.00, 
2447.00, 
2448.00, 
2449.00, 
2450.00, 
2451.00, 
2452.00, 
2453.00, 
2454.00, 
2455.00, 
2456.00, 
2457.00, 
2458.00, 
2459.00, 
2460.00, 
2461.00, 
2462.00, 
2463.00, 
2464.00, 
2465.00, 
2466.00, 
2467.00, 
2468.00, 
2469.00, 
2470.00, 
2471.00, 
2472.00, 
2473.00, 
2474.00, 
2475.00, 
2476.00, 
2477.00, 
2478.00, 
2479.00, 
2480.00, 
2481.00, 
2482.00, 
2483.00, 
2484.00, 
2485.00, 
2486.00, 
2487.00, 
2488.00, 
2489.00, 
2490.00, 
2491.00, 
2492.00, 
2493.00, 
2494.00, 
2495.00, 
2496.00, 
2497.00, 
2498.00, 
2499.00, 
2500.00, 
2501.00, 
2502.00, 
2503.00, 
2504.00, 
2505.00, 
2506.00, 
2507.00, 
2508.00, 
2509.00, 
2510.00, 
2511.00, 
2512.00, 
2513.00, 
2514.00, 
2515.00, 
2516.00, 
2517.00, 
2518.00, 
2519.00, 
2520.00, 
2521.00, 
2522.00, 
2523.00, 
2524.00, 
2525.00, 
2526.00, 
2527.00, 
2528.00, 
2529.00, 
2530.00, 
2531.00, 
2532.00, 
2533.00, 
2534.00, 
2535.00, 
2536.00, 
2537.00, 
2538.00, 
2539.00, 
2540.00, 
2541.00, 
2542.00, 
2543.00, 
2544.00, 
2545.00, 
2546.00, 
2547.00, 
2548.00, 
2549.00, 
2550.00, 
2551.00, 
2552.00, 
2553.00, 
2554.00, 
2555.00, 
2556.00, 
2557.00, 
2558.00, 
2559.00, 
2560.00, 
2561.00, 
2562.00, 
2563.00, 
2564.00, 
2565.00, 
2566.00, 
2567.00, 
2568.00, 
2569.00, 
2570.00, 
2571.00, 
2572.00, 
2573.00, 
2574.00, 
2575.00, 
2576.00, 
2577.00, 
2578.00, 
2579.00, 
2580.00, 
2581.00, 
2582.00, 
2583.00, 
2584.00, 
2585.00, 
2586.00, 
2587.00, 
2588.00, 
2589.00, 
2590.00, 
2591.00, 
2592.00, 
2593.00, 
2594.00, 
2595.00, 
2596.00, 
2597.00, 
2598.00, 
2599.00, 
2600.00, 
