"2bP5 - RawData"
"Wavelength nm.","T%"
200.00,-0.001
201.00,0.001
202.00,0.000
203.00,0.003
204.00,0.001
205.00,0.001
206.00,0.000
207.00,0.004
208.00,0.003
209.00,-0.000
210.00,-0.001
211.00,-0.001
212.00,-0.000
213.00,0.001
214.00,0.002
215.00,0.000
216.00,-0.000
217.00,0.002
218.00,-0.002
219.00,-0.002
220.00,0.000
221.00,-0.000
222.00,0.003
223.00,-0.001
224.00,-0.001
225.00,-0.001
226.00,0.001
227.00,-0.001
228.00,0.000
229.00,0.000
230.00,-0.002
231.00,0.001
232.00,0.000
233.00,-0.001
234.00,0.001
235.00,0.001
236.00,-0.001
237.00,-0.002
238.00,-0.000
239.00,0.000
240.00,0.002
241.00,-0.000
242.00,0.000
243.00,0.002
244.00,-0.001
245.00,0.001
246.00,-0.000
247.00,-0.001
248.00,-0.001
249.00,-0.003
250.00,0.001
251.00,-0.001
252.00,0.000
253.00,0.001
254.00,-0.000
255.00,-0.002
256.00,-0.002
257.00,0.001
258.00,0.000
259.00,0.001
260.00,0.000
261.00,0.001
262.00,0.000
263.00,-0.001
264.00,-0.001
265.00,-0.001
266.00,0.000
267.00,0.000
268.00,-0.001
269.00,-0.000
270.00,0.002
271.00,-0.001
272.00,0.000
273.00,0.001
274.00,-0.000
275.00,-0.000
276.00,-0.000
277.00,-0.001
278.00,-0.001
279.00,-0.000
280.00,0.000
281.00,-0.000
282.00,-0.001
283.00,0.001
284.00,0.002
285.00,0.001
286.00,0.000
287.00,0.001
288.00,0.001
289.00,0.000
290.00,0.001
291.00,0.001
292.00,0.000
293.00,-0.000
294.00,0.001
295.00,-0.001
296.00,0.002
297.00,0.001
298.00,0.003
299.00,-0.000
300.00,0.001
301.00,0.001
302.00,0.003
303.00,0.002
304.00,0.003
305.00,0.007
306.00,0.010
307.00,0.014
308.00,0.022
309.00,0.034
310.00,0.046
311.00,0.060
312.00,0.082
313.00,0.113
314.00,0.145
315.00,0.184
316.00,0.230
317.00,0.284
318.00,0.335
319.00,0.414
320.00,0.499
321.00,0.591
322.00,0.677
323.00,0.794
324.00,0.899
325.00,1.029
326.00,1.137
327.00,1.279
328.00,1.421
329.00,1.548
330.00,1.694
331.00,1.844
332.00,1.990
333.00,2.143
334.00,2.274
335.00,2.433
336.00,2.565
337.00,2.720
338.00,2.834
339.00,2.949
340.00,3.090
341.00,3.207
342.00,3.321
343.00,3.436
344.00,3.498
345.00,3.604
346.00,3.690
347.00,3.764
348.00,3.839
349.00,3.905
350.00,3.983
351.00,4.021
352.00,4.071
353.00,4.114
354.00,4.157
355.00,4.207
356.00,4.234
357.00,4.256
358.00,4.268
359.00,4.299
360.00,4.288
361.00,4.295
362.00,4.290
363.00,4.280
364.00,4.276
365.00,4.271
366.00,4.275
367.00,4.263
368.00,4.252
369.00,4.244
370.00,4.227
371.00,4.216
372.00,4.193
373.00,4.181
374.00,4.136
375.00,4.114
376.00,4.080
377.00,4.049
378.00,4.003
379.00,3.975
380.00,3.945
381.00,3.926
382.00,3.901
383.00,3.887
384.00,3.865
385.00,3.852
386.00,3.837
387.00,3.812
388.00,3.802
389.00,3.777
390.00,3.769
391.00,3.746
392.00,3.731
393.00,3.721
394.00,3.697
395.00,3.679
396.00,3.664
397.00,3.644
398.00,3.633
399.00,3.614
400.00,3.611
401.00,3.594
402.00,3.578
403.00,3.578
404.00,3.557
405.00,3.535
406.00,3.525
407.00,3.514
408.00,3.505
409.00,3.504
410.00,3.490
411.00,3.492
412.00,3.480
413.00,3.494
414.00,3.496
415.00,3.495
416.00,3.487
417.00,3.479
418.00,3.471
419.00,3.483
420.00,3.478
421.00,3.484
422.00,3.499
423.00,3.493
424.00,3.509
425.00,3.520
426.00,3.524
427.00,3.542
428.00,3.550
429.00,3.574
430.00,3.584
431.00,3.606
432.00,3.614
433.00,3.638
434.00,3.659
435.00,3.688
436.00,3.715
437.00,3.744
438.00,3.771
439.00,3.791
440.00,3.831
441.00,3.869
442.00,3.902
443.00,3.932
444.00,3.973
445.00,4.002
446.00,4.050
447.00,4.090
448.00,4.140
449.00,4.179
450.00,4.236
451.00,4.286
452.00,4.336
453.00,4.385
454.00,4.430
455.00,4.484
456.00,4.535
457.00,4.596
458.00,4.644
459.00,4.708
460.00,4.758
461.00,4.817
462.00,4.869
463.00,4.939
464.00,5.004
465.00,5.072
466.00,5.141
467.00,5.238
468.00,5.346
469.00,5.409
470.00,5.422
471.00,5.526
472.00,5.619
473.00,5.691
474.00,5.775
475.00,5.876
476.00,5.969
477.00,6.051
478.00,6.124
479.00,6.229
480.00,6.329
481.00,6.417
482.00,6.512
483.00,6.600
484.00,6.668
485.00,6.829
486.00,6.926
487.00,7.048
488.00,7.142
489.00,7.238
490.00,7.331
491.00,7.451
492.00,7.592
493.00,7.675
494.00,7.722
495.00,7.882
496.00,7.953
497.00,8.049
498.00,8.147
499.00,8.283
500.00,8.367
501.00,8.495
502.00,8.578
503.00,8.685
504.00,8.829
505.00,8.930
506.00,9.057
507.00,9.149
508.00,9.240
509.00,9.363
510.00,9.456
511.00,9.604
512.00,9.784
513.00,9.858
514.00,9.979
515.00,10.040
516.00,10.137
517.00,10.251
518.00,10.351
519.00,10.432
520.00,10.557
521.00,10.646
522.00,10.767
523.00,10.896
524.00,10.958
525.00,11.090
526.00,11.171
527.00,11.251
528.00,11.323
529.00,11.441
530.00,11.492
531.00,11.610
532.00,11.607
533.00,11.733
534.00,11.864
535.00,11.948
536.00,12.066
537.00,12.125
538.00,12.265
539.00,12.345
540.00,12.432
541.00,12.538
542.00,12.581
543.00,12.686
544.00,12.773
545.00,12.880
546.00,12.951
547.00,13.051
548.00,13.126
549.00,13.173
550.00,13.290
551.00,13.330
552.00,13.413
553.00,13.439
554.00,13.500
555.00,13.552
556.00,13.622
557.00,13.750
558.00,13.822
559.00,13.894
560.00,13.967
561.00,14.021
562.00,14.085
563.00,14.131
564.00,14.249
565.00,14.280
566.00,14.337
567.00,14.440
568.00,14.476
569.00,14.567
570.00,14.574
571.00,14.524
572.00,14.726
573.00,14.706
574.00,14.775
575.00,14.819
576.00,14.848
577.00,14.963
578.00,15.021
579.00,15.110
580.00,15.145
581.00,15.219
582.00,15.303
583.00,15.373
584.00,15.499
585.00,15.520
586.00,15.566
587.00,15.678
588.00,15.723
589.00,15.794
590.00,15.863
591.00,15.922
592.00,15.971
593.00,16.038
594.00,16.131
595.00,16.162
596.00,16.291
597.00,16.313
598.00,16.357
599.00,16.397
600.00,16.396
601.00,16.472
602.00,16.506
603.00,16.587
604.00,16.642
605.00,16.729
606.00,16.816
607.00,16.913
608.00,16.934
609.00,17.098
610.00,17.125
611.00,17.147
612.00,17.228
613.00,17.299
614.00,17.435
615.00,17.472
616.00,17.501
617.00,17.539
618.00,17.609
619.00,17.674
620.00,17.714
621.00,17.825
622.00,17.936
623.00,18.010
624.00,18.118
625.00,18.236
626.00,18.279
627.00,18.402
628.00,18.515
629.00,18.639
630.00,18.820
631.00,18.882
632.00,18.988
633.00,19.110
634.00,19.223
635.00,19.265
636.00,19.393
637.00,19.471
638.00,19.566
639.00,19.686
640.00,19.834
641.00,19.970
642.00,20.136
643.00,20.253
644.00,20.330
645.00,20.413
646.00,20.567
647.00,20.768
648.00,20.896
649.00,21.104
650.00,21.206
651.00,21.288
652.00,21.422
653.00,21.593
654.00,21.736
655.00,22.062
656.00,22.055
657.00,22.789
658.00,22.874
659.00,22.769
660.00,22.642
661.00,22.926
662.00,23.134
663.00,23.319
664.00,23.397
665.00,23.340
666.00,23.721
667.00,24.060
668.00,24.163
669.00,24.048
670.00,24.440
671.00,24.389
672.00,24.636
673.00,24.859
674.00,24.895
675.00,25.226
676.00,25.375
677.00,25.537
678.00,25.979
679.00,26.055
680.00,26.403
681.00,26.766
682.00,27.174
683.00,27.188
684.00,27.192
685.00,27.312
686.00,27.455
687.00,27.706
688.00,27.893
689.00,28.111
690.00,28.244
691.00,28.578
692.00,28.666
693.00,28.752
694.00,29.185
695.00,29.309
696.00,29.586
697.00,29.791
698.00,30.079
699.00,30.014
700.00,30.199
701.00,30.594
702.00,30.983
703.00,31.254
704.00,31.636
705.00,31.637
706.00,31.534
707.00,31.672
708.00,31.841
709.00,32.142
710.00,32.140
711.00,32.358
712.00,33.004
713.00,33.060
714.00,33.130
715.00,33.558
716.00,33.894
717.00,33.898
718.00,34.151
719.00,34.581
720.00,34.994
721.00,38.323
722.00,38.487
723.00,38.685
724.00,38.804
725.00,39.016
726.00,39.209
727.00,39.302
728.00,39.551
729.00,39.739
730.00,39.967
731.00,40.081
732.00,40.298
733.00,40.424
734.00,40.690
735.00,40.863
736.00,41.041
737.00,41.246
738.00,41.393
739.00,41.542
740.00,41.755
741.00,41.899
742.00,42.092
743.00,42.283
744.00,42.279
745.00,42.456
746.00,42.624
747.00,42.797
748.00,42.934
749.00,43.067
750.00,43.205
751.00,43.351
752.00,43.503
753.00,43.569
754.00,43.680
755.00,43.794
756.00,43.933
757.00,44.055
758.00,44.220
759.00,44.396
760.00,44.378
761.00,44.628
762.00,44.737
763.00,44.904
764.00,45.017
765.00,45.136
766.00,45.236
767.00,45.317
768.00,45.457
769.00,45.522
770.00,45.667
771.00,45.749
772.00,45.945
773.00,46.040
774.00,46.106
775.00,46.310
776.00,46.290
777.00,46.473
778.00,46.481
779.00,46.716
780.00,46.718
781.00,46.862
782.00,46.918
783.00,46.939
784.00,47.125
785.00,47.110
786.00,47.205
787.00,47.325
788.00,47.290
789.00,47.507
790.00,47.488
791.00,47.601
792.00,47.618
793.00,47.715
794.00,47.798
795.00,47.850
796.00,47.966
797.00,47.894
798.00,48.001
799.00,47.976
800.00,48.028
801.00,48.054
802.00,47.992
803.00,48.192
804.00,48.180
805.00,48.291
806.00,48.245
807.00,48.338
808.00,48.552
809.00,48.419
810.00,48.504
811.00,48.560
812.00,48.705
813.00,48.728
814.00,48.658
815.00,48.862
816.00,48.832
817.00,48.896
818.00,48.748
819.00,48.873
820.00,48.949
821.00,48.982
822.00,49.031
823.00,48.992
824.00,49.164
825.00,48.937
826.00,48.872
827.00,49.145
828.00,48.950
829.00,49.165
830.00,49.149
831.00,51.503
832.00,51.538
833.00,51.565
834.00,51.568
835.00,51.612
836.00,51.652
837.00,51.658
838.00,51.650
839.00,51.713
840.00,51.763
841.00,51.737
842.00,51.807
843.00,51.760
844.00,51.829
845.00,51.738
846.00,51.769
847.00,51.711
848.00,51.828
849.00,51.916
850.00,51.873
851.00,51.883
852.00,51.834
853.00,51.904
854.00,51.906
855.00,51.886
856.00,51.790
857.00,51.880
858.00,51.940
859.00,51.923
860.00,51.975
861.00,51.913
862.00,51.942
863.00,51.922
864.00,52.071
865.00,51.945
866.00,51.991
867.00,51.952
868.00,52.045
869.00,52.050
870.00,52.011
871.00,52.059
872.00,52.073
873.00,52.060
874.00,51.969
875.00,52.068
876.00,52.014
877.00,52.123
878.00,52.014
879.00,52.131
880.00,52.085
881.00,52.202
882.00,52.012
883.00,52.175
884.00,52.122
885.00,52.138
886.00,52.046
887.00,52.106
888.00,52.149
889.00,52.109
890.00,51.996
891.00,52.058
892.00,52.118
893.00,52.104
894.00,52.029
895.00,52.106
896.00,52.143
897.00,52.101
898.00,52.018
899.00,51.961
900.00,52.012
901.00,51.973
902.00,51.926
903.00,52.073
904.00,52.141
905.00,52.073
906.00,51.952
907.00,52.033
908.00,52.121
909.00,51.997
910.00,52.092
911.00,51.854
912.00,51.964
913.00,51.907
914.00,51.933
915.00,52.062
916.00,52.178
917.00,52.076
918.00,51.956
919.00,52.035
920.00,52.076
921.00,52.046
922.00,51.857
923.00,51.951
924.00,52.124
925.00,51.931
926.00,51.827
927.00,51.876
928.00,52.052
929.00,51.873
930.00,51.827
931.00,51.824
932.00,51.960
933.00,51.846
934.00,51.809
935.00,51.803
936.00,51.998
937.00,51.765
938.00,51.697
939.00,51.763
940.00,51.849
941.00,51.748
942.00,51.652
943.00,51.713
944.00,51.819
945.00,51.721
946.00,51.650
947.00,51.706
948.00,51.676
949.00,51.635
950.00,51.565
951.00,51.632
952.00,51.622
953.00,51.602
954.00,51.488
955.00,51.533
956.00,51.515
957.00,51.497
958.00,51.443
959.00,51.455
960.00,51.452
961.00,51.450
962.00,51.414
963.00,51.411
964.00,51.450
965.00,51.390
966.00,51.391
967.00,51.375
968.00,51.402
969.00,51.346
970.00,51.352
971.00,51.375
972.00,51.395
973.00,51.388
974.00,51.397
975.00,51.419
976.00,51.350
977.00,51.388
978.00,51.377
979.00,51.406
980.00,51.412
981.00,51.352
982.00,51.369
983.00,51.345
984.00,51.386
985.00,51.372
986.00,51.390
987.00,51.377
988.00,51.347
989.00,51.333
990.00,51.301
991.00,51.303
992.00,51.317
993.00,51.307
994.00,51.293
995.00,51.246
996.00,51.254
997.00,51.262
998.00,51.253
999.00,51.241
1000.00,51.231
1001.00,51.217
1002.00,51.208
1003.00,51.232
1004.00,51.186
1005.00,51.183
1006.00,51.176
1007.00,51.228
1008.00,51.198
1009.00,51.164
1010.00,51.184
1011.00,51.118
1012.00,51.118
1013.00,51.137
1014.00,51.112
1015.00,51.095
1016.00,51.057
1017.00,51.050
1018.00,51.047
1019.00,51.047
1020.00,50.997
1021.00,51.025
1022.00,51.006
1023.00,50.974
1024.00,50.935
1025.00,50.955
1026.00,50.956
1027.00,50.925
1028.00,50.945
1029.00,50.923
1030.00,50.928
1031.00,50.885
1032.00,50.830
1033.00,50.827
1034.00,50.818
1035.00,50.785
1036.00,50.731
1037.00,50.735
1038.00,50.729
1039.00,50.692
1040.00,50.677
1041.00,50.641
1042.00,50.626
1043.00,50.614
1044.00,50.671
1045.00,50.629
1046.00,50.624
1047.00,50.636
1048.00,50.666
1049.00,50.665
1050.00,50.683
1051.00,50.690
1052.00,50.721
1053.00,50.739
1054.00,50.770
1055.00,50.766
1056.00,50.744
1057.00,50.773
1058.00,50.780
1059.00,50.749
1060.00,50.730
1061.00,50.746
1062.00,50.738
1063.00,50.733
1064.00,50.696
1065.00,50.730
1066.00,50.720
1067.00,50.709
1068.00,50.697
1069.00,50.720
1070.00,50.680
1071.00,50.671
1072.00,50.665
1073.00,50.677
1074.00,50.665
1075.00,50.626
1076.00,50.633
1077.00,50.621
1078.00,50.601
1079.00,50.595
1080.00,50.588
1081.00,50.578
1082.00,50.582
1083.00,50.574
1084.00,50.595
1085.00,50.580
1086.00,50.568
1087.00,50.545
1088.00,50.565
1089.00,50.542
1090.00,50.538
1091.00,50.521
1092.00,50.523
1093.00,50.492
1094.00,50.493
1095.00,50.489
1096.00,50.489
1097.00,50.472
1098.00,50.483
1099.00,50.447
1100.00,50.445
1101.00,50.441
1102.00,50.434
1103.00,50.418
1104.00,50.451
1105.00,50.385
1106.00,50.400
1107.00,50.372
1108.00,50.364
1109.00,50.362
1110.00,50.364
1111.00,50.336
1112.00,50.329
1113.00,50.323
1114.00,50.322
1115.00,50.313
1116.00,50.320
1117.00,50.298
1118.00,50.314
1119.00,50.275
1120.00,50.275
1121.00,50.297
1122.00,50.281
1123.00,50.230
1124.00,50.227
1125.00,50.220
1126.00,50.273
1127.00,50.252
1128.00,50.255
1129.00,50.200
1130.00,50.221
1131.00,50.219
1132.00,50.205
1133.00,50.227
1134.00,50.170
1135.00,50.102
1136.00,50.185
1137.00,50.194
1138.00,50.180
1139.00,50.172
1140.00,50.143
1141.00,50.111
1142.00,50.156
1143.00,50.184
1144.00,50.147
1145.00,50.137
1146.00,50.109
1147.00,50.094
1148.00,50.117
1149.00,50.129
1150.00,50.167
1151.00,50.151
1152.00,50.101
1153.00,50.090
1154.00,50.101
1155.00,50.103
1156.00,50.110
1157.00,50.104
1158.00,50.083
1159.00,50.081
1160.00,50.070
1161.00,50.084
1162.00,50.067
1163.00,50.065
1164.00,50.074
1165.00,50.082
1166.00,50.042
1167.00,50.058
1168.00,50.070
1169.00,50.063
1170.00,50.055
1171.00,50.024
1172.00,50.035
1173.00,50.023
1174.00,50.034
1175.00,50.041
1176.00,50.030
1177.00,50.001
1178.00,50.015
1179.00,50.026
1180.00,50.018
1181.00,50.031
1182.00,50.019
1183.00,50.017
1184.00,49.995
1185.00,50.024
1186.00,50.014
1187.00,50.019
1188.00,50.000
1189.00,50.012
1190.00,49.984
1191.00,50.004
1192.00,50.024
1193.00,49.998
1194.00,49.998
1195.00,49.984
1196.00,49.984
1197.00,49.992
1198.00,50.008
1199.00,49.979
1200.00,49.979
1201.00,49.977
1202.00,49.962
1203.00,49.974
1204.00,49.966
1205.00,49.985
1206.00,49.968
1207.00,49.974
1208.00,49.948
1209.00,49.973
1210.00,49.966
1211.00,49.969
1212.00,49.976
1213.00,49.931
1214.00,49.960
1215.00,49.933
1216.00,49.959
1217.00,49.953
1218.00,49.934
1219.00,49.953
1220.00,49.945
1221.00,49.961
1222.00,49.967
1223.00,49.978
1224.00,49.944
1225.00,49.944
1226.00,49.940
1227.00,49.954
1228.00,49.959
1229.00,49.985
1230.00,50.024
1231.00,50.006
1232.00,50.004
1233.00,49.998
1234.00,50.004
1235.00,49.991
1236.00,50.007
1237.00,49.981
1238.00,49.998
1239.00,49.998
1240.00,49.989
1241.00,50.005
1242.00,50.007
1243.00,50.029
1244.00,49.987
1245.00,50.022
1246.00,50.039
1247.00,50.038
1248.00,50.015
1249.00,50.004
1250.00,49.998
1251.00,49.994
1252.00,50.003
1253.00,50.026
1254.00,50.031
1255.00,50.001
1256.00,50.025
1257.00,50.005
1258.00,50.070
1259.00,50.065
1260.00,50.061
1261.00,50.057
1262.00,50.053
1263.00,50.056
1264.00,50.084
1265.00,50.083
1266.00,50.084
1267.00,50.085
1268.00,50.093
1269.00,50.088
1270.00,50.116
1271.00,50.119
1272.00,50.110
1273.00,50.116
1274.00,50.124
1275.00,50.121
1276.00,50.116
1277.00,50.124
1278.00,50.146
1279.00,50.136
1280.00,50.122
1281.00,50.115
1282.00,50.130
1283.00,50.128
1284.00,50.079
1285.00,50.102
1286.00,50.135
1287.00,50.127
1288.00,50.139
1289.00,50.134
1290.00,50.179
1291.00,50.164
1292.00,50.156
1293.00,50.157
1294.00,50.174
1295.00,50.209
1296.00,50.217
1297.00,50.209
1298.00,50.215
1299.00,50.190
1300.00,50.205
1301.00,50.228
1302.00,50.287
1303.00,50.238
1304.00,50.234
1305.00,50.271
1306.00,50.234
1307.00,50.235
1308.00,50.227
1309.00,50.273
1310.00,50.302
1311.00,50.248
1312.00,50.211
1313.00,50.238
1314.00,50.283
1315.00,50.298
1316.00,50.303
1317.00,50.312
1318.00,50.333
1319.00,50.334
1320.00,50.351
1321.00,50.409
1322.00,50.451
1323.00,50.403
1324.00,50.382
1325.00,50.418
1326.00,50.494
1327.00,50.412
1328.00,50.362
1329.00,50.417
1330.00,50.461
1331.00,50.396
1332.00,50.380
1333.00,50.430
1334.00,50.509
1335.00,50.454
1336.00,50.440
1337.00,50.511
1338.00,50.632
1339.00,50.658
1340.00,50.734
1341.00,50.777
1342.00,50.847
1343.00,50.923
1344.00,50.989
1345.00,51.040
1346.00,51.047
1347.00,51.055
1348.00,51.101
1349.00,51.122
1350.00,51.070
1351.00,50.987
1352.00,50.942
1353.00,51.055
1354.00,51.150
1355.00,51.096
1356.00,51.277
1357.00,51.216
1358.00,51.202
1359.00,50.667
1360.00,50.449
1361.00,50.519
1362.00,50.896
1363.00,51.731
1364.00,51.819
1365.00,51.602
1366.00,51.280
1367.00,51.106
1368.00,51.232
1369.00,51.438
1370.00,51.169
1371.00,51.182
1372.00,51.347
1373.00,51.309
1374.00,51.190
1375.00,51.102
1376.00,51.091
1377.00,51.052
1378.00,51.276
1379.00,51.031
1380.00,51.008
1381.00,51.105
1382.00,51.394
1383.00,51.497
1384.00,51.484
1385.00,51.308
1386.00,51.041
1387.00,51.140
1388.00,51.508
1389.00,51.499
1390.00,50.876
1391.00,50.972
1392.00,51.303
1393.00,51.781
1394.00,51.157
1395.00,51.177
1396.00,51.771
1397.00,51.826
1398.00,51.317
1399.00,51.398
1400.00,51.531
1401.00,51.260
1402.00,51.280
1403.00,51.123
1404.00,51.320
1405.00,51.375
1406.00,51.164
1407.00,51.281
1408.00,51.151
1409.00,51.266
1410.00,51.250
1411.00,51.110
1412.00,51.140
1413.00,50.970
1414.00,51.128
1415.00,51.348
1416.00,51.332
1417.00,51.490
1418.00,51.341
1419.00,51.237
1420.00,51.357
1421.00,51.505
1422.00,51.311
1423.00,51.287
1424.00,51.408
1425.00,51.403
1426.00,51.386
1427.00,51.407
1428.00,51.480
1429.00,51.489
1430.00,51.453
1431.00,51.397
1432.00,51.501
1433.00,51.503
1434.00,51.485
1435.00,51.556
1436.00,51.490
1437.00,51.498
1438.00,51.558
1439.00,51.598
1440.00,51.606
1441.00,51.602
1442.00,51.617
1443.00,51.655
1444.00,51.639
1445.00,51.598
1446.00,51.688
1447.00,51.731
1448.00,51.786
1449.00,51.757
1450.00,51.726
1451.00,51.777
1452.00,51.787
1453.00,51.831
1454.00,51.802
1455.00,51.829
1456.00,51.853
1457.00,51.841
1458.00,51.870
1459.00,51.882
1460.00,51.898
1461.00,51.946
1462.00,51.961
1463.00,51.944
1464.00,51.951
1465.00,51.970
1466.00,51.970
1467.00,52.005
1468.00,52.032
1469.00,52.026
1470.00,52.047
1471.00,52.039
1472.00,52.064
1473.00,52.092
1474.00,52.116
1475.00,52.122
1476.00,52.112
1477.00,52.107
1478.00,52.138
1479.00,52.161
1480.00,52.168
1481.00,52.178
1482.00,52.187
1483.00,52.207
1484.00,52.229
1485.00,52.245
1486.00,52.252
1487.00,52.284
1488.00,52.269
1489.00,52.277
1490.00,52.273
1491.00,52.293
1492.00,52.354
1493.00,52.287
1494.00,52.328
1495.00,52.323
1496.00,52.352
1497.00,52.349
1498.00,52.340
1499.00,52.401
1500.00,52.416
1501.00, 
1502.00, 
1503.00, 
1504.00, 
1505.00, 
1506.00, 
1507.00, 
1508.00, 
1509.00, 
1510.00, 
1511.00, 
1512.00, 
1513.00, 
1514.00, 
1515.00, 
1516.00, 
1517.00, 
1518.00, 
1519.00, 
1520.00, 
1521.00, 
1522.00, 
1523.00, 
1524.00, 
1525.00, 
1526.00, 
1527.00, 
1528.00, 
1529.00, 
1530.00, 
1531.00, 
1532.00, 
1533.00, 
1534.00, 
1535.00, 
1536.00, 
1537.00, 
1538.00, 
1539.00, 
1540.00, 
1541.00, 
1542.00, 
1543.00, 
1544.00, 
1545.00, 
1546.00, 
1547.00, 
1548.00, 
1549.00, 
1550.00, 
1551.00, 
1552.00, 
1553.00, 
1554.00, 
1555.00, 
1556.00, 
1557.00, 
1558.00, 
1559.00, 
1560.00, 
1561.00, 
1562.00, 
1563.00, 
1564.00, 
1565.00, 
1566.00, 
1567.00, 
1568.00, 
1569.00, 
1570.00, 
1571.00, 
1572.00, 
1573.00, 
1574.00, 
1575.00, 
1576.00, 
1577.00, 
1578.00, 
1579.00, 
1580.00, 
1581.00, 
1582.00, 
1583.00, 
1584.00, 
1585.00, 
1586.00, 
1587.00, 
1588.00, 
1589.00, 
1590.00, 
1591.00, 
1592.00, 
1593.00, 
1594.00, 
1595.00, 
1596.00, 
1597.00, 
1598.00, 
1599.00, 
1600.00, 
1601.00, 
1602.00, 
1603.00, 
1604.00, 
1605.00, 
1606.00, 
1607.00, 
1608.00, 
1609.00, 
1610.00, 
1611.00, 
1612.00, 
1613.00, 
1614.00, 
1615.00, 
1616.00, 
1617.00, 
1618.00, 
1619.00, 
1620.00, 
1621.00, 
1622.00, 
1623.00, 
1624.00, 
1625.00, 
1626.00, 
1627.00, 
1628.00, 
1629.00, 
1630.00, 
1631.00, 
1632.00, 
1633.00, 
1634.00, 
1635.00, 
1636.00, 
1637.00, 
1638.00, 
1639.00, 
1640.00, 
1641.00, 
1642.00, 
1643.00, 
1644.00, 
1645.00, 
1646.00, 
1647.00, 
1648.00, 
1649.00, 
1650.00, 
1651.00, 
1652.00, 
1653.00, 
1654.00, 
1655.00, 
1656.00, 
1657.00, 
1658.00, 
1659.00, 
1660.00, 
1661.00, 
1662.00, 
1663.00, 
1664.00, 
1665.00, 
1666.00, 
1667.00, 
1668.00, 
1669.00, 
1670.00, 
1671.00, 
1672.00, 
1673.00, 
1674.00, 
1675.00, 
1676.00, 
1677.00, 
1678.00, 
1679.00, 
1680.00, 
1681.00, 
1682.00, 
1683.00, 
1684.00, 
1685.00, 
1686.00, 
1687.00, 
1688.00, 
1689.00, 
1690.00, 
1691.00, 
1692.00, 
1693.00, 
1694.00, 
1695.00, 
1696.00, 
1697.00, 
1698.00, 
1699.00, 
1700.00, 
1701.00, 
1702.00, 
1703.00, 
1704.00, 
1705.00, 
1706.00, 
1707.00, 
1708.00, 
1709.00, 
1710.00, 
1711.00, 
1712.00, 
1713.00, 
1714.00, 
1715.00, 
1716.00, 
1717.00, 
1718.00, 
1719.00, 
1720.00, 
1721.00, 
1722.00, 
1723.00, 
1724.00, 
1725.00, 
1726.00, 
1727.00, 
1728.00, 
1729.00, 
1730.00, 
1731.00, 
1732.00, 
1733.00, 
1734.00, 
1735.00, 
1736.00, 
1737.00, 
1738.00, 
1739.00, 
1740.00, 
1741.00, 
1742.00, 
1743.00, 
1744.00, 
1745.00, 
1746.00, 
1747.00, 
1748.00, 
1749.00, 
1750.00, 
1751.00, 
1752.00, 
1753.00, 
1754.00, 
1755.00, 
1756.00, 
1757.00, 
1758.00, 
1759.00, 
1760.00, 
1761.00, 
1762.00, 
1763.00, 
1764.00, 
1765.00, 
1766.00, 
1767.00, 
1768.00, 
1769.00, 
1770.00, 
1771.00, 
1772.00, 
1773.00, 
1774.00, 
1775.00, 
1776.00, 
1777.00, 
1778.00, 
1779.00, 
1780.00, 
1781.00, 
1782.00, 
1783.00, 
1784.00, 
1785.00, 
1786.00, 
1787.00, 
1788.00, 
1789.00, 
1790.00, 
1791.00, 
1792.00, 
1793.00, 
1794.00, 
1795.00, 
1796.00, 
1797.00, 
1798.00, 
1799.00, 
1800.00, 
1801.00, 
1802.00, 
1803.00, 
1804.00, 
1805.00, 
1806.00, 
1807.00, 
1808.00, 
1809.00, 
1810.00, 
1811.00, 
1812.00, 
1813.00, 
1814.00, 
1815.00, 
1816.00, 
1817.00, 
1818.00, 
1819.00, 
1820.00, 
1821.00, 
1822.00, 
1823.00, 
1824.00, 
1825.00, 
1826.00, 
1827.00, 
1828.00, 
1829.00, 
1830.00, 
1831.00, 
1832.00, 
1833.00, 
1834.00, 
1835.00, 
1836.00, 
1837.00, 
1838.00, 
1839.00, 
1840.00, 
1841.00, 
1842.00, 
1843.00, 
1844.00, 
1845.00, 
1846.00, 
1847.00, 
1848.00, 
1849.00, 
1850.00, 
1851.00, 
1852.00, 
1853.00, 
1854.00, 
1855.00, 
1856.00, 
1857.00, 
1858.00, 
1859.00, 
1860.00, 
1861.00, 
1862.00, 
1863.00, 
1864.00, 
1865.00, 
1866.00, 
1867.00, 
1868.00, 
1869.00, 
1870.00, 
1871.00, 
1872.00, 
1873.00, 
1874.00, 
1875.00, 
1876.00, 
1877.00, 
1878.00, 
1879.00, 
1880.00, 
1881.00, 
1882.00, 
1883.00, 
1884.00, 
1885.00, 
1886.00, 
1887.00, 
1888.00, 
1889.00, 
1890.00, 
1891.00, 
1892.00, 
1893.00, 
1894.00, 
1895.00, 
1896.00, 
1897.00, 
1898.00, 
1899.00, 
1900.00, 
1901.00, 
1902.00, 
1903.00, 
1904.00, 
1905.00, 
1906.00, 
1907.00, 
1908.00, 
1909.00, 
1910.00, 
1911.00, 
1912.00, 
1913.00, 
1914.00, 
1915.00, 
1916.00, 
1917.00, 
1918.00, 
1919.00, 
1920.00, 
1921.00, 
1922.00, 
1923.00, 
1924.00, 
1925.00, 
1926.00, 
1927.00, 
1928.00, 
1929.00, 
1930.00, 
1931.00, 
1932.00, 
1933.00, 
1934.00, 
1935.00, 
1936.00, 
1937.00, 
1938.00, 
1939.00, 
1940.00, 
1941.00, 
1942.00, 
1943.00, 
1944.00, 
1945.00, 
1946.00, 
1947.00, 
1948.00, 
1949.00, 
1950.00, 
1951.00, 
1952.00, 
1953.00, 
1954.00, 
1955.00, 
1956.00, 
1957.00, 
1958.00, 
1959.00, 
1960.00, 
1961.00, 
1962.00, 
1963.00, 
1964.00, 
1965.00, 
1966.00, 
1967.00, 
1968.00, 
1969.00, 
1970.00, 
1971.00, 
1972.00, 
1973.00, 
1974.00, 
1975.00, 
1976.00, 
1977.00, 
1978.00, 
1979.00, 
1980.00, 
1981.00, 
1982.00, 
1983.00, 
1984.00, 
1985.00, 
1986.00, 
1987.00, 
1988.00, 
1989.00, 
1990.00, 
1991.00, 
1992.00, 
1993.00, 
1994.00, 
1995.00, 
1996.00, 
1997.00, 
1998.00, 
1999.00, 
2000.00, 
2001.00, 
2002.00, 
2003.00, 
2004.00, 
2005.00, 
2006.00, 
2007.00, 
2008.00, 
2009.00, 
2010.00, 
2011.00, 
2012.00, 
2013.00, 
2014.00, 
2015.00, 
2016.00, 
2017.00, 
2018.00, 
2019.00, 
2020.00, 
2021.00, 
2022.00, 
2023.00, 
2024.00, 
2025.00, 
2026.00, 
2027.00, 
2028.00, 
2029.00, 
2030.00, 
2031.00, 
2032.00, 
2033.00, 
2034.00, 
2035.00, 
2036.00, 
2037.00, 
2038.00, 
2039.00, 
2040.00, 
2041.00, 
2042.00, 
2043.00, 
2044.00, 
2045.00, 
2046.00, 
2047.00, 
2048.00, 
2049.00, 
2050.00, 
2051.00, 
2052.00, 
2053.00, 
2054.00, 
2055.00, 
2056.00, 
2057.00, 
2058.00, 
2059.00, 
2060.00, 
2061.00, 
2062.00, 
2063.00, 
2064.00, 
2065.00, 
2066.00, 
2067.00, 
2068.00, 
2069.00, 
2070.00, 
2071.00, 
2072.00, 
2073.00, 
2074.00, 
2075.00, 
2076.00, 
2077.00, 
2078.00, 
2079.00, 
2080.00, 
2081.00, 
2082.00, 
2083.00, 
2084.00, 
2085.00, 
2086.00, 
2087.00, 
2088.00, 
2089.00, 
2090.00, 
2091.00, 
2092.00, 
2093.00, 
2094.00, 
2095.00, 
2096.00, 
2097.00, 
2098.00, 
2099.00, 
2100.00, 
2101.00, 
2102.00, 
2103.00, 
2104.00, 
2105.00, 
2106.00, 
2107.00, 
2108.00, 
2109.00, 
2110.00, 
2111.00, 
2112.00, 
2113.00, 
2114.00, 
2115.00, 
2116.00, 
2117.00, 
2118.00, 
2119.00, 
2120.00, 
2121.00, 
2122.00, 
2123.00, 
2124.00, 
2125.00, 
2126.00, 
2127.00, 
2128.00, 
2129.00, 
2130.00, 
2131.00, 
2132.00, 
2133.00, 
2134.00, 
2135.00, 
2136.00, 
2137.00, 
2138.00, 
2139.00, 
2140.00, 
2141.00, 
2142.00, 
2143.00, 
2144.00, 
2145.00, 
2146.00, 
2147.00, 
2148.00, 
2149.00, 
2150.00, 
2151.00, 
2152.00, 
2153.00, 
2154.00, 
2155.00, 
2156.00, 
2157.00, 
2158.00, 
2159.00, 
2160.00, 
2161.00, 
2162.00, 
2163.00, 
2164.00, 
2165.00, 
2166.00, 
2167.00, 
2168.00, 
2169.00, 
2170.00, 
2171.00, 
2172.00, 
2173.00, 
2174.00, 
2175.00, 
2176.00, 
2177.00, 
2178.00, 
2179.00, 
2180.00, 
2181.00, 
2182.00, 
2183.00, 
2184.00, 
2185.00, 
2186.00, 
2187.00, 
2188.00, 
2189.00, 
2190.00, 
2191.00, 
2192.00, 
2193.00, 
2194.00, 
2195.00, 
2196.00, 
2197.00, 
2198.00, 
2199.00, 
2200.00, 
2201.00, 
2202.00, 
2203.00, 
2204.00, 
2205.00, 
2206.00, 
2207.00, 
2208.00, 
2209.00, 
2210.00, 
2211.00, 
2212.00, 
2213.00, 
2214.00, 
2215.00, 
2216.00, 
2217.00, 
2218.00, 
2219.00, 
2220.00, 
2221.00, 
2222.00, 
2223.00, 
2224.00, 
2225.00, 
2226.00, 
2227.00, 
2228.00, 
2229.00, 
2230.00, 
2231.00, 
2232.00, 
2233.00, 
2234.00, 
2235.00, 
2236.00, 
2237.00, 
2238.00, 
2239.00, 
2240.00, 
2241.00, 
2242.00, 
2243.00, 
2244.00, 
2245.00, 
2246.00, 
2247.00, 
2248.00, 
2249.00, 
2250.00, 
2251.00, 
2252.00, 
2253.00, 
2254.00, 
2255.00, 
2256.00, 
2257.00, 
2258.00, 
2259.00, 
2260.00, 
2261.00, 
2262.00, 
2263.00, 
2264.00, 
2265.00, 
2266.00, 
2267.00, 
2268.00, 
2269.00, 
2270.00, 
2271.00, 
2272.00, 
2273.00, 
2274.00, 
2275.00, 
2276.00, 
2277.00, 
2278.00, 
2279.00, 
2280.00, 
2281.00, 
2282.00, 
2283.00, 
2284.00, 
2285.00, 
2286.00, 
2287.00, 
2288.00, 
2289.00, 
2290.00, 
2291.00, 
2292.00, 
2293.00, 
2294.00, 
2295.00, 
2296.00, 
2297.00, 
2298.00, 
2299.00, 
2300.00, 
2301.00, 
2302.00, 
2303.00, 
2304.00, 
2305.00, 
2306.00, 
2307.00, 
2308.00, 
2309.00, 
2310.00, 
2311.00, 
2312.00, 
2313.00, 
2314.00, 
2315.00, 
2316.00, 
2317.00, 
2318.00, 
2319.00, 
2320.00, 
2321.00, 
2322.00, 
2323.00, 
2324.00, 
2325.00, 
2326.00, 
2327.00, 
2328.00, 
2329.00, 
2330.00, 
2331.00, 
2332.00, 
2333.00, 
2334.00, 
2335.00, 
2336.00, 
2337.00, 
2338.00, 
2339.00, 
2340.00, 
2341.00, 
2342.00, 
2343.00, 
2344.00, 
2345.00, 
2346.00, 
2347.00, 
2348.00, 
2349.00, 
2350.00, 
2351.00, 
2352.00, 
2353.00, 
2354.00, 
2355.00, 
2356.00, 
2357.00, 
2358.00, 
2359.00, 
2360.00, 
2361.00, 
2362.00, 
2363.00, 
2364.00, 
2365.00, 
2366.00, 
2367.00, 
2368.00, 
2369.00, 
2370.00, 
2371.00, 
2372.00, 
2373.00, 
2374.00, 
2375.00, 
2376.00, 
2377.00, 
2378.00, 
2379.00, 
2380.00, 
2381.00, 
2382.00, 
2383.00, 
2384.00, 
2385.00, 
2386.00, 
2387.00, 
2388.00, 
2389.00, 
2390.00, 
2391.00, 
2392.00, 
2393.00, 
2394.00, 
2395.00, 
2396.00, 
2397.00, 
2398.00, 
2399.00, 
2400.00, 
2401.00, 
2402.00, 
2403.00, 
2404.00, 
2405.00, 
2406.00, 
2407.00, 
2408.00, 
2409.00, 
2410.00, 
2411.00, 
2412.00, 
2413.00, 
2414.00, 
2415.00, 
2416.00, 
2417.00, 
2418.00, 
2419.00, 
2420.00, 
2421.00, 
2422.00, 
2423.00, 
2424.00, 
2425.00, 
2426.00, 
2427.00, 
2428.00, 
2429.00, 
2430.00, 
2431.00, 
2432.00, 
2433.00, 
2434.00, 
2435.00, 
2436.00, 
2437.00, 
2438.00, 
2439.00, 
2440.00, 
2441.00, 
2442.00, 
2443.00, 
2444.00, 
2445.00, 
2446.00, 
2447.00, 
2448.00, 
2449.00, 
2450.00, 
2451.00, 
2452.00, 
2453.00, 
2454.00, 
2455.00, 
2456.00, 
2457.00, 
2458.00, 
2459.00, 
2460.00, 
2461.00, 
2462.00, 
2463.00, 
2464.00, 
2465.00, 
2466.00, 
2467.00, 
2468.00, 
2469.00, 
2470.00, 
2471.00, 
2472.00, 
2473.00, 
2474.00, 
2475.00, 
2476.00, 
2477.00, 
2478.00, 
2479.00, 
2480.00, 
2481.00, 
2482.00, 
2483.00, 
2484.00, 
2485.00, 
2486.00, 
2487.00, 
2488.00, 
2489.00, 
2490.00, 
2491.00, 
2492.00, 
2493.00, 
2494.00, 
2495.00, 
2496.00, 
2497.00, 
2498.00, 
2499.00, 
2500.00, 
2501.00, 
2502.00, 
2503.00, 
2504.00, 
2505.00, 
2506.00, 
2507.00, 
2508.00, 
2509.00, 
2510.00, 
2511.00, 
2512.00, 
2513.00, 
2514.00, 
2515.00, 
2516.00, 
2517.00, 
2518.00, 
2519.00, 
2520.00, 
2521.00, 
2522.00, 
2523.00, 
2524.00, 
2525.00, 
2526.00, 
2527.00, 
2528.00, 
2529.00, 
2530.00, 
2531.00, 
2532.00, 
2533.00, 
2534.00, 
2535.00, 
2536.00, 
2537.00, 
2538.00, 
2539.00, 
2540.00, 
2541.00, 
2542.00, 
2543.00, 
2544.00, 
2545.00, 
2546.00, 
2547.00, 
2548.00, 
2549.00, 
2550.00, 
2551.00, 
2552.00, 
2553.00, 
2554.00, 
2555.00, 
2556.00, 
2557.00, 
2558.00, 
2559.00, 
2560.00, 
2561.00, 
2562.00, 
2563.00, 
2564.00, 
2565.00, 
2566.00, 
2567.00, 
2568.00, 
2569.00, 
2570.00, 
2571.00, 
2572.00, 
2573.00, 
2574.00, 
2575.00, 
2576.00, 
2577.00, 
2578.00, 
2579.00, 
2580.00, 
2581.00, 
2582.00, 
2583.00, 
2584.00, 
2585.00, 
2586.00, 
2587.00, 
2588.00, 
2589.00, 
2590.00, 
2591.00, 
2592.00, 
2593.00, 
2594.00, 
2595.00, 
2596.00, 
2597.00, 
2598.00, 
2599.00, 
2600.00, 
