"2cP3 - RawData"
"Wavelength nm.","T%"
200.00,0.000
201.00,0.003
202.00,0.002
203.00,0.006
204.00,0.003
205.00,0.000
206.00,-0.003
207.00,-0.001
208.00,-0.000
209.00,0.002
210.00,0.001
211.00,0.003
212.00,0.003
213.00,0.002
214.00,-0.000
215.00,-0.001
216.00,-0.001
217.00,0.002
218.00,0.004
219.00,0.001
220.00,0.004
221.00,0.002
222.00,0.002
223.00,0.004
224.00,0.000
225.00,0.003
226.00,0.001
227.00,-0.001
228.00,-0.003
229.00,-0.000
230.00,0.000
231.00,0.003
232.00,0.002
233.00,0.000
234.00,0.001
235.00,-0.000
236.00,-0.000
237.00,0.001
238.00,-0.001
239.00,0.001
240.00,0.001
241.00,0.001
242.00,-0.001
243.00,0.002
244.00,-0.000
245.00,0.003
246.00,0.002
247.00,0.001
248.00,0.001
249.00,0.001
250.00,0.001
251.00,0.000
252.00,0.001
253.00,0.001
254.00,0.001
255.00,0.001
256.00,0.001
257.00,0.002
258.00,0.000
259.00,0.000
260.00,-0.001
261.00,0.001
262.00,0.001
263.00,0.001
264.00,-0.001
265.00,-0.000
266.00,0.001
267.00,-0.002
268.00,0.001
269.00,0.001
270.00,-0.000
271.00,0.001
272.00,0.000
273.00,-0.000
274.00,-0.000
275.00,0.000
276.00,-0.001
277.00,-0.001
278.00,0.001
279.00,-0.001
280.00,-0.001
281.00,0.002
282.00,0.000
283.00,0.000
284.00,0.001
285.00,0.000
286.00,-0.000
287.00,0.000
288.00,0.001
289.00,0.001
290.00,-0.001
291.00,-0.001
292.00,-0.000
293.00,0.002
294.00,-0.000
295.00,0.001
296.00,0.000
297.00,0.001
298.00,0.001
299.00,0.001
300.00,0.002
301.00,0.004
302.00,0.006
303.00,0.009
304.00,0.014
305.00,0.021
306.00,0.034
307.00,0.050
308.00,0.077
309.00,0.124
310.00,0.176
311.00,0.237
312.00,0.325
313.00,0.449
314.00,0.583
315.00,0.756
316.00,0.962
317.00,1.216
318.00,1.503
319.00,1.864
320.00,2.257
321.00,2.723
322.00,3.218
323.00,3.802
324.00,4.394
325.00,5.018
326.00,5.573
327.00,6.372
328.00,7.162
329.00,7.926
330.00,8.717
331.00,9.569
332.00,10.402
333.00,11.286
334.00,12.125
335.00,12.993
336.00,13.870
337.00,14.769
338.00,15.593
339.00,16.346
340.00,17.207
341.00,18.013
342.00,18.763
343.00,19.481
344.00,20.211
345.00,20.906
346.00,21.480
347.00,22.070
348.00,22.665
349.00,23.256
350.00,23.783
351.00,24.226
352.00,24.662
353.00,25.095
354.00,25.533
355.00,25.902
356.00,26.308
357.00,26.666
358.00,26.993
359.00,27.246
360.00,27.563
361.00,27.773
362.00,27.995
363.00,28.281
364.00,28.470
365.00,28.661
366.00,28.753
367.00,28.948
368.00,29.080
369.00,29.218
370.00,29.270
371.00,29.415
372.00,29.467
373.00,29.453
374.00,29.487
375.00,29.514
376.00,29.572
377.00,29.513
378.00,29.472
379.00,29.411
380.00,29.474
381.00,29.476
382.00,29.500
383.00,29.550
384.00,29.605
385.00,29.702
386.00,29.753
387.00,29.838
388.00,29.902
389.00,29.938
390.00,30.055
391.00,30.068
392.00,30.113
393.00,30.091
394.00,30.281
395.00,30.300
396.00,30.276
397.00,30.326
398.00,30.388
399.00,30.374
400.00,30.388
401.00,30.428
402.00,30.481
403.00,30.436
404.00,30.473
405.00,30.422
406.00,30.482
407.00,30.429
408.00,30.417
409.00,30.395
410.00,30.367
411.00,30.360
412.00,30.336
413.00,30.319
414.00,30.318
415.00,30.339
416.00,30.339
417.00,30.372
418.00,30.353
419.00,30.418
420.00,30.492
421.00,30.432
422.00,30.597
423.00,30.617
424.00,30.638
425.00,30.638
426.00,30.695
427.00,30.711
428.00,30.767
429.00,30.771
430.00,30.893
431.00,30.956
432.00,30.859
433.00,30.972
434.00,30.965
435.00,31.079
436.00,31.081
437.00,31.136
438.00,31.221
439.00,31.272
440.00,31.334
441.00,31.383
442.00,31.492
443.00,31.548
444.00,31.641
445.00,31.696
446.00,31.787
447.00,31.921
448.00,31.955
449.00,32.024
450.00,32.109
451.00,32.207
452.00,32.301
453.00,32.392
454.00,32.466
455.00,32.553
456.00,32.671
457.00,32.744
458.00,32.826
459.00,32.917
460.00,33.019
461.00,33.077
462.00,33.199
463.00,33.323
464.00,33.450
465.00,33.558
466.00,33.671
467.00,33.706
468.00,33.825
469.00,33.909
470.00,33.978
471.00,34.072
472.00,34.170
473.00,34.223
474.00,34.303
475.00,34.443
476.00,34.475
477.00,34.627
478.00,34.676
479.00,34.801
480.00,34.921
481.00,35.026
482.00,35.185
483.00,35.258
484.00,35.391
485.00,35.535
486.00,35.667
487.00,35.776
488.00,35.880
489.00,36.084
490.00,36.177
491.00,36.268
492.00,36.476
493.00,36.505
494.00,36.543
495.00,36.620
496.00,36.739
497.00,36.844
498.00,36.971
499.00,37.110
500.00,37.175
501.00,37.320
502.00,37.378
503.00,37.480
504.00,37.556
505.00,37.661
506.00,37.772
507.00,37.828
508.00,37.957
509.00,38.069
510.00,38.137
511.00,38.232
512.00,38.380
513.00,38.458
514.00,38.554
515.00,38.672
516.00,38.736
517.00,38.842
518.00,38.932
519.00,38.965
520.00,39.082
521.00,39.134
522.00,39.182
523.00,39.215
524.00,39.285
525.00,39.421
526.00,39.506
527.00,39.622
528.00,39.650
529.00,39.749
530.00,39.857
531.00,39.943
532.00,40.067
533.00,40.115
534.00,40.215
535.00,40.269
536.00,40.380
537.00,40.423
538.00,40.495
539.00,40.571
540.00,40.624
541.00,40.717
542.00,40.722
543.00,40.795
544.00,40.901
545.00,40.939
546.00,40.932
547.00,41.081
548.00,41.136
549.00,41.162
550.00,41.233
551.00,41.333
552.00,41.357
553.00,41.449
554.00,41.544
555.00,41.614
556.00,41.662
557.00,41.708
558.00,41.766
559.00,41.817
560.00,41.898
561.00,41.916
562.00,42.032
563.00,42.162
564.00,42.086
565.00,42.121
566.00,42.114
567.00,42.143
568.00,42.138
569.00,42.220
570.00,42.241
571.00,42.339
572.00,42.315
573.00,42.341
574.00,42.400
575.00,42.441
576.00,42.459
577.00,42.491
578.00,42.584
579.00,42.611
580.00,42.711
581.00,42.815
582.00,42.870
583.00,42.928
584.00,43.028
585.00,43.068
586.00,43.173
587.00,43.162
588.00,43.227
589.00,43.278
590.00,43.323
591.00,43.325
592.00,43.328
593.00,43.365
594.00,43.416
595.00,43.423
596.00,43.537
597.00,43.552
598.00,43.667
599.00,43.660
600.00,43.774
601.00,43.794
602.00,43.821
603.00,43.824
604.00,43.879
605.00,43.907
606.00,43.963
607.00,43.997
608.00,44.064
609.00,44.049
610.00,44.012
611.00,44.107
612.00,44.148
613.00,44.122
614.00,44.179
615.00,44.219
616.00,44.270
617.00,44.300
618.00,44.392
619.00,44.351
620.00,44.375
621.00,44.452
622.00,44.443
623.00,44.497
624.00,44.544
625.00,44.593
626.00,44.714
627.00,44.731
628.00,44.785
629.00,44.819
630.00,44.855
631.00,44.913
632.00,44.952
633.00,44.994
634.00,45.076
635.00,45.155
636.00,45.237
637.00,45.264
638.00,45.259
639.00,45.289
640.00,45.311
641.00,45.400
642.00,45.374
643.00,45.426
644.00,45.521
645.00,45.613
646.00,45.671
647.00,45.686
648.00,45.754
649.00,45.703
650.00,45.783
651.00,45.872
652.00,45.813
653.00,45.806
654.00,45.937
655.00,45.778
656.00,46.098
657.00,46.344
658.00,46.305
659.00,46.257
660.00,46.337
661.00,46.396
662.00,46.519
663.00,46.513
664.00,46.610
665.00,46.630
666.00,46.735
667.00,46.782
668.00,46.771
669.00,46.857
670.00,46.913
671.00,46.881
672.00,47.033
673.00,47.169
674.00,47.222
675.00,47.189
676.00,47.219
677.00,47.310
678.00,47.235
679.00,47.258
680.00,47.407
681.00,47.405
682.00,47.505
683.00,47.485
684.00,47.566
685.00,47.639
686.00,47.587
687.00,47.756
688.00,47.777
689.00,47.762
690.00,47.877
691.00,47.954
692.00,47.834
693.00,47.871
694.00,47.896
695.00,48.051
696.00,48.116
697.00,48.099
698.00,48.201
699.00,48.315
700.00,48.469
701.00,48.381
702.00,48.308
703.00,48.488
704.00,48.493
705.00,48.539
706.00,48.591
707.00,48.741
708.00,48.577
709.00,48.726
710.00,48.869
711.00,48.593
712.00,48.574
713.00,48.774
714.00,48.627
715.00,48.737
716.00,48.919
717.00,48.694
718.00,48.756
719.00,48.827
720.00,48.933
721.00,53.250
722.00,53.244
723.00,53.240
724.00,53.185
725.00,53.141
726.00,53.131
727.00,53.114
728.00,53.123
729.00,53.048
730.00,53.132
731.00,53.056
732.00,53.078
733.00,53.135
734.00,53.134
735.00,53.112
736.00,53.090
737.00,53.047
738.00,53.101
739.00,53.077
740.00,53.087
741.00,53.107
742.00,53.040
743.00,53.084
744.00,52.965
745.00,53.084
746.00,52.991
747.00,52.996
748.00,52.945
749.00,52.886
750.00,52.900
751.00,52.876
752.00,52.814
753.00,52.910
754.00,52.750
755.00,52.795
756.00,52.793
757.00,52.831
758.00,52.719
759.00,52.844
760.00,52.735
761.00,52.763
762.00,52.721
763.00,52.716
764.00,52.696
765.00,52.724
766.00,52.680
767.00,52.715
768.00,52.674
769.00,52.662
770.00,52.658
771.00,52.677
772.00,52.665
773.00,52.662
774.00,52.668
775.00,52.640
776.00,52.587
777.00,52.638
778.00,52.519
779.00,52.551
780.00,52.575
781.00,52.542
782.00,52.521
783.00,52.402
784.00,52.535
785.00,52.437
786.00,52.550
787.00,52.390
788.00,52.373
789.00,52.393
790.00,52.355
791.00,52.391
792.00,52.294
793.00,52.238
794.00,52.274
795.00,52.190
796.00,52.268
797.00,52.148
798.00,52.242
799.00,52.165
800.00,52.150
801.00,52.199
802.00,52.092
803.00,52.032
804.00,51.996
805.00,51.998
806.00,52.003
807.00,51.908
808.00,51.959
809.00,51.934
810.00,51.859
811.00,51.850
812.00,51.893
813.00,51.813
814.00,51.863
815.00,51.825
816.00,51.829
817.00,51.844
818.00,51.705
819.00,51.667
820.00,51.759
821.00,51.653
822.00,51.648
823.00,51.688
824.00,51.640
825.00,51.502
826.00,51.625
827.00,51.631
828.00,51.519
829.00,51.580
830.00,51.467
831.00,54.087
832.00,54.067
833.00,54.029
834.00,54.038
835.00,53.993
836.00,53.985
837.00,53.937
838.00,53.903
839.00,53.921
840.00,53.826
841.00,53.876
842.00,53.824
843.00,53.808
844.00,53.799
845.00,53.738
846.00,53.759
847.00,53.737
848.00,53.724
849.00,53.644
850.00,53.611
851.00,53.535
852.00,53.514
853.00,53.508
854.00,53.482
855.00,53.391
856.00,53.411
857.00,53.357
858.00,53.342
859.00,53.309
860.00,53.307
861.00,53.297
862.00,53.209
863.00,53.238
864.00,53.204
865.00,53.251
866.00,52.966
867.00,53.202
868.00,53.185
869.00,53.092
870.00,53.327
871.00,53.104
872.00,53.123
873.00,53.100
874.00,53.043
875.00,53.065
876.00,53.038
877.00,53.046
878.00,53.034
879.00,53.004
880.00,52.964
881.00,52.950
882.00,52.962
883.00,52.902
884.00,52.865
885.00,52.872
886.00,52.841
887.00,52.757
888.00,52.800
889.00,52.781
890.00,52.780
891.00,52.723
892.00,52.723
893.00,52.690
894.00,52.685
895.00,52.645
896.00,52.638
897.00,52.621
898.00,52.595
899.00,52.629
900.00,52.580
901.00,52.720
902.00,52.545
903.00,52.528
904.00,52.504
905.00,52.457
906.00,52.452
907.00,52.420
908.00,52.395
909.00,52.389
910.00,52.367
911.00,52.348
912.00,52.368
913.00,52.316
914.00,52.294
915.00,52.272
916.00,52.254
917.00,52.221
918.00,52.220
919.00,52.175
920.00,52.149
921.00,52.126
922.00,52.158
923.00,52.108
924.00,52.088
925.00,52.058
926.00,52.085
927.00,52.063
928.00,52.011
929.00,51.997
930.00,51.979
931.00,51.942
932.00,51.931
933.00,51.908
934.00,51.893
935.00,51.879
936.00,51.854
937.00,51.837
938.00,51.825
939.00,51.802
940.00,51.777
941.00,51.787
942.00,51.724
943.00,51.741
944.00,51.703
945.00,51.694
946.00,51.671
947.00,51.637
948.00,51.618
949.00,51.603
950.00,51.568
951.00,51.557
952.00,51.540
953.00,51.502
954.00,51.482
955.00,51.469
956.00,51.431
957.00,51.375
958.00,51.419
959.00,51.363
960.00,51.362
961.00,51.334
962.00,51.345
963.00,51.288
964.00,51.274
965.00,51.245
966.00,51.246
967.00,51.233
968.00,51.218
969.00,51.241
970.00,51.228
971.00,51.239
972.00,51.202
973.00,51.237
974.00,51.266
975.00,51.200
976.00,51.232
977.00,51.212
978.00,51.239
979.00,51.190
980.00,51.206
981.00,51.214
982.00,51.188
983.00,51.191
984.00,51.186
985.00,51.213
986.00,51.161
987.00,51.189
988.00,51.206
989.00,51.144
990.00,51.150
991.00,51.114
992.00,51.143
993.00,51.109
994.00,51.083
995.00,51.082
996.00,51.088
997.00,51.059
998.00,51.032
999.00,51.054
1000.00,50.997
1001.00,51.010
1002.00,50.968
1003.00,50.952
1004.00,51.007
1005.00,50.929
1006.00,50.947
1007.00,50.925
1008.00,50.899
1009.00,50.887
1010.00,50.877
1011.00,50.863
1012.00,50.833
1013.00,50.831
1014.00,50.794
1015.00,50.818
1016.00,50.779
1017.00,50.777
1018.00,50.758
1019.00,50.728
1020.00,50.733
1021.00,50.714
1022.00,50.695
1023.00,50.657
1024.00,50.666
1025.00,50.643
1026.00,50.659
1027.00,50.617
1028.00,50.608
1029.00,50.601
1030.00,50.560
1031.00,50.571
1032.00,50.534
1033.00,50.510
1034.00,50.491
1035.00,50.457
1036.00,50.443
1037.00,50.427
1038.00,50.408
1039.00,50.377
1040.00,50.388
1041.00,50.335
1042.00,50.338
1043.00,50.312
1044.00,50.332
1045.00,50.319
1046.00,50.309
1047.00,50.314
1048.00,50.332
1049.00,50.335
1050.00,50.348
1051.00,50.373
1052.00,50.374
1053.00,50.391
1054.00,50.390
1055.00,50.390
1056.00,50.416
1057.00,50.404
1058.00,50.389
1059.00,50.395
1060.00,50.396
1061.00,50.393
1062.00,50.370
1063.00,50.386
1064.00,50.370
1065.00,50.378
1066.00,50.357
1067.00,50.346
1068.00,50.346
1069.00,50.321
1070.00,50.315
1071.00,50.286
1072.00,50.303
1073.00,50.285
1074.00,50.275
1075.00,50.265
1076.00,50.255
1077.00,50.238
1078.00,50.228
1079.00,50.213
1080.00,50.219
1081.00,50.197
1082.00,50.190
1083.00,50.189
1084.00,50.191
1085.00,50.167
1086.00,50.167
1087.00,50.170
1088.00,50.135
1089.00,50.125
1090.00,50.120
1091.00,50.112
1092.00,50.114
1093.00,50.082
1094.00,50.073
1095.00,50.069
1096.00,50.056
1097.00,50.052
1098.00,50.047
1099.00,50.031
1100.00,50.031
1101.00,50.000
1102.00,49.997
1103.00,50.007
1104.00,49.984
1105.00,49.968
1106.00,49.972
1107.00,49.952
1108.00,49.949
1109.00,49.938
1110.00,49.930
1111.00,49.923
1112.00,49.896
1113.00,49.887
1114.00,49.897
1115.00,49.889
1116.00,49.894
1117.00,49.901
1118.00,49.885
1119.00,49.879
1120.00,49.881
1121.00,49.860
1122.00,49.852
1123.00,49.831
1124.00,49.824
1125.00,49.798
1126.00,49.804
1127.00,49.803
1128.00,49.799
1129.00,49.762
1130.00,49.771
1131.00,49.779
1132.00,49.767
1133.00,49.757
1134.00,49.758
1135.00,49.740
1136.00,49.747
1137.00,49.726
1138.00,49.729
1139.00,49.737
1140.00,49.711
1141.00,49.711
1142.00,49.703
1143.00,49.712
1144.00,49.696
1145.00,49.687
1146.00,49.687
1147.00,49.686
1148.00,49.677
1149.00,49.689
1150.00,49.700
1151.00,49.683
1152.00,49.675
1153.00,49.669
1154.00,49.651
1155.00,49.648
1156.00,49.624
1157.00,49.646
1158.00,49.644
1159.00,49.614
1160.00,49.613
1161.00,49.639
1162.00,49.623
1163.00,49.637
1164.00,49.643
1165.00,49.623
1166.00,49.619
1167.00,49.610
1168.00,49.615
1169.00,49.616
1170.00,49.612
1171.00,49.590
1172.00,49.605
1173.00,49.584
1174.00,49.595
1175.00,49.592
1176.00,49.589
1177.00,49.601
1178.00,49.584
1179.00,49.598
1180.00,49.588
1181.00,49.598
1182.00,49.588
1183.00,49.588
1184.00,49.554
1185.00,49.573
1186.00,49.565
1187.00,49.559
1188.00,49.566
1189.00,49.560
1190.00,49.558
1191.00,49.564
1192.00,49.567
1193.00,49.559
1194.00,49.573
1195.00,49.533
1196.00,49.575
1197.00,49.570
1198.00,49.553
1199.00,49.553
1200.00,49.546
1201.00,49.549
1202.00,49.547
1203.00,49.538
1204.00,49.524
1205.00,49.544
1206.00,49.520
1207.00,49.539
1208.00,49.533
1209.00,49.523
1210.00,49.534
1211.00,49.518
1212.00,49.536
1213.00,49.518
1214.00,49.510
1215.00,49.503
1216.00,49.508
1217.00,49.503
1218.00,49.514
1219.00,49.529
1220.00,49.498
1221.00,49.519
1222.00,49.502
1223.00,49.521
1224.00,49.528
1225.00,49.501
1226.00,49.511
1227.00,49.503
1228.00,49.517
1229.00,49.524
1230.00,49.570
1231.00,49.537
1232.00,49.563
1233.00,49.559
1234.00,49.552
1235.00,49.555
1236.00,49.539
1237.00,49.548
1238.00,49.559
1239.00,49.555
1240.00,49.552
1241.00,49.560
1242.00,49.550
1243.00,49.585
1244.00,49.554
1245.00,49.575
1246.00,49.579
1247.00,49.567
1248.00,49.573
1249.00,49.593
1250.00,49.581
1251.00,49.583
1252.00,49.595
1253.00,49.583
1254.00,49.609
1255.00,49.584
1256.00,49.565
1257.00,49.561
1258.00,49.595
1259.00,49.604
1260.00,49.630
1261.00,49.608
1262.00,49.605
1263.00,49.612
1264.00,49.604
1265.00,49.615
1266.00,49.618
1267.00,49.619
1268.00,49.645
1269.00,49.626
1270.00,49.635
1271.00,49.643
1272.00,49.646
1273.00,49.663
1274.00,49.655
1275.00,49.640
1276.00,49.650
1277.00,49.647
1278.00,49.658
1279.00,49.668
1280.00,49.665
1281.00,49.674
1282.00,49.696
1283.00,49.671
1284.00,49.689
1285.00,49.661
1286.00,49.661
1287.00,49.664
1288.00,49.666
1289.00,49.670
1290.00,49.697
1291.00,49.698
1292.00,49.686
1293.00,49.710
1294.00,49.740
1295.00,49.740
1296.00,49.729
1297.00,49.727
1298.00,49.749
1299.00,49.733
1300.00,49.739
1301.00,49.750
1302.00,49.756
1303.00,49.777
1304.00,49.763
1305.00,49.771
1306.00,49.778
1307.00,49.786
1308.00,49.777
1309.00,49.784
1310.00,49.785
1311.00,49.774
1312.00,49.797
1313.00,49.788
1314.00,49.798
1315.00,49.816
1316.00,49.805
1317.00,49.831
1318.00,49.819
1319.00,49.820
1320.00,49.851
1321.00,49.983
1322.00,50.003
1323.00,50.003
1324.00,49.984
1325.00,49.981
1326.00,50.016
1327.00,49.987
1328.00,49.988
1329.00,49.979
1330.00,49.983
1331.00,49.988
1332.00,49.981
1333.00,49.974
1334.00,50.026
1335.00,50.017
1336.00,50.033
1337.00,50.082
1338.00,50.165
1339.00,50.195
1340.00,50.244
1341.00,50.305
1342.00,50.376
1343.00,50.432
1344.00,50.477
1345.00,50.529
1346.00,50.580
1347.00,50.591
1348.00,50.586
1349.00,50.645
1350.00,50.637
1351.00,50.665
1352.00,50.645
1353.00,50.765
1354.00,50.687
1355.00,50.609
1356.00,50.712
1357.00,50.693
1358.00,50.693
1359.00,50.696
1360.00,50.723
1361.00,50.678
1362.00,50.625
1363.00,50.745
1364.00,50.714
1365.00,50.716
1366.00,50.673
1367.00,50.676
1368.00,50.620
1369.00,50.467
1370.00,50.671
1371.00,50.653
1372.00,50.672
1373.00,50.668
1374.00,50.680
1375.00,50.668
1376.00,50.665
1377.00,50.652
1378.00,50.674
1379.00,50.648
1380.00,50.680
1381.00,50.647
1382.00,50.618
1383.00,50.638
1384.00,50.600
1385.00,50.598
1386.00,50.674
1387.00,50.608
1388.00,50.587
1389.00,50.569
1390.00,50.705
1391.00,50.611
1392.00,50.664
1393.00,50.623
1394.00,50.635
1395.00,50.610
1396.00,50.465
1397.00,50.530
1398.00,50.691
1399.00,50.609
1400.00,50.619
1401.00,50.634
1402.00,50.702
1403.00,50.651
1404.00,50.636
1405.00,50.681
1406.00,50.669
1407.00,50.705
1408.00,50.666
1409.00,50.663
1410.00,50.717
1411.00,50.687
1412.00,50.765
1413.00,50.703
1414.00,50.703
1415.00,50.724
1416.00,50.761
1417.00,50.785
1418.00,50.770
1419.00,50.753
1420.00,50.782
1421.00,50.796
1422.00,50.825
1423.00,50.804
1424.00,50.846
1425.00,50.842
1426.00,50.836
1427.00,50.863
1428.00,50.855
1429.00,50.887
1430.00,50.878
1431.00,50.909
1432.00,50.912
1433.00,50.951
1434.00,50.938
1435.00,50.985
1436.00,50.986
1437.00,50.981
1438.00,51.015
1439.00,51.037
1440.00,51.046
1441.00,51.054
1442.00,51.064
1443.00,51.100
1444.00,51.119
1445.00,51.150
1446.00,51.121
1447.00,51.145
1448.00,51.159
1449.00,51.166
1450.00,51.163
1451.00,51.184
1452.00,51.191
1453.00,51.219
1454.00,51.217
1455.00,51.251
1456.00,51.260
1457.00,51.268
1458.00,51.295
1459.00,51.305
1460.00,51.314
1461.00,51.321
1462.00,51.337
1463.00,51.371
1464.00,51.382
1465.00,51.379
1466.00,51.398
1467.00,51.402
1468.00,51.464
1469.00,51.452
1470.00,51.455
1471.00,51.483
1472.00,51.484
1473.00,51.513
1474.00,51.527
1475.00,51.539
1476.00,51.534
1477.00,51.538
1478.00,51.548
1479.00,51.561
1480.00,51.572
1481.00,51.576
1482.00,51.598
1483.00,51.615
1484.00,51.618
1485.00,51.636
1486.00,51.622
1487.00,51.654
1488.00,51.670
1489.00,51.676
1490.00,51.708
1491.00,51.718
1492.00,51.712
1493.00,51.709
1494.00,51.733
1495.00,51.735
1496.00,51.748
1497.00,51.752
1498.00,51.746
1499.00,51.776
1500.00,51.792
1501.00, 
1502.00, 
1503.00, 
1504.00, 
1505.00, 
1506.00, 
1507.00, 
1508.00, 
1509.00, 
1510.00, 
1511.00, 
1512.00, 
1513.00, 
1514.00, 
1515.00, 
1516.00, 
1517.00, 
1518.00, 
1519.00, 
1520.00, 
1521.00, 
1522.00, 
1523.00, 
1524.00, 
1525.00, 
1526.00, 
1527.00, 
1528.00, 
1529.00, 
1530.00, 
1531.00, 
1532.00, 
1533.00, 
1534.00, 
1535.00, 
1536.00, 
1537.00, 
1538.00, 
1539.00, 
1540.00, 
1541.00, 
1542.00, 
1543.00, 
1544.00, 
1545.00, 
1546.00, 
1547.00, 
1548.00, 
1549.00, 
1550.00, 
1551.00, 
1552.00, 
1553.00, 
1554.00, 
1555.00, 
1556.00, 
1557.00, 
1558.00, 
1559.00, 
1560.00, 
1561.00, 
1562.00, 
1563.00, 
1564.00, 
1565.00, 
1566.00, 
1567.00, 
1568.00, 
1569.00, 
1570.00, 
1571.00, 
1572.00, 
1573.00, 
1574.00, 
1575.00, 
1576.00, 
1577.00, 
1578.00, 
1579.00, 
1580.00, 
1581.00, 
1582.00, 
1583.00, 
1584.00, 
1585.00, 
1586.00, 
1587.00, 
1588.00, 
1589.00, 
1590.00, 
1591.00, 
1592.00, 
1593.00, 
1594.00, 
1595.00, 
1596.00, 
1597.00, 
1598.00, 
1599.00, 
1600.00, 
1601.00, 
1602.00, 
1603.00, 
1604.00, 
1605.00, 
1606.00, 
1607.00, 
1608.00, 
1609.00, 
1610.00, 
1611.00, 
1612.00, 
1613.00, 
1614.00, 
1615.00, 
1616.00, 
1617.00, 
1618.00, 
1619.00, 
1620.00, 
1621.00, 
1622.00, 
1623.00, 
1624.00, 
1625.00, 
1626.00, 
1627.00, 
1628.00, 
1629.00, 
1630.00, 
1631.00, 
1632.00, 
1633.00, 
1634.00, 
1635.00, 
1636.00, 
1637.00, 
1638.00, 
1639.00, 
1640.00, 
1641.00, 
1642.00, 
1643.00, 
1644.00, 
1645.00, 
1646.00, 
1647.00, 
1648.00, 
1649.00, 
1650.00, 
1651.00, 
1652.00, 
1653.00, 
1654.00, 
1655.00, 
1656.00, 
1657.00, 
1658.00, 
1659.00, 
1660.00, 
1661.00, 
1662.00, 
1663.00, 
1664.00, 
1665.00, 
1666.00, 
1667.00, 
1668.00, 
1669.00, 
1670.00, 
1671.00, 
1672.00, 
1673.00, 
1674.00, 
1675.00, 
1676.00, 
1677.00, 
1678.00, 
1679.00, 
1680.00, 
1681.00, 
1682.00, 
1683.00, 
1684.00, 
1685.00, 
1686.00, 
1687.00, 
1688.00, 
1689.00, 
1690.00, 
1691.00, 
1692.00, 
1693.00, 
1694.00, 
1695.00, 
1696.00, 
1697.00, 
1698.00, 
1699.00, 
1700.00, 
1701.00, 
1702.00, 
1703.00, 
1704.00, 
1705.00, 
1706.00, 
1707.00, 
1708.00, 
1709.00, 
1710.00, 
1711.00, 
1712.00, 
1713.00, 
1714.00, 
1715.00, 
1716.00, 
1717.00, 
1718.00, 
1719.00, 
1720.00, 
1721.00, 
1722.00, 
1723.00, 
1724.00, 
1725.00, 
1726.00, 
1727.00, 
1728.00, 
1729.00, 
1730.00, 
1731.00, 
1732.00, 
1733.00, 
1734.00, 
1735.00, 
1736.00, 
1737.00, 
1738.00, 
1739.00, 
1740.00, 
1741.00, 
1742.00, 
1743.00, 
1744.00, 
1745.00, 
1746.00, 
1747.00, 
1748.00, 
1749.00, 
1750.00, 
1751.00, 
1752.00, 
1753.00, 
1754.00, 
1755.00, 
1756.00, 
1757.00, 
1758.00, 
1759.00, 
1760.00, 
1761.00, 
1762.00, 
1763.00, 
1764.00, 
1765.00, 
1766.00, 
1767.00, 
1768.00, 
1769.00, 
1770.00, 
1771.00, 
1772.00, 
1773.00, 
1774.00, 
1775.00, 
1776.00, 
1777.00, 
1778.00, 
1779.00, 
1780.00, 
1781.00, 
1782.00, 
1783.00, 
1784.00, 
1785.00, 
1786.00, 
1787.00, 
1788.00, 
1789.00, 
1790.00, 
1791.00, 
1792.00, 
1793.00, 
1794.00, 
1795.00, 
1796.00, 
1797.00, 
1798.00, 
1799.00, 
1800.00, 
1801.00, 
1802.00, 
1803.00, 
1804.00, 
1805.00, 
1806.00, 
1807.00, 
1808.00, 
1809.00, 
1810.00, 
1811.00, 
1812.00, 
1813.00, 
1814.00, 
1815.00, 
1816.00, 
1817.00, 
1818.00, 
1819.00, 
1820.00, 
1821.00, 
1822.00, 
1823.00, 
1824.00, 
1825.00, 
1826.00, 
1827.00, 
1828.00, 
1829.00, 
1830.00, 
1831.00, 
1832.00, 
1833.00, 
1834.00, 
1835.00, 
1836.00, 
1837.00, 
1838.00, 
1839.00, 
1840.00, 
1841.00, 
1842.00, 
1843.00, 
1844.00, 
1845.00, 
1846.00, 
1847.00, 
1848.00, 
1849.00, 
1850.00, 
1851.00, 
1852.00, 
1853.00, 
1854.00, 
1855.00, 
1856.00, 
1857.00, 
1858.00, 
1859.00, 
1860.00, 
1861.00, 
1862.00, 
1863.00, 
1864.00, 
1865.00, 
1866.00, 
1867.00, 
1868.00, 
1869.00, 
1870.00, 
1871.00, 
1872.00, 
1873.00, 
1874.00, 
1875.00, 
1876.00, 
1877.00, 
1878.00, 
1879.00, 
1880.00, 
1881.00, 
1882.00, 
1883.00, 
1884.00, 
1885.00, 
1886.00, 
1887.00, 
1888.00, 
1889.00, 
1890.00, 
1891.00, 
1892.00, 
1893.00, 
1894.00, 
1895.00, 
1896.00, 
1897.00, 
1898.00, 
1899.00, 
1900.00, 
1901.00, 
1902.00, 
1903.00, 
1904.00, 
1905.00, 
1906.00, 
1907.00, 
1908.00, 
1909.00, 
1910.00, 
1911.00, 
1912.00, 
1913.00, 
1914.00, 
1915.00, 
1916.00, 
1917.00, 
1918.00, 
1919.00, 
1920.00, 
1921.00, 
1922.00, 
1923.00, 
1924.00, 
1925.00, 
1926.00, 
1927.00, 
1928.00, 
1929.00, 
1930.00, 
1931.00, 
1932.00, 
1933.00, 
1934.00, 
1935.00, 
1936.00, 
1937.00, 
1938.00, 
1939.00, 
1940.00, 
1941.00, 
1942.00, 
1943.00, 
1944.00, 
1945.00, 
1946.00, 
1947.00, 
1948.00, 
1949.00, 
1950.00, 
1951.00, 
1952.00, 
1953.00, 
1954.00, 
1955.00, 
1956.00, 
1957.00, 
1958.00, 
1959.00, 
1960.00, 
1961.00, 
1962.00, 
1963.00, 
1964.00, 
1965.00, 
1966.00, 
1967.00, 
1968.00, 
1969.00, 
1970.00, 
1971.00, 
1972.00, 
1973.00, 
1974.00, 
1975.00, 
1976.00, 
1977.00, 
1978.00, 
1979.00, 
1980.00, 
1981.00, 
1982.00, 
1983.00, 
1984.00, 
1985.00, 
1986.00, 
1987.00, 
1988.00, 
1989.00, 
1990.00, 
1991.00, 
1992.00, 
1993.00, 
1994.00, 
1995.00, 
1996.00, 
1997.00, 
1998.00, 
1999.00, 
2000.00, 
2001.00, 
2002.00, 
2003.00, 
2004.00, 
2005.00, 
2006.00, 
2007.00, 
2008.00, 
2009.00, 
2010.00, 
2011.00, 
2012.00, 
2013.00, 
2014.00, 
2015.00, 
2016.00, 
2017.00, 
2018.00, 
2019.00, 
2020.00, 
2021.00, 
2022.00, 
2023.00, 
2024.00, 
2025.00, 
2026.00, 
2027.00, 
2028.00, 
2029.00, 
2030.00, 
2031.00, 
2032.00, 
2033.00, 
2034.00, 
2035.00, 
2036.00, 
2037.00, 
2038.00, 
2039.00, 
2040.00, 
2041.00, 
2042.00, 
2043.00, 
2044.00, 
2045.00, 
2046.00, 
2047.00, 
2048.00, 
2049.00, 
2050.00, 
2051.00, 
2052.00, 
2053.00, 
2054.00, 
2055.00, 
2056.00, 
2057.00, 
2058.00, 
2059.00, 
2060.00, 
2061.00, 
2062.00, 
2063.00, 
2064.00, 
2065.00, 
2066.00, 
2067.00, 
2068.00, 
2069.00, 
2070.00, 
2071.00, 
2072.00, 
2073.00, 
2074.00, 
2075.00, 
2076.00, 
2077.00, 
2078.00, 
2079.00, 
2080.00, 
2081.00, 
2082.00, 
2083.00, 
2084.00, 
2085.00, 
2086.00, 
2087.00, 
2088.00, 
2089.00, 
2090.00, 
2091.00, 
2092.00, 
2093.00, 
2094.00, 
2095.00, 
2096.00, 
2097.00, 
2098.00, 
2099.00, 
2100.00, 
2101.00, 
2102.00, 
2103.00, 
2104.00, 
2105.00, 
2106.00, 
2107.00, 
2108.00, 
2109.00, 
2110.00, 
2111.00, 
2112.00, 
2113.00, 
2114.00, 
2115.00, 
2116.00, 
2117.00, 
2118.00, 
2119.00, 
2120.00, 
2121.00, 
2122.00, 
2123.00, 
2124.00, 
2125.00, 
2126.00, 
2127.00, 
2128.00, 
2129.00, 
2130.00, 
2131.00, 
2132.00, 
2133.00, 
2134.00, 
2135.00, 
2136.00, 
2137.00, 
2138.00, 
2139.00, 
2140.00, 
2141.00, 
2142.00, 
2143.00, 
2144.00, 
2145.00, 
2146.00, 
2147.00, 
2148.00, 
2149.00, 
2150.00, 
2151.00, 
2152.00, 
2153.00, 
2154.00, 
2155.00, 
2156.00, 
2157.00, 
2158.00, 
2159.00, 
2160.00, 
2161.00, 
2162.00, 
2163.00, 
2164.00, 
2165.00, 
2166.00, 
2167.00, 
2168.00, 
2169.00, 
2170.00, 
2171.00, 
2172.00, 
2173.00, 
2174.00, 
2175.00, 
2176.00, 
2177.00, 
2178.00, 
2179.00, 
2180.00, 
2181.00, 
2182.00, 
2183.00, 
2184.00, 
2185.00, 
2186.00, 
2187.00, 
2188.00, 
2189.00, 
2190.00, 
2191.00, 
2192.00, 
2193.00, 
2194.00, 
2195.00, 
2196.00, 
2197.00, 
2198.00, 
2199.00, 
2200.00, 
2201.00, 
2202.00, 
2203.00, 
2204.00, 
2205.00, 
2206.00, 
2207.00, 
2208.00, 
2209.00, 
2210.00, 
2211.00, 
2212.00, 
2213.00, 
2214.00, 
2215.00, 
2216.00, 
2217.00, 
2218.00, 
2219.00, 
2220.00, 
2221.00, 
2222.00, 
2223.00, 
2224.00, 
2225.00, 
2226.00, 
2227.00, 
2228.00, 
2229.00, 
2230.00, 
2231.00, 
2232.00, 
2233.00, 
2234.00, 
2235.00, 
2236.00, 
2237.00, 
2238.00, 
2239.00, 
2240.00, 
2241.00, 
2242.00, 
2243.00, 
2244.00, 
2245.00, 
2246.00, 
2247.00, 
2248.00, 
2249.00, 
2250.00, 
2251.00, 
2252.00, 
2253.00, 
2254.00, 
2255.00, 
2256.00, 
2257.00, 
2258.00, 
2259.00, 
2260.00, 
2261.00, 
2262.00, 
2263.00, 
2264.00, 
2265.00, 
2266.00, 
2267.00, 
2268.00, 
2269.00, 
2270.00, 
2271.00, 
2272.00, 
2273.00, 
2274.00, 
2275.00, 
2276.00, 
2277.00, 
2278.00, 
2279.00, 
2280.00, 
2281.00, 
2282.00, 
2283.00, 
2284.00, 
2285.00, 
2286.00, 
2287.00, 
2288.00, 
2289.00, 
2290.00, 
2291.00, 
2292.00, 
2293.00, 
2294.00, 
2295.00, 
2296.00, 
2297.00, 
2298.00, 
2299.00, 
2300.00, 
2301.00, 
2302.00, 
2303.00, 
2304.00, 
2305.00, 
2306.00, 
2307.00, 
2308.00, 
2309.00, 
2310.00, 
2311.00, 
2312.00, 
2313.00, 
2314.00, 
2315.00, 
2316.00, 
2317.00, 
2318.00, 
2319.00, 
2320.00, 
2321.00, 
2322.00, 
2323.00, 
2324.00, 
2325.00, 
2326.00, 
2327.00, 
2328.00, 
2329.00, 
2330.00, 
2331.00, 
2332.00, 
2333.00, 
2334.00, 
2335.00, 
2336.00, 
2337.00, 
2338.00, 
2339.00, 
2340.00, 
2341.00, 
2342.00, 
2343.00, 
2344.00, 
2345.00, 
2346.00, 
2347.00, 
2348.00, 
2349.00, 
2350.00, 
2351.00, 
2352.00, 
2353.00, 
2354.00, 
2355.00, 
2356.00, 
2357.00, 
2358.00, 
2359.00, 
2360.00, 
2361.00, 
2362.00, 
2363.00, 
2364.00, 
2365.00, 
2366.00, 
2367.00, 
2368.00, 
2369.00, 
2370.00, 
2371.00, 
2372.00, 
2373.00, 
2374.00, 
2375.00, 
2376.00, 
2377.00, 
2378.00, 
2379.00, 
2380.00, 
2381.00, 
2382.00, 
2383.00, 
2384.00, 
2385.00, 
2386.00, 
2387.00, 
2388.00, 
2389.00, 
2390.00, 
2391.00, 
2392.00, 
2393.00, 
2394.00, 
2395.00, 
2396.00, 
2397.00, 
2398.00, 
2399.00, 
2400.00, 
2401.00, 
2402.00, 
2403.00, 
2404.00, 
2405.00, 
2406.00, 
2407.00, 
2408.00, 
2409.00, 
2410.00, 
2411.00, 
2412.00, 
2413.00, 
2414.00, 
2415.00, 
2416.00, 
2417.00, 
2418.00, 
2419.00, 
2420.00, 
2421.00, 
2422.00, 
2423.00, 
2424.00, 
2425.00, 
2426.00, 
2427.00, 
2428.00, 
2429.00, 
2430.00, 
2431.00, 
2432.00, 
2433.00, 
2434.00, 
2435.00, 
2436.00, 
2437.00, 
2438.00, 
2439.00, 
2440.00, 
2441.00, 
2442.00, 
2443.00, 
2444.00, 
2445.00, 
2446.00, 
2447.00, 
2448.00, 
2449.00, 
2450.00, 
2451.00, 
2452.00, 
2453.00, 
2454.00, 
2455.00, 
2456.00, 
2457.00, 
2458.00, 
2459.00, 
2460.00, 
2461.00, 
2462.00, 
2463.00, 
2464.00, 
2465.00, 
2466.00, 
2467.00, 
2468.00, 
2469.00, 
2470.00, 
2471.00, 
2472.00, 
2473.00, 
2474.00, 
2475.00, 
2476.00, 
2477.00, 
2478.00, 
2479.00, 
2480.00, 
2481.00, 
2482.00, 
2483.00, 
2484.00, 
2485.00, 
2486.00, 
2487.00, 
2488.00, 
2489.00, 
2490.00, 
2491.00, 
2492.00, 
2493.00, 
2494.00, 
2495.00, 
2496.00, 
2497.00, 
2498.00, 
2499.00, 
2500.00, 
2501.00, 
2502.00, 
2503.00, 
2504.00, 
2505.00, 
2506.00, 
2507.00, 
2508.00, 
2509.00, 
2510.00, 
2511.00, 
2512.00, 
2513.00, 
2514.00, 
2515.00, 
2516.00, 
2517.00, 
2518.00, 
2519.00, 
2520.00, 
2521.00, 
2522.00, 
2523.00, 
2524.00, 
2525.00, 
2526.00, 
2527.00, 
2528.00, 
2529.00, 
2530.00, 
2531.00, 
2532.00, 
2533.00, 
2534.00, 
2535.00, 
2536.00, 
2537.00, 
2538.00, 
2539.00, 
2540.00, 
2541.00, 
2542.00, 
2543.00, 
2544.00, 
2545.00, 
2546.00, 
2547.00, 
2548.00, 
2549.00, 
2550.00, 
2551.00, 
2552.00, 
2553.00, 
2554.00, 
2555.00, 
2556.00, 
2557.00, 
2558.00, 
2559.00, 
2560.00, 
2561.00, 
2562.00, 
2563.00, 
2564.00, 
2565.00, 
2566.00, 
2567.00, 
2568.00, 
2569.00, 
2570.00, 
2571.00, 
2572.00, 
2573.00, 
2574.00, 
2575.00, 
2576.00, 
2577.00, 
2578.00, 
2579.00, 
2580.00, 
2581.00, 
2582.00, 
2583.00, 
2584.00, 
2585.00, 
2586.00, 
2587.00, 
2588.00, 
2589.00, 
2590.00, 
2591.00, 
2592.00, 
2593.00, 
2594.00, 
2595.00, 
2596.00, 
2597.00, 
2598.00, 
2599.00, 
2600.00, 
