"1aP2 - RawData"
"Wavelength nm.","T%"
200.00,0.000
201.00,-0.002
202.00,0.004
203.00,0.003
204.00,0.001
205.00,0.002
206.00,0.003
207.00,-0.002
208.00,0.001
209.00,0.004
210.00,0.001
211.00,0.000
212.00,0.003
213.00,0.000
214.00,0.002
215.00,0.001
216.00,0.001
217.00,0.003
218.00,0.000
219.00,-0.000
220.00,-0.002
221.00,0.001
222.00,0.001
223.00,0.003
224.00,0.001
225.00,-0.003
226.00,0.001
227.00,0.002
228.00,0.003
229.00,0.000
230.00,0.001
231.00,-0.000
232.00,0.000
233.00,0.000
234.00,-0.000
235.00,0.003
236.00,-0.001
237.00,0.002
238.00,-0.000
239.00,0.001
240.00,-0.001
241.00,-0.000
242.00,0.002
243.00,0.001
244.00,0.001
245.00,-0.001
246.00,0.001
247.00,-0.001
248.00,0.001
249.00,0.001
250.00,-0.001
251.00,0.002
252.00,0.000
253.00,-0.001
254.00,0.000
255.00,-0.000
256.00,-0.002
257.00,-0.000
258.00,-0.000
259.00,0.001
260.00,0.001
261.00,-0.001
262.00,-0.000
263.00,0.001
264.00,-0.002
265.00,0.001
266.00,-0.001
267.00,-0.000
268.00,-0.000
269.00,-0.001
270.00,-0.001
271.00,0.001
272.00,0.000
273.00,0.001
274.00,0.002
275.00,-0.003
276.00,-0.000
277.00,-0.001
278.00,-0.001
279.00,0.001
280.00,0.000
281.00,0.000
282.00,0.000
283.00,-0.000
284.00,-0.001
285.00,0.001
286.00,-0.002
287.00,0.001
288.00,0.001
289.00,-0.000
290.00,0.000
291.00,0.001
292.00,0.001
293.00,-0.001
294.00,-0.001
295.00,-0.001
296.00,-0.000
297.00,0.002
298.00,0.001
299.00,0.002
300.00,0.002
301.00,0.003
302.00,0.009
303.00,0.013
304.00,0.020
305.00,0.031
306.00,0.049
307.00,0.070
308.00,0.105
309.00,0.162
310.00,0.222
311.00,0.311
312.00,0.419
313.00,0.571
314.00,0.741
315.00,0.950
316.00,1.202
317.00,1.514
318.00,1.848
319.00,2.251
320.00,2.720
321.00,3.230
322.00,3.776
323.00,4.418
324.00,5.091
325.00,5.759
326.00,6.464
327.00,7.238
328.00,8.010
329.00,8.797
330.00,9.660
331.00,10.450
332.00,11.338
333.00,12.198
334.00,13.034
335.00,13.849
336.00,14.659
337.00,15.582
338.00,16.286
339.00,17.072
340.00,17.714
341.00,18.568
342.00,19.242
343.00,19.843
344.00,20.511
345.00,21.184
346.00,21.697
347.00,22.208
348.00,22.674
349.00,23.125
350.00,23.558
351.00,23.969
352.00,24.289
353.00,24.685
354.00,24.968
355.00,25.304
356.00,25.598
357.00,25.774
358.00,26.081
359.00,26.362
360.00,26.591
361.00,26.743
362.00,26.911
363.00,27.094
364.00,27.177
365.00,27.263
366.00,27.404
367.00,27.449
368.00,27.513
369.00,27.539
370.00,27.609
371.00,27.643
372.00,27.603
373.00,27.629
374.00,27.618
375.00,27.635
376.00,27.536
377.00,27.511
378.00,27.415
379.00,27.312
380.00,27.332
381.00,27.334
382.00,27.310
383.00,27.289
384.00,27.335
385.00,27.415
386.00,27.279
387.00,27.460
388.00,27.451
389.00,27.532
390.00,27.574
391.00,27.591
392.00,27.670
393.00,27.659
394.00,27.666
395.00,27.717
396.00,27.687
397.00,27.694
398.00,27.704
399.00,27.690
400.00,27.727
401.00,27.694
402.00,27.690
403.00,27.741
404.00,27.663
405.00,27.685
406.00,27.698
407.00,27.619
408.00,27.635
409.00,27.568
410.00,27.511
411.00,27.551
412.00,27.439
413.00,27.506
414.00,27.474
415.00,27.487
416.00,27.580
417.00,27.530
418.00,27.537
419.00,27.677
420.00,27.692
421.00,27.711
422.00,27.697
423.00,27.736
424.00,27.779
425.00,27.821
426.00,27.821
427.00,27.932
428.00,28.006
429.00,28.033
430.00,28.143
431.00,28.036
432.00,28.036
433.00,28.142
434.00,28.202
435.00,28.353
436.00,28.419
437.00,28.462
438.00,28.560
439.00,28.595
440.00,28.696
441.00,28.768
442.00,28.824
443.00,28.917
444.00,29.023
445.00,29.063
446.00,29.214
447.00,29.247
448.00,29.375
449.00,29.482
450.00,29.602
451.00,29.692
452.00,29.763
453.00,29.868
454.00,29.980
455.00,30.043
456.00,30.211
457.00,30.319
458.00,30.400
459.00,30.592
460.00,30.677
461.00,30.848
462.00,30.945
463.00,31.022
464.00,31.213
465.00,31.261
466.00,31.445
467.00,31.582
468.00,31.703
469.00,31.813
470.00,31.880
471.00,31.943
472.00,32.075
473.00,32.132
474.00,32.242
475.00,32.356
476.00,32.462
477.00,32.605
478.00,32.655
479.00,32.866
480.00,32.951
481.00,33.078
482.00,33.250
483.00,33.377
484.00,33.544
485.00,33.702
486.00,33.844
487.00,33.989
488.00,34.132
489.00,34.285
490.00,34.382
491.00,34.539
492.00,34.807
493.00,34.915
494.00,34.860
495.00,35.017
496.00,35.143
497.00,35.243
498.00,35.406
499.00,35.542
500.00,35.649
501.00,35.733
502.00,35.887
503.00,35.988
504.00,35.998
505.00,36.132
506.00,36.230
507.00,36.357
508.00,36.469
509.00,36.611
510.00,36.739
511.00,36.853
512.00,36.976
513.00,37.164
514.00,37.318
515.00,37.329
516.00,37.488
517.00,37.473
518.00,37.663
519.00,37.690
520.00,37.686
521.00,37.816
522.00,37.880
523.00,37.945
524.00,37.974
525.00,38.044
526.00,38.209
527.00,38.303
528.00,38.360
529.00,38.528
530.00,38.677
531.00,38.758
532.00,38.820
533.00,38.914
534.00,39.008
535.00,39.095
536.00,39.173
537.00,39.219
538.00,39.298
539.00,39.296
540.00,39.381
541.00,39.396
542.00,39.432
543.00,39.507
544.00,39.568
545.00,39.614
546.00,39.701
547.00,39.719
548.00,39.788
549.00,39.919
550.00,39.896
551.00,40.057
552.00,40.091
553.00,40.081
554.00,40.209
555.00,40.190
556.00,40.239
557.00,40.259
558.00,40.400
559.00,40.509
560.00,40.548
561.00,40.578
562.00,40.610
563.00,40.679
564.00,40.730
565.00,40.806
566.00,40.776
567.00,40.758
568.00,40.799
569.00,40.856
570.00,40.883
571.00,40.906
572.00,40.938
573.00,40.871
574.00,40.951
575.00,40.921
576.00,40.893
577.00,40.952
578.00,41.067
579.00,41.196
580.00,41.150
581.00,41.316
582.00,41.412
583.00,41.402
584.00,41.489
585.00,41.581
586.00,41.606
587.00,41.606
588.00,41.604
589.00,41.547
590.00,41.666
591.00,41.713
592.00,41.645
593.00,41.669
594.00,41.770
595.00,41.816
596.00,41.889
597.00,42.001
598.00,42.053
599.00,42.100
600.00,42.125
601.00,42.131
602.00,42.085
603.00,42.118
604.00,42.140
605.00,42.250
606.00,42.250
607.00,42.314
608.00,42.450
609.00,42.491
610.00,42.373
611.00,42.377
612.00,42.366
613.00,42.502
614.00,42.594
615.00,42.595
616.00,42.745
617.00,42.739
618.00,42.644
619.00,42.639
620.00,42.759
621.00,42.869
622.00,42.877
623.00,42.968
624.00,43.032
625.00,43.020
626.00,43.134
627.00,43.177
628.00,43.123
629.00,43.011
630.00,43.166
631.00,43.318
632.00,43.393
633.00,43.452
634.00,43.496
635.00,43.662
636.00,43.665
637.00,43.658
638.00,43.693
639.00,43.824
640.00,43.877
641.00,43.878
642.00,43.968
643.00,44.026
644.00,44.067
645.00,44.121
646.00,44.335
647.00,44.319
648.00,44.333
649.00,44.394
650.00,44.396
651.00,44.494
652.00,44.595
653.00,44.615
654.00,44.702
655.00,44.839
656.00,45.086
657.00,45.131
658.00,45.098
659.00,45.049
660.00,45.089
661.00,45.163
662.00,45.198
663.00,45.285
664.00,45.467
665.00,45.758
666.00,45.523
667.00,45.527
668.00,45.519
669.00,46.212
670.00,46.134
671.00,45.989
672.00,46.203
673.00,46.244
674.00,46.276
675.00,46.323
676.00,46.525
677.00,46.675
678.00,46.418
679.00,46.615
680.00,46.686
681.00,46.879
682.00,46.858
683.00,46.754
684.00,46.940
685.00,47.010
686.00,46.937
687.00,47.019
688.00,47.212
689.00,47.132
690.00,47.384
691.00,47.653
692.00,47.360
693.00,47.449
694.00,47.556
695.00,47.750
696.00,47.759
697.00,47.722
698.00,47.736
699.00,47.966
700.00,48.108
701.00,48.061
702.00,48.217
703.00,48.394
704.00,48.339
705.00,48.273
706.00,48.379
707.00,48.442
708.00,48.275
709.00,48.629
710.00,48.977
711.00,48.523
712.00,48.364
713.00,48.746
714.00,48.921
715.00,48.816
716.00,48.908
717.00,48.896
718.00,49.155
719.00,49.074
720.00,48.920
721.00,53.639
722.00,53.556
723.00,53.579
724.00,53.635
725.00,53.558
726.00,53.676
727.00,53.597
728.00,53.601
729.00,53.678
730.00,53.629
731.00,53.695
732.00,53.710
733.00,53.742
734.00,53.748
735.00,53.780
736.00,53.754
737.00,53.817
738.00,53.900
739.00,53.821
740.00,53.881
741.00,53.874
742.00,53.873
743.00,53.891
744.00,53.882
745.00,53.929
746.00,53.981
747.00,53.936
748.00,53.830
749.00,53.917
750.00,53.849
751.00,53.817
752.00,53.878
753.00,53.888
754.00,53.848
755.00,53.889
756.00,53.843
757.00,53.883
758.00,53.863
759.00,53.845
760.00,53.846
761.00,53.881
762.00,53.847
763.00,53.879
764.00,53.862
765.00,53.820
766.00,53.867
767.00,53.912
768.00,53.922
769.00,53.865
770.00,53.882
771.00,53.951
772.00,53.923
773.00,53.891
774.00,53.920
775.00,53.972
776.00,53.817
777.00,53.928
778.00,53.843
779.00,53.944
780.00,53.904
781.00,53.930
782.00,53.954
783.00,53.836
784.00,53.954
785.00,53.767
786.00,53.970
787.00,53.923
788.00,53.789
789.00,53.780
790.00,53.732
791.00,53.808
792.00,53.726
793.00,53.768
794.00,53.773
795.00,53.685
796.00,53.720
797.00,53.655
798.00,53.756
799.00,53.622
800.00,53.694
801.00,53.640
802.00,53.643
803.00,53.603
804.00,53.625
805.00,53.620
806.00,53.555
807.00,53.587
808.00,53.539
809.00,53.540
810.00,53.453
811.00,53.527
812.00,53.522
813.00,53.385
814.00,53.512
815.00,53.473
816.00,53.461
817.00,53.430
818.00,53.346
819.00,53.321
820.00,53.368
821.00,53.271
822.00,53.281
823.00,53.270
824.00,53.337
825.00,53.185
826.00,53.303
827.00,53.294
828.00,53.334
829.00,53.318
830.00,53.302
831.00,55.823
832.00,55.803
833.00,55.726
834.00,55.772
835.00,55.729
836.00,55.761
837.00,55.656
838.00,55.632
839.00,55.754
840.00,55.620
841.00,55.634
842.00,55.606
843.00,55.600
844.00,55.613
845.00,55.558
846.00,55.537
847.00,55.540
848.00,55.550
849.00,55.405
850.00,55.459
851.00,55.408
852.00,55.397
853.00,55.314
854.00,55.322
855.00,55.251
856.00,55.267
857.00,55.242
858.00,55.199
859.00,55.217
860.00,55.231
861.00,55.221
862.00,55.137
863.00,55.207
864.00,55.115
865.00,55.162
866.00,55.110
867.00,55.112
868.00,55.135
869.00,55.086
870.00,55.107
871.00,55.043
872.00,55.065
873.00,55.040
874.00,55.074
875.00,55.002
876.00,55.061
877.00,54.991
878.00,55.054
879.00,55.031
880.00,54.994
881.00,54.966
882.00,55.011
883.00,54.965
884.00,54.909
885.00,54.892
886.00,54.883
887.00,54.885
888.00,54.831
889.00,54.823
890.00,54.796
891.00,54.796
892.00,54.780
893.00,54.759
894.00,54.754
895.00,54.737
896.00,54.724
897.00,54.688
898.00,54.654
899.00,54.678
900.00,54.654
901.00,54.638
902.00,54.654
903.00,54.589
904.00,54.608
905.00,54.490
906.00,54.544
907.00,54.626
908.00,54.537
909.00,54.515
910.00,54.488
911.00,54.481
912.00,54.488
913.00,54.413
914.00,54.424
915.00,54.397
916.00,54.382
917.00,54.369
918.00,54.393
919.00,54.343
920.00,54.292
921.00,54.307
922.00,54.313
923.00,54.270
924.00,54.222
925.00,54.242
926.00,54.205
927.00,54.205
928.00,54.159
929.00,54.186
930.00,54.074
931.00,54.183
932.00,54.080
933.00,54.115
934.00,54.082
935.00,54.056
936.00,54.031
937.00,54.049
938.00,54.016
939.00,54.025
940.00,53.995
941.00,54.019
942.00,53.960
943.00,53.950
944.00,53.897
945.00,53.910
946.00,53.888
947.00,53.853
948.00,53.846
949.00,53.836
950.00,53.796
951.00,53.800
952.00,53.768
953.00,53.718
954.00,53.708
955.00,53.679
956.00,53.670
957.00,53.629
958.00,53.642
959.00,53.584
960.00,53.582
961.00,53.581
962.00,53.583
963.00,53.535
964.00,53.533
965.00,53.532
966.00,53.497
967.00,53.493
968.00,53.479
969.00,53.525
970.00,53.466
971.00,53.512
972.00,53.465
973.00,53.521
974.00,53.541
975.00,53.497
976.00,53.516
977.00,53.504
978.00,53.528
979.00,53.473
980.00,53.504
981.00,53.499
982.00,53.448
983.00,53.482
984.00,53.456
985.00,53.473
986.00,53.453
987.00,53.448
988.00,53.427
989.00,53.407
990.00,53.416
991.00,53.398
992.00,53.415
993.00,53.364
994.00,53.380
995.00,53.370
996.00,53.354
997.00,53.335
998.00,53.308
999.00,53.339
1000.00,53.285
1001.00,53.284
1002.00,53.293
1003.00,53.285
1004.00,53.258
1005.00,53.224
1006.00,53.270
1007.00,53.227
1008.00,53.212
1009.00,53.190
1010.00,53.209
1011.00,53.198
1012.00,53.171
1013.00,53.195
1014.00,53.158
1015.00,53.157
1016.00,53.119
1017.00,53.101
1018.00,53.109
1019.00,53.066
1020.00,53.078
1021.00,53.043
1022.00,53.041
1023.00,52.986
1024.00,53.005
1025.00,53.001
1026.00,52.973
1027.00,52.970
1028.00,52.995
1029.00,52.956
1030.00,52.919
1031.00,52.928
1032.00,52.885
1033.00,52.884
1034.00,52.856
1035.00,52.814
1036.00,52.798
1037.00,52.770
1038.00,52.777
1039.00,52.730
1040.00,52.738
1041.00,52.708
1042.00,52.732
1043.00,52.697
1044.00,52.724
1045.00,52.697
1046.00,52.669
1047.00,52.711
1048.00,52.702
1049.00,52.728
1050.00,52.712
1051.00,52.775
1052.00,52.751
1053.00,52.767
1054.00,52.768
1055.00,52.807
1056.00,52.810
1057.00,52.808
1058.00,52.825
1059.00,52.789
1060.00,52.815
1061.00,52.793
1062.00,52.779
1063.00,52.778
1064.00,52.775
1065.00,52.768
1066.00,52.755
1067.00,52.758
1068.00,52.792
1069.00,52.764
1070.00,52.750
1071.00,52.751
1072.00,52.775
1073.00,52.737
1074.00,52.725
1075.00,52.693
1076.00,52.699
1077.00,52.669
1078.00,52.647
1079.00,52.670
1080.00,52.668
1081.00,52.660
1082.00,52.669
1083.00,52.664
1084.00,52.651
1085.00,52.657
1086.00,52.646
1087.00,52.641
1088.00,52.612
1089.00,52.611
1090.00,52.612
1091.00,52.618
1092.00,52.595
1093.00,52.583
1094.00,52.557
1095.00,52.555
1096.00,52.538
1097.00,52.549
1098.00,52.534
1099.00,52.520
1100.00,52.526
1101.00,52.538
1102.00,52.509
1103.00,52.526
1104.00,52.534
1105.00,52.500
1106.00,52.466
1107.00,52.470
1108.00,52.446
1109.00,52.454
1110.00,52.423
1111.00,52.424
1112.00,52.411
1113.00,52.417
1114.00,52.387
1115.00,52.411
1116.00,52.400
1117.00,52.375
1118.00,52.369
1119.00,52.370
1120.00,52.353
1121.00,52.368
1122.00,52.332
1123.00,52.333
1124.00,52.344
1125.00,52.366
1126.00,52.355
1127.00,52.365
1128.00,52.326
1129.00,52.324
1130.00,52.308
1131.00,52.307
1132.00,52.280
1133.00,52.279
1134.00,52.291
1135.00,52.289
1136.00,52.270
1137.00,52.290
1138.00,52.271
1139.00,52.277
1140.00,52.268
1141.00,52.266
1142.00,52.259
1143.00,52.294
1144.00,52.257
1145.00,52.258
1146.00,52.247
1147.00,52.243
1148.00,52.237
1149.00,52.268
1150.00,52.266
1151.00,52.251
1152.00,52.242
1153.00,52.244
1154.00,52.225
1155.00,52.239
1156.00,52.227
1157.00,52.243
1158.00,52.230
1159.00,52.234
1160.00,52.220
1161.00,52.224
1162.00,52.228
1163.00,52.209
1164.00,52.231
1165.00,52.225
1166.00,52.212
1167.00,52.198
1168.00,52.225
1169.00,52.203
1170.00,52.221
1171.00,52.197
1172.00,52.212
1173.00,52.202
1174.00,52.222
1175.00,52.215
1176.00,52.208
1177.00,52.228
1178.00,52.230
1179.00,52.224
1180.00,52.200
1181.00,52.239
1182.00,52.206
1183.00,52.212
1184.00,52.200
1185.00,52.219
1186.00,52.210
1187.00,52.223
1188.00,52.217
1189.00,52.214
1190.00,52.210
1191.00,52.191
1192.00,52.221
1193.00,52.201
1194.00,52.204
1195.00,52.186
1196.00,52.218
1197.00,52.209
1198.00,52.190
1199.00,52.195
1200.00,52.206
1201.00,52.228
1202.00,52.194
1203.00,52.217
1204.00,52.200
1205.00,52.211
1206.00,52.202
1207.00,52.196
1208.00,52.185
1209.00,52.189
1210.00,52.200
1211.00,52.201
1212.00,52.224
1213.00,52.182
1214.00,52.236
1215.00,52.204
1216.00,52.205
1217.00,52.220
1218.00,52.192
1219.00,52.207
1220.00,52.183
1221.00,52.227
1222.00,52.198
1223.00,52.231
1224.00,52.216
1225.00,52.212
1226.00,52.218
1227.00,52.209
1228.00,52.238
1229.00,52.227
1230.00,52.260
1231.00,52.241
1232.00,52.275
1233.00,52.291
1234.00,52.278
1235.00,52.276
1236.00,52.267
1237.00,52.267
1238.00,52.250
1239.00,52.264
1240.00,52.243
1241.00,52.260
1242.00,52.250
1243.00,52.252
1244.00,52.237
1245.00,52.274
1246.00,52.276
1247.00,52.280
1248.00,52.289
1249.00,52.305
1250.00,52.317
1251.00,52.289
1252.00,52.307
1253.00,52.299
1254.00,52.314
1255.00,52.304
1256.00,52.324
1257.00,52.266
1258.00,52.339
1259.00,52.316
1260.00,52.342
1261.00,52.343
1262.00,52.327
1263.00,52.334
1264.00,52.338
1265.00,52.351
1266.00,52.359
1267.00,52.377
1268.00,52.378
1269.00,52.388
1270.00,52.405
1271.00,52.403
1272.00,52.406
1273.00,52.429
1274.00,52.419
1275.00,52.425
1276.00,52.418
1277.00,52.402
1278.00,52.401
1279.00,52.404
1280.00,52.410
1281.00,52.428
1282.00,52.436
1283.00,52.447
1284.00,52.435
1285.00,52.458
1286.00,52.469
1287.00,52.457
1288.00,52.485
1289.00,52.469
1290.00,52.500
1291.00,52.506
1292.00,52.492
1293.00,52.506
1294.00,52.522
1295.00,52.513
1296.00,52.516
1297.00,52.508
1298.00,52.545
1299.00,52.523
1300.00,52.558
1301.00,52.542
1302.00,52.577
1303.00,52.586
1304.00,52.562
1305.00,52.591
1306.00,52.560
1307.00,52.594
1308.00,52.564
1309.00,52.562
1310.00,52.563
1311.00,52.550
1312.00,52.554
1313.00,52.605
1314.00,52.627
1315.00,52.630
1316.00,52.622
1317.00,52.647
1318.00,52.648
1319.00,52.642
1320.00,52.645
1321.00,52.832
1322.00,52.790
1323.00,52.781
1324.00,52.774
1325.00,52.750
1326.00,52.787
1327.00,52.778
1328.00,52.774
1329.00,52.768
1330.00,52.769
1331.00,52.778
1332.00,52.775
1333.00,52.783
1334.00,52.813
1335.00,52.830
1336.00,52.857
1337.00,52.880
1338.00,52.951
1339.00,52.997
1340.00,53.049
1341.00,53.102
1342.00,53.180
1343.00,53.215
1344.00,53.250
1345.00,53.329
1346.00,53.369
1347.00,53.383
1348.00,53.401
1349.00,53.414
1350.00,53.457
1351.00,53.451
1352.00,53.472
1353.00,53.472
1354.00,53.470
1355.00,53.432
1356.00,53.479
1357.00,53.479
1358.00,53.523
1359.00,53.527
1360.00,53.563
1361.00,53.578
1362.00,53.465
1363.00,53.634
1364.00,53.659
1365.00,53.648
1366.00,53.605
1367.00,53.561
1368.00,53.470
1369.00,53.535
1370.00,53.518
1371.00,53.452
1372.00,53.490
1373.00,53.525
1374.00,53.528
1375.00,53.517
1376.00,53.506
1377.00,53.465
1378.00,53.522
1379.00,53.531
1380.00,53.555
1381.00,53.504
1382.00,53.501
1383.00,53.539
1384.00,53.443
1385.00,53.448
1386.00,53.461
1387.00,53.558
1388.00,53.427
1389.00,53.382
1390.00,53.206
1391.00,53.534
1392.00,53.426
1393.00,53.278
1394.00,53.531
1395.00,53.544
1396.00,53.434
1397.00,53.331
1398.00,53.389
1399.00,53.518
1400.00,53.516
1401.00,53.430
1402.00,53.429
1403.00,53.537
1404.00,53.564
1405.00,53.499
1406.00,53.535
1407.00,53.488
1408.00,53.620
1409.00,53.535
1410.00,53.540
1411.00,53.474
1412.00,53.557
1413.00,53.570
1414.00,53.597
1415.00,53.559
1416.00,53.583
1417.00,53.606
1418.00,53.592
1419.00,53.634
1420.00,53.632
1421.00,53.655
1422.00,53.640
1423.00,53.707
1424.00,53.675
1425.00,53.714
1426.00,53.692
1427.00,53.738
1428.00,53.722
1429.00,53.729
1430.00,53.725
1431.00,53.755
1432.00,53.773
1433.00,53.785
1434.00,53.775
1435.00,53.837
1436.00,53.839
1437.00,53.838
1438.00,53.843
1439.00,53.884
1440.00,53.890
1441.00,53.898
1442.00,53.913
1443.00,53.923
1444.00,53.966
1445.00,53.931
1446.00,53.975
1447.00,53.983
1448.00,54.017
1449.00,54.014
1450.00,54.033
1451.00,54.039
1452.00,54.070
1453.00,54.061
1454.00,54.090
1455.00,54.120
1456.00,54.131
1457.00,54.122
1458.00,54.162
1459.00,54.163
1460.00,54.203
1461.00,54.180
1462.00,54.222
1463.00,54.215
1464.00,54.206
1465.00,54.233
1466.00,54.226
1467.00,54.263
1468.00,54.315
1469.00,54.285
1470.00,54.333
1471.00,54.337
1472.00,54.353
1473.00,54.362
1474.00,54.399
1475.00,54.382
1476.00,54.410
1477.00,54.382
1478.00,54.412
1479.00,54.428
1480.00,54.410
1481.00,54.440
1482.00,54.461
1483.00,54.464
1484.00,54.490
1485.00,54.496
1486.00,54.503
1487.00,54.516
1488.00,54.539
1489.00,54.518
1490.00,54.551
1491.00,54.550
1492.00,54.573
1493.00,54.546
1494.00,54.599
1495.00,54.569
1496.00,54.611
1497.00,54.577
1498.00,54.611
1499.00,54.618
1500.00,54.632
1501.00, 
1502.00, 
1503.00, 
1504.00, 
1505.00, 
1506.00, 
1507.00, 
1508.00, 
1509.00, 
1510.00, 
1511.00, 
1512.00, 
1513.00, 
1514.00, 
1515.00, 
1516.00, 
1517.00, 
1518.00, 
1519.00, 
1520.00, 
1521.00, 
1522.00, 
1523.00, 
1524.00, 
1525.00, 
1526.00, 
1527.00, 
1528.00, 
1529.00, 
1530.00, 
1531.00, 
1532.00, 
1533.00, 
1534.00, 
1535.00, 
1536.00, 
1537.00, 
1538.00, 
1539.00, 
1540.00, 
1541.00, 
1542.00, 
1543.00, 
1544.00, 
1545.00, 
1546.00, 
1547.00, 
1548.00, 
1549.00, 
1550.00, 
1551.00, 
1552.00, 
1553.00, 
1554.00, 
1555.00, 
1556.00, 
1557.00, 
1558.00, 
1559.00, 
1560.00, 
1561.00, 
1562.00, 
1563.00, 
1564.00, 
1565.00, 
1566.00, 
1567.00, 
1568.00, 
1569.00, 
1570.00, 
1571.00, 
1572.00, 
1573.00, 
1574.00, 
1575.00, 
1576.00, 
1577.00, 
1578.00, 
1579.00, 
1580.00, 
1581.00, 
1582.00, 
1583.00, 
1584.00, 
1585.00, 
1586.00, 
1587.00, 
1588.00, 
1589.00, 
1590.00, 
1591.00, 
1592.00, 
1593.00, 
1594.00, 
1595.00, 
1596.00, 
1597.00, 
1598.00, 
1599.00, 
1600.00, 
1601.00, 
1602.00, 
1603.00, 
1604.00, 
1605.00, 
1606.00, 
1607.00, 
1608.00, 
1609.00, 
1610.00, 
1611.00, 
1612.00, 
1613.00, 
1614.00, 
1615.00, 
1616.00, 
1617.00, 
1618.00, 
1619.00, 
1620.00, 
1621.00, 
1622.00, 
1623.00, 
1624.00, 
1625.00, 
1626.00, 
1627.00, 
1628.00, 
1629.00, 
1630.00, 
1631.00, 
1632.00, 
1633.00, 
1634.00, 
1635.00, 
1636.00, 
1637.00, 
1638.00, 
1639.00, 
1640.00, 
1641.00, 
1642.00, 
1643.00, 
1644.00, 
1645.00, 
1646.00, 
1647.00, 
1648.00, 
1649.00, 
1650.00, 
1651.00, 
1652.00, 
1653.00, 
1654.00, 
1655.00, 
1656.00, 
1657.00, 
1658.00, 
1659.00, 
1660.00, 
1661.00, 
1662.00, 
1663.00, 
1664.00, 
1665.00, 
1666.00, 
1667.00, 
1668.00, 
1669.00, 
1670.00, 
1671.00, 
1672.00, 
1673.00, 
1674.00, 
1675.00, 
1676.00, 
1677.00, 
1678.00, 
1679.00, 
1680.00, 
1681.00, 
1682.00, 
1683.00, 
1684.00, 
1685.00, 
1686.00, 
1687.00, 
1688.00, 
1689.00, 
1690.00, 
1691.00, 
1692.00, 
1693.00, 
1694.00, 
1695.00, 
1696.00, 
1697.00, 
1698.00, 
1699.00, 
1700.00, 
1701.00, 
1702.00, 
1703.00, 
1704.00, 
1705.00, 
1706.00, 
1707.00, 
1708.00, 
1709.00, 
1710.00, 
1711.00, 
1712.00, 
1713.00, 
1714.00, 
1715.00, 
1716.00, 
1717.00, 
1718.00, 
1719.00, 
1720.00, 
1721.00, 
1722.00, 
1723.00, 
1724.00, 
1725.00, 
1726.00, 
1727.00, 
1728.00, 
1729.00, 
1730.00, 
1731.00, 
1732.00, 
1733.00, 
1734.00, 
1735.00, 
1736.00, 
1737.00, 
1738.00, 
1739.00, 
1740.00, 
1741.00, 
1742.00, 
1743.00, 
1744.00, 
1745.00, 
1746.00, 
1747.00, 
1748.00, 
1749.00, 
1750.00, 
1751.00, 
1752.00, 
1753.00, 
1754.00, 
1755.00, 
1756.00, 
1757.00, 
1758.00, 
1759.00, 
1760.00, 
1761.00, 
1762.00, 
1763.00, 
1764.00, 
1765.00, 
1766.00, 
1767.00, 
1768.00, 
1769.00, 
1770.00, 
1771.00, 
1772.00, 
1773.00, 
1774.00, 
1775.00, 
1776.00, 
1777.00, 
1778.00, 
1779.00, 
1780.00, 
1781.00, 
1782.00, 
1783.00, 
1784.00, 
1785.00, 
1786.00, 
1787.00, 
1788.00, 
1789.00, 
1790.00, 
1791.00, 
1792.00, 
1793.00, 
1794.00, 
1795.00, 
1796.00, 
1797.00, 
1798.00, 
1799.00, 
1800.00, 
1801.00, 
1802.00, 
1803.00, 
1804.00, 
1805.00, 
1806.00, 
1807.00, 
1808.00, 
1809.00, 
1810.00, 
1811.00, 
1812.00, 
1813.00, 
1814.00, 
1815.00, 
1816.00, 
1817.00, 
1818.00, 
1819.00, 
1820.00, 
1821.00, 
1822.00, 
1823.00, 
1824.00, 
1825.00, 
1826.00, 
1827.00, 
1828.00, 
1829.00, 
1830.00, 
1831.00, 
1832.00, 
1833.00, 
1834.00, 
1835.00, 
1836.00, 
1837.00, 
1838.00, 
1839.00, 
1840.00, 
1841.00, 
1842.00, 
1843.00, 
1844.00, 
1845.00, 
1846.00, 
1847.00, 
1848.00, 
1849.00, 
1850.00, 
1851.00, 
1852.00, 
1853.00, 
1854.00, 
1855.00, 
1856.00, 
1857.00, 
1858.00, 
1859.00, 
1860.00, 
1861.00, 
1862.00, 
1863.00, 
1864.00, 
1865.00, 
1866.00, 
1867.00, 
1868.00, 
1869.00, 
1870.00, 
1871.00, 
1872.00, 
1873.00, 
1874.00, 
1875.00, 
1876.00, 
1877.00, 
1878.00, 
1879.00, 
1880.00, 
1881.00, 
1882.00, 
1883.00, 
1884.00, 
1885.00, 
1886.00, 
1887.00, 
1888.00, 
1889.00, 
1890.00, 
1891.00, 
1892.00, 
1893.00, 
1894.00, 
1895.00, 
1896.00, 
1897.00, 
1898.00, 
1899.00, 
1900.00, 
1901.00, 
1902.00, 
1903.00, 
1904.00, 
1905.00, 
1906.00, 
1907.00, 
1908.00, 
1909.00, 
1910.00, 
1911.00, 
1912.00, 
1913.00, 
1914.00, 
1915.00, 
1916.00, 
1917.00, 
1918.00, 
1919.00, 
1920.00, 
1921.00, 
1922.00, 
1923.00, 
1924.00, 
1925.00, 
1926.00, 
1927.00, 
1928.00, 
1929.00, 
1930.00, 
1931.00, 
1932.00, 
1933.00, 
1934.00, 
1935.00, 
1936.00, 
1937.00, 
1938.00, 
1939.00, 
1940.00, 
1941.00, 
1942.00, 
1943.00, 
1944.00, 
1945.00, 
1946.00, 
1947.00, 
1948.00, 
1949.00, 
1950.00, 
1951.00, 
1952.00, 
1953.00, 
1954.00, 
1955.00, 
1956.00, 
1957.00, 
1958.00, 
1959.00, 
1960.00, 
1961.00, 
1962.00, 
1963.00, 
1964.00, 
1965.00, 
1966.00, 
1967.00, 
1968.00, 
1969.00, 
1970.00, 
1971.00, 
1972.00, 
1973.00, 
1974.00, 
1975.00, 
1976.00, 
1977.00, 
1978.00, 
1979.00, 
1980.00, 
1981.00, 
1982.00, 
1983.00, 
1984.00, 
1985.00, 
1986.00, 
1987.00, 
1988.00, 
1989.00, 
1990.00, 
1991.00, 
1992.00, 
1993.00, 
1994.00, 
1995.00, 
1996.00, 
1997.00, 
1998.00, 
1999.00, 
2000.00, 
2001.00, 
2002.00, 
2003.00, 
2004.00, 
2005.00, 
2006.00, 
2007.00, 
2008.00, 
2009.00, 
2010.00, 
2011.00, 
2012.00, 
2013.00, 
2014.00, 
2015.00, 
2016.00, 
2017.00, 
2018.00, 
2019.00, 
2020.00, 
2021.00, 
2022.00, 
2023.00, 
2024.00, 
2025.00, 
2026.00, 
2027.00, 
2028.00, 
2029.00, 
2030.00, 
2031.00, 
2032.00, 
2033.00, 
2034.00, 
2035.00, 
2036.00, 
2037.00, 
2038.00, 
2039.00, 
2040.00, 
2041.00, 
2042.00, 
2043.00, 
2044.00, 
2045.00, 
2046.00, 
2047.00, 
2048.00, 
2049.00, 
2050.00, 
2051.00, 
2052.00, 
2053.00, 
2054.00, 
2055.00, 
2056.00, 
2057.00, 
2058.00, 
2059.00, 
2060.00, 
2061.00, 
2062.00, 
2063.00, 
2064.00, 
2065.00, 
2066.00, 
2067.00, 
2068.00, 
2069.00, 
2070.00, 
2071.00, 
2072.00, 
2073.00, 
2074.00, 
2075.00, 
2076.00, 
2077.00, 
2078.00, 
2079.00, 
2080.00, 
2081.00, 
2082.00, 
2083.00, 
2084.00, 
2085.00, 
2086.00, 
2087.00, 
2088.00, 
2089.00, 
2090.00, 
2091.00, 
2092.00, 
2093.00, 
2094.00, 
2095.00, 
2096.00, 
2097.00, 
2098.00, 
2099.00, 
2100.00, 
2101.00, 
2102.00, 
2103.00, 
2104.00, 
2105.00, 
2106.00, 
2107.00, 
2108.00, 
2109.00, 
2110.00, 
2111.00, 
2112.00, 
2113.00, 
2114.00, 
2115.00, 
2116.00, 
2117.00, 
2118.00, 
2119.00, 
2120.00, 
2121.00, 
2122.00, 
2123.00, 
2124.00, 
2125.00, 
2126.00, 
2127.00, 
2128.00, 
2129.00, 
2130.00, 
2131.00, 
2132.00, 
2133.00, 
2134.00, 
2135.00, 
2136.00, 
2137.00, 
2138.00, 
2139.00, 
2140.00, 
2141.00, 
2142.00, 
2143.00, 
2144.00, 
2145.00, 
2146.00, 
2147.00, 
2148.00, 
2149.00, 
2150.00, 
2151.00, 
2152.00, 
2153.00, 
2154.00, 
2155.00, 
2156.00, 
2157.00, 
2158.00, 
2159.00, 
2160.00, 
2161.00, 
2162.00, 
2163.00, 
2164.00, 
2165.00, 
2166.00, 
2167.00, 
2168.00, 
2169.00, 
2170.00, 
2171.00, 
2172.00, 
2173.00, 
2174.00, 
2175.00, 
2176.00, 
2177.00, 
2178.00, 
2179.00, 
2180.00, 
2181.00, 
2182.00, 
2183.00, 
2184.00, 
2185.00, 
2186.00, 
2187.00, 
2188.00, 
2189.00, 
2190.00, 
2191.00, 
2192.00, 
2193.00, 
2194.00, 
2195.00, 
2196.00, 
2197.00, 
2198.00, 
2199.00, 
2200.00, 
2201.00, 
2202.00, 
2203.00, 
2204.00, 
2205.00, 
2206.00, 
2207.00, 
2208.00, 
2209.00, 
2210.00, 
2211.00, 
2212.00, 
2213.00, 
2214.00, 
2215.00, 
2216.00, 
2217.00, 
2218.00, 
2219.00, 
2220.00, 
2221.00, 
2222.00, 
2223.00, 
2224.00, 
2225.00, 
2226.00, 
2227.00, 
2228.00, 
2229.00, 
2230.00, 
2231.00, 
2232.00, 
2233.00, 
2234.00, 
2235.00, 
2236.00, 
2237.00, 
2238.00, 
2239.00, 
2240.00, 
2241.00, 
2242.00, 
2243.00, 
2244.00, 
2245.00, 
2246.00, 
2247.00, 
2248.00, 
2249.00, 
2250.00, 
2251.00, 
2252.00, 
2253.00, 
2254.00, 
2255.00, 
2256.00, 
2257.00, 
2258.00, 
2259.00, 
2260.00, 
2261.00, 
2262.00, 
2263.00, 
2264.00, 
2265.00, 
2266.00, 
2267.00, 
2268.00, 
2269.00, 
2270.00, 
2271.00, 
2272.00, 
2273.00, 
2274.00, 
2275.00, 
2276.00, 
2277.00, 
2278.00, 
2279.00, 
2280.00, 
2281.00, 
2282.00, 
2283.00, 
2284.00, 
2285.00, 
2286.00, 
2287.00, 
2288.00, 
2289.00, 
2290.00, 
2291.00, 
2292.00, 
2293.00, 
2294.00, 
2295.00, 
2296.00, 
2297.00, 
2298.00, 
2299.00, 
2300.00, 
2301.00, 
2302.00, 
2303.00, 
2304.00, 
2305.00, 
2306.00, 
2307.00, 
2308.00, 
2309.00, 
2310.00, 
2311.00, 
2312.00, 
2313.00, 
2314.00, 
2315.00, 
2316.00, 
2317.00, 
2318.00, 
2319.00, 
2320.00, 
2321.00, 
2322.00, 
2323.00, 
2324.00, 
2325.00, 
2326.00, 
2327.00, 
2328.00, 
2329.00, 
2330.00, 
2331.00, 
2332.00, 
2333.00, 
2334.00, 
2335.00, 
2336.00, 
2337.00, 
2338.00, 
2339.00, 
2340.00, 
2341.00, 
2342.00, 
2343.00, 
2344.00, 
2345.00, 
2346.00, 
2347.00, 
2348.00, 
2349.00, 
2350.00, 
2351.00, 
2352.00, 
2353.00, 
2354.00, 
2355.00, 
2356.00, 
2357.00, 
2358.00, 
2359.00, 
2360.00, 
2361.00, 
2362.00, 
2363.00, 
2364.00, 
2365.00, 
2366.00, 
2367.00, 
2368.00, 
2369.00, 
2370.00, 
2371.00, 
2372.00, 
2373.00, 
2374.00, 
2375.00, 
2376.00, 
2377.00, 
2378.00, 
2379.00, 
2380.00, 
2381.00, 
2382.00, 
2383.00, 
2384.00, 
2385.00, 
2386.00, 
2387.00, 
2388.00, 
2389.00, 
2390.00, 
2391.00, 
2392.00, 
2393.00, 
2394.00, 
2395.00, 
2396.00, 
2397.00, 
2398.00, 
2399.00, 
2400.00, 
2401.00, 
2402.00, 
2403.00, 
2404.00, 
2405.00, 
2406.00, 
2407.00, 
2408.00, 
2409.00, 
2410.00, 
2411.00, 
2412.00, 
2413.00, 
2414.00, 
2415.00, 
2416.00, 
2417.00, 
2418.00, 
2419.00, 
2420.00, 
2421.00, 
2422.00, 
2423.00, 
2424.00, 
2425.00, 
2426.00, 
2427.00, 
2428.00, 
2429.00, 
2430.00, 
2431.00, 
2432.00, 
2433.00, 
2434.00, 
2435.00, 
2436.00, 
2437.00, 
2438.00, 
2439.00, 
2440.00, 
2441.00, 
2442.00, 
2443.00, 
2444.00, 
2445.00, 
2446.00, 
2447.00, 
2448.00, 
2449.00, 
2450.00, 
2451.00, 
2452.00, 
2453.00, 
2454.00, 
2455.00, 
2456.00, 
2457.00, 
2458.00, 
2459.00, 
2460.00, 
2461.00, 
2462.00, 
2463.00, 
2464.00, 
2465.00, 
2466.00, 
2467.00, 
2468.00, 
2469.00, 
2470.00, 
2471.00, 
2472.00, 
2473.00, 
2474.00, 
2475.00, 
2476.00, 
2477.00, 
2478.00, 
2479.00, 
2480.00, 
2481.00, 
2482.00, 
2483.00, 
2484.00, 
2485.00, 
2486.00, 
2487.00, 
2488.00, 
2489.00, 
2490.00, 
2491.00, 
2492.00, 
2493.00, 
2494.00, 
2495.00, 
2496.00, 
2497.00, 
2498.00, 
2499.00, 
2500.00, 
2501.00, 
2502.00, 
2503.00, 
2504.00, 
2505.00, 
2506.00, 
2507.00, 
2508.00, 
2509.00, 
2510.00, 
2511.00, 
2512.00, 
2513.00, 
2514.00, 
2515.00, 
2516.00, 
2517.00, 
2518.00, 
2519.00, 
2520.00, 
2521.00, 
2522.00, 
2523.00, 
2524.00, 
2525.00, 
2526.00, 
2527.00, 
2528.00, 
2529.00, 
2530.00, 
2531.00, 
2532.00, 
2533.00, 
2534.00, 
2535.00, 
2536.00, 
2537.00, 
2538.00, 
2539.00, 
2540.00, 
2541.00, 
2542.00, 
2543.00, 
2544.00, 
2545.00, 
2546.00, 
2547.00, 
2548.00, 
2549.00, 
2550.00, 
2551.00, 
2552.00, 
2553.00, 
2554.00, 
2555.00, 
2556.00, 
2557.00, 
2558.00, 
2559.00, 
2560.00, 
2561.00, 
2562.00, 
2563.00, 
2564.00, 
2565.00, 
2566.00, 
2567.00, 
2568.00, 
2569.00, 
2570.00, 
2571.00, 
2572.00, 
2573.00, 
2574.00, 
2575.00, 
2576.00, 
2577.00, 
2578.00, 
2579.00, 
2580.00, 
2581.00, 
2582.00, 
2583.00, 
2584.00, 
2585.00, 
2586.00, 
2587.00, 
2588.00, 
2589.00, 
2590.00, 
2591.00, 
2592.00, 
2593.00, 
2594.00, 
2595.00, 
2596.00, 
2597.00, 
2598.00, 
2599.00, 
2600.00, 
