"2aP2 - RawData"
"Wavelength nm.","T%"
200.00,0.002
201.00,0.002
202.00,0.002
203.00,0.003
204.00,0.001
205.00,0.000
206.00,0.002
207.00,-0.000
208.00,-0.000
209.00,0.003
210.00,-0.001
211.00,-0.001
212.00,-0.001
213.00,-0.001
214.00,0.000
215.00,0.003
216.00,0.000
217.00,0.003
218.00,0.005
219.00,0.000
220.00,0.002
221.00,0.002
222.00,-0.000
223.00,0.001
224.00,0.000
225.00,-0.000
226.00,0.001
227.00,0.002
228.00,-0.002
229.00,0.004
230.00,0.001
231.00,0.001
232.00,-0.001
233.00,0.000
234.00,0.002
235.00,0.002
236.00,0.001
237.00,0.003
238.00,0.000
239.00,0.001
240.00,0.002
241.00,-0.001
242.00,0.002
243.00,0.002
244.00,0.001
245.00,0.001
246.00,-0.001
247.00,0.002
248.00,-0.000
249.00,0.002
250.00,0.001
251.00,0.001
252.00,0.001
253.00,0.001
254.00,0.001
255.00,0.000
256.00,0.000
257.00,0.001
258.00,0.000
259.00,-0.001
260.00,0.000
261.00,-0.000
262.00,-0.001
263.00,0.002
264.00,0.000
265.00,0.002
266.00,0.000
267.00,-0.000
268.00,0.000
269.00,0.001
270.00,0.000
271.00,0.001
272.00,0.001
273.00,0.001
274.00,0.000
275.00,0.001
276.00,-0.001
277.00,0.002
278.00,0.000
279.00,0.000
280.00,-0.001
281.00,0.000
282.00,0.003
283.00,-0.001
284.00,0.000
285.00,-0.001
286.00,-0.000
287.00,-0.000
288.00,0.000
289.00,0.001
290.00,0.002
291.00,-0.001
292.00,0.001
293.00,0.001
294.00,-0.001
295.00,-0.000
296.00,-0.001
297.00,-0.000
298.00,0.000
299.00,0.001
300.00,0.001
301.00,0.002
302.00,0.004
303.00,0.006
304.00,0.008
305.00,0.014
306.00,0.019
307.00,0.029
308.00,0.048
309.00,0.073
310.00,0.106
311.00,0.142
312.00,0.195
313.00,0.258
314.00,0.337
315.00,0.438
316.00,0.555
317.00,0.707
318.00,0.864
319.00,1.065
320.00,1.283
321.00,1.539
322.00,1.819
323.00,2.143
324.00,2.478
325.00,2.805
326.00,3.168
327.00,3.594
328.00,3.995
329.00,4.415
330.00,4.842
331.00,5.307
332.00,5.750
333.00,6.249
334.00,6.696
335.00,7.151
336.00,7.623
337.00,8.000
338.00,8.527
339.00,8.924
340.00,9.356
341.00,9.774
342.00,10.144
343.00,10.536
344.00,10.886
345.00,11.277
346.00,11.590
347.00,11.847
348.00,12.152
349.00,12.397
350.00,12.645
351.00,12.905
352.00,13.056
353.00,13.313
354.00,13.398
355.00,13.665
356.00,13.825
357.00,13.947
358.00,14.107
359.00,14.241
360.00,14.374
361.00,14.422
362.00,14.561
363.00,14.611
364.00,14.678
365.00,14.737
366.00,14.791
367.00,14.788
368.00,14.814
369.00,14.837
370.00,14.884
371.00,14.885
372.00,14.857
373.00,14.861
374.00,14.831
375.00,14.806
376.00,14.763
377.00,14.709
378.00,14.664
379.00,14.557
380.00,14.578
381.00,14.514
382.00,14.516
383.00,14.519
384.00,14.518
385.00,14.486
386.00,14.467
387.00,14.507
388.00,14.523
389.00,14.509
390.00,14.530
391.00,14.503
392.00,14.518
393.00,14.483
394.00,14.522
395.00,14.497
396.00,14.450
397.00,14.467
398.00,14.442
399.00,14.459
400.00,14.455
401.00,14.440
402.00,14.416
403.00,14.404
404.00,14.388
405.00,14.355
406.00,14.362
407.00,14.336
408.00,14.340
409.00,14.307
410.00,14.261
411.00,14.259
412.00,14.224
413.00,14.264
414.00,14.247
415.00,14.262
416.00,14.316
417.00,14.317
418.00,14.312
419.00,14.366
420.00,14.400
421.00,14.427
422.00,14.400
423.00,14.477
424.00,14.507
425.00,14.530
426.00,14.550
427.00,14.611
428.00,14.645
429.00,14.682
430.00,14.722
431.00,14.772
432.00,14.814
433.00,14.881
434.00,14.931
435.00,14.986
436.00,15.061
437.00,15.113
438.00,15.169
439.00,15.252
440.00,15.324
441.00,15.387
442.00,15.471
443.00,15.547
444.00,15.648
445.00,15.724
446.00,15.813
447.00,15.894
448.00,16.010
449.00,16.110
450.00,16.221
451.00,16.299
452.00,16.377
453.00,16.525
454.00,16.602
455.00,16.719
456.00,16.820
457.00,16.941
458.00,17.047
459.00,17.168
460.00,17.305
461.00,17.409
462.00,17.548
463.00,17.669
464.00,17.818
465.00,17.938
466.00,18.056
467.00,18.215
468.00,18.297
469.00,18.454
470.00,18.528
471.00,18.641
472.00,18.796
473.00,18.892
474.00,19.017
475.00,19.142
476.00,19.271
477.00,19.385
478.00,19.527
479.00,19.711
480.00,19.825
481.00,19.954
482.00,20.123
483.00,20.273
484.00,20.427
485.00,20.595
486.00,20.738
487.00,20.914
488.00,21.071
489.00,21.243
490.00,21.423
491.00,21.557
492.00,21.774
493.00,21.928
494.00,21.995
495.00,22.067
496.00,22.229
497.00,22.357
498.00,22.528
499.00,22.670
500.00,22.820
501.00,22.946
502.00,23.084
503.00,23.244
504.00,23.314
505.00,23.478
506.00,23.624
507.00,23.692
508.00,23.855
509.00,24.002
510.00,24.149
511.00,24.285
512.00,24.478
513.00,24.590
514.00,24.741
515.00,24.873
516.00,25.002
517.00,25.108
518.00,25.234
519.00,25.335
520.00,25.403
521.00,25.535
522.00,25.646
523.00,25.612
524.00,25.869
525.00,26.014
526.00,26.077
527.00,26.149
528.00,26.278
529.00,26.453
530.00,26.615
531.00,26.723
532.00,26.779
533.00,26.896
534.00,27.019
535.00,27.087
536.00,27.177
537.00,27.299
538.00,27.358
539.00,27.420
540.00,27.517
541.00,27.588
542.00,27.661
543.00,27.761
544.00,27.892
545.00,27.942
546.00,27.937
547.00,28.082
548.00,28.192
549.00,28.277
550.00,28.341
551.00,28.451
552.00,28.523
553.00,28.572
554.00,28.676
555.00,28.706
556.00,28.766
557.00,28.856
558.00,28.897
559.00,29.014
560.00,29.082
561.00,29.153
562.00,29.261
563.00,29.269
564.00,29.335
565.00,29.357
566.00,29.394
567.00,29.412
568.00,29.490
569.00,29.553
570.00,29.601
571.00,29.667
572.00,29.677
573.00,29.710
574.00,29.773
575.00,29.811
576.00,29.795
577.00,29.900
578.00,30.009
579.00,30.048
580.00,30.073
581.00,30.187
582.00,30.332
583.00,30.330
584.00,30.444
585.00,30.527
586.00,30.553
587.00,30.615
588.00,30.682
589.00,30.644
590.00,30.721
591.00,30.797
592.00,30.737
593.00,30.792
594.00,30.884
595.00,30.968
596.00,31.083
597.00,31.151
598.00,31.289
599.00,31.253
600.00,31.295
601.00,31.391
602.00,31.438
603.00,31.505
604.00,31.532
605.00,31.609
606.00,31.651
607.00,31.719
608.00,31.881
609.00,31.956
610.00,31.847
611.00,31.927
612.00,31.961
613.00,32.033
614.00,32.122
615.00,32.188
616.00,32.315
617.00,32.346
618.00,32.361
619.00,32.487
620.00,32.536
621.00,32.559
622.00,32.625
623.00,32.730
624.00,32.886
625.00,32.924
626.00,32.964
627.00,33.105
628.00,33.119
629.00,33.169
630.00,33.267
631.00,33.362
632.00,33.450
633.00,33.560
634.00,33.684
635.00,33.758
636.00,33.849
637.00,33.965
638.00,34.022
639.00,34.209
640.00,34.207
641.00,34.290
642.00,34.370
643.00,34.496
644.00,34.603
645.00,34.724
646.00,34.890
647.00,34.936
648.00,35.011
649.00,35.097
650.00,35.168
651.00,35.436
652.00,35.486
653.00,35.550
654.00,35.672
655.00,35.885
656.00,36.181
657.00,36.052
658.00,36.152
659.00,36.341
660.00,36.388
661.00,36.606
662.00,36.650
663.00,36.774
664.00,37.035
665.00,37.208
666.00,37.126
667.00,37.293
668.00,37.419
669.00,37.645
670.00,37.921
671.00,37.957
672.00,37.956
673.00,38.159
674.00,38.367
675.00,38.405
676.00,38.623
677.00,38.827
678.00,38.711
679.00,38.884
680.00,39.047
681.00,39.244
682.00,39.217
683.00,39.312
684.00,39.702
685.00,39.734
686.00,39.641
687.00,39.863
688.00,39.944
689.00,40.039
690.00,40.443
691.00,40.679
692.00,40.499
693.00,40.609
694.00,40.777
695.00,40.936
696.00,41.092
697.00,41.141
698.00,41.300
699.00,41.661
700.00,41.719
701.00,41.734
702.00,41.883
703.00,42.191
704.00,42.197
705.00,42.140
706.00,42.320
707.00,42.447
708.00,42.592
709.00,43.158
710.00,42.876
711.00,42.843
712.00,42.969
713.00,43.240
714.00,43.293
715.00,43.501
716.00,43.365
717.00,43.688
718.00,43.712
719.00,43.791
720.00,43.895
721.00,48.298
722.00,48.398
723.00,48.429
724.00,48.434
725.00,48.508
726.00,48.548
727.00,48.642
728.00,48.699
729.00,48.874
730.00,48.951
731.00,49.050
732.00,49.100
733.00,49.202
734.00,49.259
735.00,49.359
736.00,49.408
737.00,49.469
738.00,49.620
739.00,49.640
740.00,49.719
741.00,49.847
742.00,49.854
743.00,49.934
744.00,49.883
745.00,49.999
746.00,50.051
747.00,50.094
748.00,50.056
749.00,50.091
750.00,50.260
751.00,50.280
752.00,50.281
753.00,50.340
754.00,50.396
755.00,50.442
756.00,50.473
757.00,50.484
758.00,50.600
759.00,50.622
760.00,50.677
761.00,50.672
762.00,50.702
763.00,50.844
764.00,50.781
765.00,50.849
766.00,50.898
767.00,50.975
768.00,50.966
769.00,51.062
770.00,51.150
771.00,51.116
772.00,51.136
773.00,51.239
774.00,51.297
775.00,51.294
776.00,51.302
777.00,51.389
778.00,51.368
779.00,51.365
780.00,51.365
781.00,51.446
782.00,51.483
783.00,51.491
784.00,51.571
785.00,51.488
786.00,51.632
787.00,51.568
788.00,51.567
789.00,51.591
790.00,51.550
791.00,51.717
792.00,51.617
793.00,51.654
794.00,51.683
795.00,51.679
796.00,51.727
797.00,51.621
798.00,51.730
799.00,51.698
800.00,51.748
801.00,51.707
802.00,51.757
803.00,51.789
804.00,51.615
805.00,51.737
806.00,51.763
807.00,51.710
808.00,51.740
809.00,51.718
810.00,51.710
811.00,51.756
812.00,51.707
813.00,51.704
814.00,51.753
815.00,51.716
816.00,51.673
817.00,51.696
818.00,51.732
819.00,51.704
820.00,51.693
821.00,51.771
822.00,51.722
823.00,51.627
824.00,51.743
825.00,51.742
826.00,51.698
827.00,51.736
828.00,51.792
829.00,51.725
830.00,51.672
831.00,53.925
832.00,53.912
833.00,53.861
834.00,53.883
835.00,53.860
836.00,53.898
837.00,53.913
838.00,53.863
839.00,53.874
840.00,53.818
841.00,53.883
842.00,53.812
843.00,53.854
844.00,53.840
845.00,53.751
846.00,53.794
847.00,53.787
848.00,53.791
849.00,53.753
850.00,53.777
851.00,53.648
852.00,53.738
853.00,53.616
854.00,53.619
855.00,53.620
856.00,53.624
857.00,53.576
858.00,53.511
859.00,53.533
860.00,53.528
861.00,53.544
862.00,53.480
863.00,53.547
864.00,53.478
865.00,53.543
866.00,53.511
867.00,53.526
868.00,53.506
869.00,53.380
870.00,53.632
871.00,53.447
872.00,53.499
873.00,53.439
874.00,53.499
875.00,53.417
876.00,53.485
877.00,53.421
878.00,53.460
879.00,53.410
880.00,53.426
881.00,53.404
882.00,53.452
883.00,53.350
884.00,53.360
885.00,53.318
886.00,53.341
887.00,53.293
888.00,53.292
889.00,53.287
890.00,53.288
891.00,53.251
892.00,53.222
893.00,53.214
894.00,53.231
895.00,53.194
896.00,53.150
897.00,53.143
898.00,53.120
899.00,53.126
900.00,53.110
901.00,53.102
902.00,53.112
903.00,53.093
904.00,53.068
905.00,53.074
906.00,53.086
907.00,53.048
908.00,53.009
909.00,53.030
910.00,52.961
911.00,52.972
912.00,52.980
913.00,52.915
914.00,52.937
915.00,52.902
916.00,52.890
917.00,52.891
918.00,52.870
919.00,52.847
920.00,52.805
921.00,52.813
922.00,52.786
923.00,52.769
924.00,52.707
925.00,52.749
926.00,52.693
927.00,52.709
928.00,52.630
929.00,52.696
930.00,52.632
931.00,52.667
932.00,52.595
933.00,52.642
934.00,52.635
935.00,52.564
936.00,52.528
937.00,52.545
938.00,52.523
939.00,52.512
940.00,52.539
941.00,52.508
942.00,52.455
943.00,52.456
944.00,52.422
945.00,52.448
946.00,52.421
947.00,52.345
948.00,52.362
949.00,52.313
950.00,52.338
951.00,52.280
952.00,52.277
953.00,52.232
954.00,52.226
955.00,52.149
956.00,52.238
957.00,52.114
958.00,52.149
959.00,52.077
960.00,52.094
961.00,52.069
962.00,52.065
963.00,52.046
964.00,52.035
965.00,52.055
966.00,52.029
967.00,52.026
968.00,52.000
969.00,52.093
970.00,52.055
971.00,52.023
972.00,51.964
973.00,52.029
974.00,52.041
975.00,51.977
976.00,52.033
977.00,51.986
978.00,52.051
979.00,51.994
980.00,51.990
981.00,52.014
982.00,51.954
983.00,51.997
984.00,51.951
985.00,51.991
986.00,51.940
987.00,51.978
988.00,51.935
989.00,51.949
990.00,51.949
991.00,51.936
992.00,51.965
993.00,51.909
994.00,51.898
995.00,51.894
996.00,51.871
997.00,51.861
998.00,51.850
999.00,51.861
1000.00,51.789
1001.00,51.816
1002.00,51.794
1003.00,51.796
1004.00,51.778
1005.00,51.727
1006.00,51.793
1007.00,51.738
1008.00,51.711
1009.00,51.724
1010.00,51.694
1011.00,51.700
1012.00,51.647
1013.00,51.670
1014.00,51.645
1015.00,51.647
1016.00,51.605
1017.00,51.586
1018.00,51.597
1019.00,51.541
1020.00,51.580
1021.00,51.532
1022.00,51.538
1023.00,51.480
1024.00,51.495
1025.00,51.475
1026.00,51.458
1027.00,51.436
1028.00,51.423
1029.00,51.405
1030.00,51.374
1031.00,51.398
1032.00,51.339
1033.00,51.345
1034.00,51.324
1035.00,51.285
1036.00,51.290
1037.00,51.266
1038.00,51.260
1039.00,51.216
1040.00,51.229
1041.00,51.178
1042.00,51.179
1043.00,51.140
1044.00,51.176
1045.00,51.158
1046.00,51.136
1047.00,51.189
1048.00,51.178
1049.00,51.198
1050.00,51.182
1051.00,51.250
1052.00,51.209
1053.00,51.237
1054.00,51.224
1055.00,51.258
1056.00,51.257
1057.00,51.250
1058.00,51.240
1059.00,51.233
1060.00,51.254
1061.00,51.217
1062.00,51.221
1063.00,51.216
1064.00,51.233
1065.00,51.198
1066.00,51.209
1067.00,51.200
1068.00,51.223
1069.00,51.157
1070.00,51.156
1071.00,51.125
1072.00,51.153
1073.00,51.116
1074.00,51.112
1075.00,51.133
1076.00,51.115
1077.00,51.097
1078.00,51.085
1079.00,51.090
1080.00,51.095
1081.00,51.077
1082.00,51.072
1083.00,51.074
1084.00,51.047
1085.00,51.041
1086.00,51.020
1087.00,51.029
1088.00,51.017
1089.00,51.021
1090.00,50.993
1091.00,51.019
1092.00,50.991
1093.00,50.981
1094.00,50.955
1095.00,50.951
1096.00,50.930
1097.00,50.945
1098.00,50.924
1099.00,50.927
1100.00,50.900
1101.00,50.895
1102.00,50.877
1103.00,50.870
1104.00,50.838
1105.00,50.847
1106.00,50.837
1107.00,50.859
1108.00,50.841
1109.00,50.829
1110.00,50.812
1111.00,50.818
1112.00,50.796
1113.00,50.803
1114.00,50.774
1115.00,50.792
1116.00,50.769
1117.00,50.751
1118.00,50.735
1119.00,50.749
1120.00,50.720
1121.00,50.724
1122.00,50.692
1123.00,50.692
1124.00,50.684
1125.00,50.691
1126.00,50.662
1127.00,50.692
1128.00,50.654
1129.00,50.636
1130.00,50.608
1131.00,50.618
1132.00,50.593
1133.00,50.601
1134.00,50.579
1135.00,50.608
1136.00,50.580
1137.00,50.599
1138.00,50.596
1139.00,50.607
1140.00,50.594
1141.00,50.602
1142.00,50.572
1143.00,50.593
1144.00,50.562
1145.00,50.573
1146.00,50.553
1147.00,50.546
1148.00,50.542
1149.00,50.570
1150.00,50.539
1151.00,50.537
1152.00,50.535
1153.00,50.552
1154.00,50.545
1155.00,50.544
1156.00,50.506
1157.00,50.530
1158.00,50.520
1159.00,50.532
1160.00,50.524
1161.00,50.514
1162.00,50.511
1163.00,50.504
1164.00,50.506
1165.00,50.489
1166.00,50.515
1167.00,50.496
1168.00,50.534
1169.00,50.525
1170.00,50.508
1171.00,50.492
1172.00,50.493
1173.00,50.488
1174.00,50.501
1175.00,50.484
1176.00,50.482
1177.00,50.473
1178.00,50.480
1179.00,50.503
1180.00,50.458
1181.00,50.485
1182.00,50.466
1183.00,50.463
1184.00,50.454
1185.00,50.476
1186.00,50.453
1187.00,50.457
1188.00,50.460
1189.00,50.449
1190.00,50.453
1191.00,50.435
1192.00,50.461
1193.00,50.432
1194.00,50.438
1195.00,50.403
1196.00,50.447
1197.00,50.436
1198.00,50.418
1199.00,50.420
1200.00,50.424
1201.00,50.460
1202.00,50.421
1203.00,50.433
1204.00,50.425
1205.00,50.445
1206.00,50.428
1207.00,50.431
1208.00,50.407
1209.00,50.412
1210.00,50.424
1211.00,50.403
1212.00,50.443
1213.00,50.380
1214.00,50.412
1215.00,50.387
1216.00,50.391
1217.00,50.402
1218.00,50.374
1219.00,50.396
1220.00,50.372
1221.00,50.397
1222.00,50.382
1223.00,50.416
1224.00,50.405
1225.00,50.393
1226.00,50.411
1227.00,50.402
1228.00,50.410
1229.00,50.391
1230.00,50.434
1231.00,50.433
1232.00,50.454
1233.00,50.448
1234.00,50.445
1235.00,50.445
1236.00,50.441
1237.00,50.455
1238.00,50.450
1239.00,50.452
1240.00,50.461
1241.00,50.454
1242.00,50.459
1243.00,50.489
1244.00,50.444
1245.00,50.494
1246.00,50.472
1247.00,50.458
1248.00,50.463
1249.00,50.474
1250.00,50.490
1251.00,50.476
1252.00,50.487
1253.00,50.465
1254.00,50.517
1255.00,50.478
1256.00,50.468
1257.00,50.446
1258.00,50.505
1259.00,50.492
1260.00,50.511
1261.00,50.502
1262.00,50.495
1263.00,50.490
1264.00,50.497
1265.00,50.502
1266.00,50.493
1267.00,50.523
1268.00,50.529
1269.00,50.530
1270.00,50.549
1271.00,50.544
1272.00,50.526
1273.00,50.557
1274.00,50.556
1275.00,50.554
1276.00,50.547
1277.00,50.548
1278.00,50.571
1279.00,50.549
1280.00,50.554
1281.00,50.579
1282.00,50.575
1283.00,50.575
1284.00,50.591
1285.00,50.563
1286.00,50.586
1287.00,50.582
1288.00,50.588
1289.00,50.579
1290.00,50.612
1291.00,50.601
1292.00,50.611
1293.00,50.610
1294.00,50.622
1295.00,50.625
1296.00,50.629
1297.00,50.614
1298.00,50.677
1299.00,50.638
1300.00,50.670
1301.00,50.644
1302.00,50.672
1303.00,50.665
1304.00,50.637
1305.00,50.680
1306.00,50.691
1307.00,50.697
1308.00,50.677
1309.00,50.705
1310.00,50.695
1311.00,50.688
1312.00,50.690
1313.00,50.726
1314.00,50.719
1315.00,50.718
1316.00,50.713
1317.00,50.771
1318.00,50.734
1319.00,50.729
1320.00,50.744
1321.00,50.929
1322.00,50.902
1323.00,50.887
1324.00,50.886
1325.00,50.881
1326.00,50.891
1327.00,50.884
1328.00,50.884
1329.00,50.860
1330.00,50.895
1331.00,50.874
1332.00,50.874
1333.00,50.884
1334.00,50.952
1335.00,50.899
1336.00,50.949
1337.00,50.970
1338.00,51.044
1339.00,51.073
1340.00,51.122
1341.00,51.184
1342.00,51.249
1343.00,51.286
1344.00,51.333
1345.00,51.402
1346.00,51.442
1347.00,51.456
1348.00,51.512
1349.00,51.515
1350.00,51.533
1351.00,51.532
1352.00,51.567
1353.00,51.545
1354.00,51.558
1355.00,51.491
1356.00,51.567
1357.00,51.566
1358.00,51.601
1359.00,51.601
1360.00,51.605
1361.00,51.590
1362.00,51.572
1363.00,51.677
1364.00,51.704
1365.00,51.576
1366.00,51.659
1367.00,51.620
1368.00,51.524
1369.00,51.586
1370.00,51.591
1371.00,51.545
1372.00,51.556
1373.00,51.572
1374.00,51.584
1375.00,51.558
1376.00,51.561
1377.00,51.565
1378.00,51.630
1379.00,51.581
1380.00,51.587
1381.00,51.607
1382.00,51.482
1383.00,51.576
1384.00,51.490
1385.00,51.550
1386.00,51.603
1387.00,51.552
1388.00,51.481
1389.00,51.545
1390.00,51.570
1391.00,51.555
1392.00,51.515
1393.00,51.508
1394.00,51.554
1395.00,51.516
1396.00,51.579
1397.00,51.596
1398.00,51.558
1399.00,51.555
1400.00,51.538
1401.00,51.537
1402.00,51.581
1403.00,51.591
1404.00,51.594
1405.00,51.608
1406.00,51.613
1407.00,51.604
1408.00,51.648
1409.00,51.596
1410.00,51.671
1411.00,51.500
1412.00,51.694
1413.00,51.658
1414.00,51.631
1415.00,51.664
1416.00,51.687
1417.00,51.718
1418.00,51.674
1419.00,51.694
1420.00,51.701
1421.00,51.770
1422.00,51.743
1423.00,51.784
1424.00,51.787
1425.00,51.808
1426.00,51.838
1427.00,51.861
1428.00,51.795
1429.00,51.830
1430.00,51.833
1431.00,51.861
1432.00,51.859
1433.00,51.882
1434.00,51.873
1435.00,51.932
1436.00,51.932
1437.00,51.933
1438.00,51.947
1439.00,51.974
1440.00,51.983
1441.00,51.992
1442.00,52.013
1443.00,52.012
1444.00,52.081
1445.00,52.025
1446.00,52.065
1447.00,52.072
1448.00,52.130
1449.00,52.121
1450.00,52.130
1451.00,52.151
1452.00,52.172
1453.00,52.188
1454.00,52.214
1455.00,52.211
1456.00,52.224
1457.00,52.209
1458.00,52.245
1459.00,52.248
1460.00,52.289
1461.00,52.274
1462.00,52.325
1463.00,52.318
1464.00,52.322
1465.00,52.334
1466.00,52.345
1467.00,52.370
1468.00,52.418
1469.00,52.386
1470.00,52.423
1471.00,52.430
1472.00,52.433
1473.00,52.438
1474.00,52.459
1475.00,52.469
1476.00,52.490
1477.00,52.453
1478.00,52.497
1479.00,52.506
1480.00,52.505
1481.00,52.509
1482.00,52.547
1483.00,52.557
1484.00,52.584
1485.00,52.600
1486.00,52.618
1487.00,52.629
1488.00,52.652
1489.00,52.627
1490.00,52.667
1491.00,52.655
1492.00,52.710
1493.00,52.666
1494.00,52.716
1495.00,52.704
1496.00,52.734
1497.00,52.713
1498.00,52.734
1499.00,52.752
1500.00,52.778
1501.00, 
1502.00, 
1503.00, 
1504.00, 
1505.00, 
1506.00, 
1507.00, 
1508.00, 
1509.00, 
1510.00, 
1511.00, 
1512.00, 
1513.00, 
1514.00, 
1515.00, 
1516.00, 
1517.00, 
1518.00, 
1519.00, 
1520.00, 
1521.00, 
1522.00, 
1523.00, 
1524.00, 
1525.00, 
1526.00, 
1527.00, 
1528.00, 
1529.00, 
1530.00, 
1531.00, 
1532.00, 
1533.00, 
1534.00, 
1535.00, 
1536.00, 
1537.00, 
1538.00, 
1539.00, 
1540.00, 
1541.00, 
1542.00, 
1543.00, 
1544.00, 
1545.00, 
1546.00, 
1547.00, 
1548.00, 
1549.00, 
1550.00, 
1551.00, 
1552.00, 
1553.00, 
1554.00, 
1555.00, 
1556.00, 
1557.00, 
1558.00, 
1559.00, 
1560.00, 
1561.00, 
1562.00, 
1563.00, 
1564.00, 
1565.00, 
1566.00, 
1567.00, 
1568.00, 
1569.00, 
1570.00, 
1571.00, 
1572.00, 
1573.00, 
1574.00, 
1575.00, 
1576.00, 
1577.00, 
1578.00, 
1579.00, 
1580.00, 
1581.00, 
1582.00, 
1583.00, 
1584.00, 
1585.00, 
1586.00, 
1587.00, 
1588.00, 
1589.00, 
1590.00, 
1591.00, 
1592.00, 
1593.00, 
1594.00, 
1595.00, 
1596.00, 
1597.00, 
1598.00, 
1599.00, 
1600.00, 
1601.00, 
1602.00, 
1603.00, 
1604.00, 
1605.00, 
1606.00, 
1607.00, 
1608.00, 
1609.00, 
1610.00, 
1611.00, 
1612.00, 
1613.00, 
1614.00, 
1615.00, 
1616.00, 
1617.00, 
1618.00, 
1619.00, 
1620.00, 
1621.00, 
1622.00, 
1623.00, 
1624.00, 
1625.00, 
1626.00, 
1627.00, 
1628.00, 
1629.00, 
1630.00, 
1631.00, 
1632.00, 
1633.00, 
1634.00, 
1635.00, 
1636.00, 
1637.00, 
1638.00, 
1639.00, 
1640.00, 
1641.00, 
1642.00, 
1643.00, 
1644.00, 
1645.00, 
1646.00, 
1647.00, 
1648.00, 
1649.00, 
1650.00, 
1651.00, 
1652.00, 
1653.00, 
1654.00, 
1655.00, 
1656.00, 
1657.00, 
1658.00, 
1659.00, 
1660.00, 
1661.00, 
1662.00, 
1663.00, 
1664.00, 
1665.00, 
1666.00, 
1667.00, 
1668.00, 
1669.00, 
1670.00, 
1671.00, 
1672.00, 
1673.00, 
1674.00, 
1675.00, 
1676.00, 
1677.00, 
1678.00, 
1679.00, 
1680.00, 
1681.00, 
1682.00, 
1683.00, 
1684.00, 
1685.00, 
1686.00, 
1687.00, 
1688.00, 
1689.00, 
1690.00, 
1691.00, 
1692.00, 
1693.00, 
1694.00, 
1695.00, 
1696.00, 
1697.00, 
1698.00, 
1699.00, 
1700.00, 
1701.00, 
1702.00, 
1703.00, 
1704.00, 
1705.00, 
1706.00, 
1707.00, 
1708.00, 
1709.00, 
1710.00, 
1711.00, 
1712.00, 
1713.00, 
1714.00, 
1715.00, 
1716.00, 
1717.00, 
1718.00, 
1719.00, 
1720.00, 
1721.00, 
1722.00, 
1723.00, 
1724.00, 
1725.00, 
1726.00, 
1727.00, 
1728.00, 
1729.00, 
1730.00, 
1731.00, 
1732.00, 
1733.00, 
1734.00, 
1735.00, 
1736.00, 
1737.00, 
1738.00, 
1739.00, 
1740.00, 
1741.00, 
1742.00, 
1743.00, 
1744.00, 
1745.00, 
1746.00, 
1747.00, 
1748.00, 
1749.00, 
1750.00, 
1751.00, 
1752.00, 
1753.00, 
1754.00, 
1755.00, 
1756.00, 
1757.00, 
1758.00, 
1759.00, 
1760.00, 
1761.00, 
1762.00, 
1763.00, 
1764.00, 
1765.00, 
1766.00, 
1767.00, 
1768.00, 
1769.00, 
1770.00, 
1771.00, 
1772.00, 
1773.00, 
1774.00, 
1775.00, 
1776.00, 
1777.00, 
1778.00, 
1779.00, 
1780.00, 
1781.00, 
1782.00, 
1783.00, 
1784.00, 
1785.00, 
1786.00, 
1787.00, 
1788.00, 
1789.00, 
1790.00, 
1791.00, 
1792.00, 
1793.00, 
1794.00, 
1795.00, 
1796.00, 
1797.00, 
1798.00, 
1799.00, 
1800.00, 
1801.00, 
1802.00, 
1803.00, 
1804.00, 
1805.00, 
1806.00, 
1807.00, 
1808.00, 
1809.00, 
1810.00, 
1811.00, 
1812.00, 
1813.00, 
1814.00, 
1815.00, 
1816.00, 
1817.00, 
1818.00, 
1819.00, 
1820.00, 
1821.00, 
1822.00, 
1823.00, 
1824.00, 
1825.00, 
1826.00, 
1827.00, 
1828.00, 
1829.00, 
1830.00, 
1831.00, 
1832.00, 
1833.00, 
1834.00, 
1835.00, 
1836.00, 
1837.00, 
1838.00, 
1839.00, 
1840.00, 
1841.00, 
1842.00, 
1843.00, 
1844.00, 
1845.00, 
1846.00, 
1847.00, 
1848.00, 
1849.00, 
1850.00, 
1851.00, 
1852.00, 
1853.00, 
1854.00, 
1855.00, 
1856.00, 
1857.00, 
1858.00, 
1859.00, 
1860.00, 
1861.00, 
1862.00, 
1863.00, 
1864.00, 
1865.00, 
1866.00, 
1867.00, 
1868.00, 
1869.00, 
1870.00, 
1871.00, 
1872.00, 
1873.00, 
1874.00, 
1875.00, 
1876.00, 
1877.00, 
1878.00, 
1879.00, 
1880.00, 
1881.00, 
1882.00, 
1883.00, 
1884.00, 
1885.00, 
1886.00, 
1887.00, 
1888.00, 
1889.00, 
1890.00, 
1891.00, 
1892.00, 
1893.00, 
1894.00, 
1895.00, 
1896.00, 
1897.00, 
1898.00, 
1899.00, 
1900.00, 
1901.00, 
1902.00, 
1903.00, 
1904.00, 
1905.00, 
1906.00, 
1907.00, 
1908.00, 
1909.00, 
1910.00, 
1911.00, 
1912.00, 
1913.00, 
1914.00, 
1915.00, 
1916.00, 
1917.00, 
1918.00, 
1919.00, 
1920.00, 
1921.00, 
1922.00, 
1923.00, 
1924.00, 
1925.00, 
1926.00, 
1927.00, 
1928.00, 
1929.00, 
1930.00, 
1931.00, 
1932.00, 
1933.00, 
1934.00, 
1935.00, 
1936.00, 
1937.00, 
1938.00, 
1939.00, 
1940.00, 
1941.00, 
1942.00, 
1943.00, 
1944.00, 
1945.00, 
1946.00, 
1947.00, 
1948.00, 
1949.00, 
1950.00, 
1951.00, 
1952.00, 
1953.00, 
1954.00, 
1955.00, 
1956.00, 
1957.00, 
1958.00, 
1959.00, 
1960.00, 
1961.00, 
1962.00, 
1963.00, 
1964.00, 
1965.00, 
1966.00, 
1967.00, 
1968.00, 
1969.00, 
1970.00, 
1971.00, 
1972.00, 
1973.00, 
1974.00, 
1975.00, 
1976.00, 
1977.00, 
1978.00, 
1979.00, 
1980.00, 
1981.00, 
1982.00, 
1983.00, 
1984.00, 
1985.00, 
1986.00, 
1987.00, 
1988.00, 
1989.00, 
1990.00, 
1991.00, 
1992.00, 
1993.00, 
1994.00, 
1995.00, 
1996.00, 
1997.00, 
1998.00, 
1999.00, 
2000.00, 
2001.00, 
2002.00, 
2003.00, 
2004.00, 
2005.00, 
2006.00, 
2007.00, 
2008.00, 
2009.00, 
2010.00, 
2011.00, 
2012.00, 
2013.00, 
2014.00, 
2015.00, 
2016.00, 
2017.00, 
2018.00, 
2019.00, 
2020.00, 
2021.00, 
2022.00, 
2023.00, 
2024.00, 
2025.00, 
2026.00, 
2027.00, 
2028.00, 
2029.00, 
2030.00, 
2031.00, 
2032.00, 
2033.00, 
2034.00, 
2035.00, 
2036.00, 
2037.00, 
2038.00, 
2039.00, 
2040.00, 
2041.00, 
2042.00, 
2043.00, 
2044.00, 
2045.00, 
2046.00, 
2047.00, 
2048.00, 
2049.00, 
2050.00, 
2051.00, 
2052.00, 
2053.00, 
2054.00, 
2055.00, 
2056.00, 
2057.00, 
2058.00, 
2059.00, 
2060.00, 
2061.00, 
2062.00, 
2063.00, 
2064.00, 
2065.00, 
2066.00, 
2067.00, 
2068.00, 
2069.00, 
2070.00, 
2071.00, 
2072.00, 
2073.00, 
2074.00, 
2075.00, 
2076.00, 
2077.00, 
2078.00, 
2079.00, 
2080.00, 
2081.00, 
2082.00, 
2083.00, 
2084.00, 
2085.00, 
2086.00, 
2087.00, 
2088.00, 
2089.00, 
2090.00, 
2091.00, 
2092.00, 
2093.00, 
2094.00, 
2095.00, 
2096.00, 
2097.00, 
2098.00, 
2099.00, 
2100.00, 
2101.00, 
2102.00, 
2103.00, 
2104.00, 
2105.00, 
2106.00, 
2107.00, 
2108.00, 
2109.00, 
2110.00, 
2111.00, 
2112.00, 
2113.00, 
2114.00, 
2115.00, 
2116.00, 
2117.00, 
2118.00, 
2119.00, 
2120.00, 
2121.00, 
2122.00, 
2123.00, 
2124.00, 
2125.00, 
2126.00, 
2127.00, 
2128.00, 
2129.00, 
2130.00, 
2131.00, 
2132.00, 
2133.00, 
2134.00, 
2135.00, 
2136.00, 
2137.00, 
2138.00, 
2139.00, 
2140.00, 
2141.00, 
2142.00, 
2143.00, 
2144.00, 
2145.00, 
2146.00, 
2147.00, 
2148.00, 
2149.00, 
2150.00, 
2151.00, 
2152.00, 
2153.00, 
2154.00, 
2155.00, 
2156.00, 
2157.00, 
2158.00, 
2159.00, 
2160.00, 
2161.00, 
2162.00, 
2163.00, 
2164.00, 
2165.00, 
2166.00, 
2167.00, 
2168.00, 
2169.00, 
2170.00, 
2171.00, 
2172.00, 
2173.00, 
2174.00, 
2175.00, 
2176.00, 
2177.00, 
2178.00, 
2179.00, 
2180.00, 
2181.00, 
2182.00, 
2183.00, 
2184.00, 
2185.00, 
2186.00, 
2187.00, 
2188.00, 
2189.00, 
2190.00, 
2191.00, 
2192.00, 
2193.00, 
2194.00, 
2195.00, 
2196.00, 
2197.00, 
2198.00, 
2199.00, 
2200.00, 
2201.00, 
2202.00, 
2203.00, 
2204.00, 
2205.00, 
2206.00, 
2207.00, 
2208.00, 
2209.00, 
2210.00, 
2211.00, 
2212.00, 
2213.00, 
2214.00, 
2215.00, 
2216.00, 
2217.00, 
2218.00, 
2219.00, 
2220.00, 
2221.00, 
2222.00, 
2223.00, 
2224.00, 
2225.00, 
2226.00, 
2227.00, 
2228.00, 
2229.00, 
2230.00, 
2231.00, 
2232.00, 
2233.00, 
2234.00, 
2235.00, 
2236.00, 
2237.00, 
2238.00, 
2239.00, 
2240.00, 
2241.00, 
2242.00, 
2243.00, 
2244.00, 
2245.00, 
2246.00, 
2247.00, 
2248.00, 
2249.00, 
2250.00, 
2251.00, 
2252.00, 
2253.00, 
2254.00, 
2255.00, 
2256.00, 
2257.00, 
2258.00, 
2259.00, 
2260.00, 
2261.00, 
2262.00, 
2263.00, 
2264.00, 
2265.00, 
2266.00, 
2267.00, 
2268.00, 
2269.00, 
2270.00, 
2271.00, 
2272.00, 
2273.00, 
2274.00, 
2275.00, 
2276.00, 
2277.00, 
2278.00, 
2279.00, 
2280.00, 
2281.00, 
2282.00, 
2283.00, 
2284.00, 
2285.00, 
2286.00, 
2287.00, 
2288.00, 
2289.00, 
2290.00, 
2291.00, 
2292.00, 
2293.00, 
2294.00, 
2295.00, 
2296.00, 
2297.00, 
2298.00, 
2299.00, 
2300.00, 
2301.00, 
2302.00, 
2303.00, 
2304.00, 
2305.00, 
2306.00, 
2307.00, 
2308.00, 
2309.00, 
2310.00, 
2311.00, 
2312.00, 
2313.00, 
2314.00, 
2315.00, 
2316.00, 
2317.00, 
2318.00, 
2319.00, 
2320.00, 
2321.00, 
2322.00, 
2323.00, 
2324.00, 
2325.00, 
2326.00, 
2327.00, 
2328.00, 
2329.00, 
2330.00, 
2331.00, 
2332.00, 
2333.00, 
2334.00, 
2335.00, 
2336.00, 
2337.00, 
2338.00, 
2339.00, 
2340.00, 
2341.00, 
2342.00, 
2343.00, 
2344.00, 
2345.00, 
2346.00, 
2347.00, 
2348.00, 
2349.00, 
2350.00, 
2351.00, 
2352.00, 
2353.00, 
2354.00, 
2355.00, 
2356.00, 
2357.00, 
2358.00, 
2359.00, 
2360.00, 
2361.00, 
2362.00, 
2363.00, 
2364.00, 
2365.00, 
2366.00, 
2367.00, 
2368.00, 
2369.00, 
2370.00, 
2371.00, 
2372.00, 
2373.00, 
2374.00, 
2375.00, 
2376.00, 
2377.00, 
2378.00, 
2379.00, 
2380.00, 
2381.00, 
2382.00, 
2383.00, 
2384.00, 
2385.00, 
2386.00, 
2387.00, 
2388.00, 
2389.00, 
2390.00, 
2391.00, 
2392.00, 
2393.00, 
2394.00, 
2395.00, 
2396.00, 
2397.00, 
2398.00, 
2399.00, 
2400.00, 
2401.00, 
2402.00, 
2403.00, 
2404.00, 
2405.00, 
2406.00, 
2407.00, 
2408.00, 
2409.00, 
2410.00, 
2411.00, 
2412.00, 
2413.00, 
2414.00, 
2415.00, 
2416.00, 
2417.00, 
2418.00, 
2419.00, 
2420.00, 
2421.00, 
2422.00, 
2423.00, 
2424.00, 
2425.00, 
2426.00, 
2427.00, 
2428.00, 
2429.00, 
2430.00, 
2431.00, 
2432.00, 
2433.00, 
2434.00, 
2435.00, 
2436.00, 
2437.00, 
2438.00, 
2439.00, 
2440.00, 
2441.00, 
2442.00, 
2443.00, 
2444.00, 
2445.00, 
2446.00, 
2447.00, 
2448.00, 
2449.00, 
2450.00, 
2451.00, 
2452.00, 
2453.00, 
2454.00, 
2455.00, 
2456.00, 
2457.00, 
2458.00, 
2459.00, 
2460.00, 
2461.00, 
2462.00, 
2463.00, 
2464.00, 
2465.00, 
2466.00, 
2467.00, 
2468.00, 
2469.00, 
2470.00, 
2471.00, 
2472.00, 
2473.00, 
2474.00, 
2475.00, 
2476.00, 
2477.00, 
2478.00, 
2479.00, 
2480.00, 
2481.00, 
2482.00, 
2483.00, 
2484.00, 
2485.00, 
2486.00, 
2487.00, 
2488.00, 
2489.00, 
2490.00, 
2491.00, 
2492.00, 
2493.00, 
2494.00, 
2495.00, 
2496.00, 
2497.00, 
2498.00, 
2499.00, 
2500.00, 
2501.00, 
2502.00, 
2503.00, 
2504.00, 
2505.00, 
2506.00, 
2507.00, 
2508.00, 
2509.00, 
2510.00, 
2511.00, 
2512.00, 
2513.00, 
2514.00, 
2515.00, 
2516.00, 
2517.00, 
2518.00, 
2519.00, 
2520.00, 
2521.00, 
2522.00, 
2523.00, 
2524.00, 
2525.00, 
2526.00, 
2527.00, 
2528.00, 
2529.00, 
2530.00, 
2531.00, 
2532.00, 
2533.00, 
2534.00, 
2535.00, 
2536.00, 
2537.00, 
2538.00, 
2539.00, 
2540.00, 
2541.00, 
2542.00, 
2543.00, 
2544.00, 
2545.00, 
2546.00, 
2547.00, 
2548.00, 
2549.00, 
2550.00, 
2551.00, 
2552.00, 
2553.00, 
2554.00, 
2555.00, 
2556.00, 
2557.00, 
2558.00, 
2559.00, 
2560.00, 
2561.00, 
2562.00, 
2563.00, 
2564.00, 
2565.00, 
2566.00, 
2567.00, 
2568.00, 
2569.00, 
2570.00, 
2571.00, 
2572.00, 
2573.00, 
2574.00, 
2575.00, 
2576.00, 
2577.00, 
2578.00, 
2579.00, 
2580.00, 
2581.00, 
2582.00, 
2583.00, 
2584.00, 
2585.00, 
2586.00, 
2587.00, 
2588.00, 
2589.00, 
2590.00, 
2591.00, 
2592.00, 
2593.00, 
2594.00, 
2595.00, 
2596.00, 
2597.00, 
2598.00, 
2599.00, 
2600.00, 
