"clean - RawData"
"Wavelength nm.","T%"
200.00,0.002
201.00,0.003
202.00,-0.001
203.00,0.005
204.00,0.003
205.00,0.006
206.00,0.002
207.00,0.002
208.00,0.005
209.00,0.000
210.00,0.006
211.00,-0.000
212.00,0.003
213.00,0.001
214.00,0.004
215.00,0.003
216.00,0.004
217.00,0.009
218.00,0.004
219.00,0.004
220.00,0.002
221.00,0.004
222.00,0.003
223.00,0.005
224.00,0.004
225.00,0.002
226.00,0.006
227.00,0.004
228.00,0.005
229.00,0.005
230.00,0.006
231.00,0.006
232.00,0.003
233.00,0.004
234.00,0.003
235.00,0.006
236.00,0.005
237.00,0.005
238.00,0.004
239.00,0.002
240.00,0.003
241.00,0.004
242.00,0.004
243.00,0.006
244.00,0.004
245.00,0.005
246.00,0.002
247.00,0.002
248.00,0.003
249.00,0.004
250.00,0.003
251.00,0.003
252.00,0.001
253.00,0.000
254.00,0.000
255.00,0.003
256.00,0.000
257.00,0.002
258.00,0.000
259.00,0.000
260.00,0.000
261.00,0.001
262.00,0.002
263.00,0.001
264.00,0.001
265.00,0.000
266.00,0.000
267.00,0.001
268.00,0.001
269.00,0.001
270.00,0.002
271.00,0.001
272.00,0.001
273.00,0.001
274.00,0.001
275.00,0.000
276.00,0.000
277.00,0.002
278.00,0.000
279.00,-0.000
280.00,0.001
281.00,0.000
282.00,0.000
283.00,0.001
284.00,-0.001
285.00,0.001
286.00,-0.001
287.00,0.001
288.00,0.002
289.00,0.001
290.00,0.000
291.00,-0.001
292.00,0.001
293.00,0.001
294.00,-0.000
295.00,-0.000
296.00,0.001
297.00,0.004
298.00,0.004
299.00,0.010
300.00,0.015
301.00,0.024
302.00,0.037
303.00,0.055
304.00,0.086
305.00,0.141
306.00,0.212
307.00,0.319
308.00,0.490
309.00,0.740
310.00,1.020
311.00,1.354
312.00,1.841
313.00,2.460
314.00,3.200
315.00,4.068
316.00,5.084
317.00,6.359
318.00,7.693
319.00,9.225
320.00,10.944
321.00,12.869
322.00,15.028
323.00,17.369
324.00,19.729
325.00,22.070
326.00,24.479
327.00,27.184
328.00,29.817
329.00,32.418
330.00,35.088
331.00,37.727
332.00,40.369
333.00,43.197
334.00,45.650
335.00,48.251
336.00,50.659
337.00,53.067
338.00,55.336
339.00,57.467
340.00,59.648
341.00,61.650
342.00,63.596
343.00,65.340
344.00,67.005
345.00,68.737
346.00,70.204
347.00,71.329
348.00,72.581
349.00,73.686
350.00,74.864
351.00,75.874
352.00,76.676
353.00,77.763
354.00,78.534
355.00,79.422
356.00,80.103
357.00,80.712
358.00,81.440
359.00,82.146
360.00,82.832
361.00,82.879
362.00,83.484
363.00,83.809
364.00,83.990
365.00,84.483
366.00,84.728
367.00,85.002
368.00,85.021
369.00,85.324
370.00,85.576
371.00,85.765
372.00,85.517
373.00,85.809
374.00,85.794
375.00,85.800
376.00,85.352
377.00,85.168
378.00,85.026
379.00,84.870
380.00,84.910
381.00,84.913
382.00,84.973
383.00,85.092
384.00,85.264
385.00,85.520
386.00,85.711
387.00,85.987
388.00,86.437
389.00,86.534
390.00,86.830
391.00,86.952
392.00,87.120
393.00,87.233
394.00,87.545
395.00,87.588
396.00,87.542
397.00,87.781
398.00,87.731
399.00,87.904
400.00,87.980
401.00,88.032
402.00,87.992
403.00,87.959
404.00,87.967
405.00,87.988
406.00,87.971
407.00,87.974
408.00,88.000
409.00,87.947
410.00,87.860
411.00,87.912
412.00,87.825
413.00,87.907
414.00,87.789
415.00,87.834
416.00,88.124
417.00,88.074
418.00,87.934
419.00,88.271
420.00,88.383
421.00,87.959
422.00,87.928
423.00,87.920
424.00,88.055
425.00,87.953
426.00,88.022
427.00,88.038
428.00,88.029
429.00,88.033
430.00,88.044
431.00,88.104
432.00,88.042
433.00,88.064
434.00,88.103
435.00,88.058
436.00,88.071
437.00,88.100
438.00,87.996
439.00,88.057
440.00,88.029
441.00,87.956
442.00,87.995
443.00,88.021
444.00,88.191
445.00,88.191
446.00,88.154
447.00,88.143
448.00,88.267
449.00,88.279
450.00,88.313
451.00,88.258
452.00,88.203
453.00,88.357
454.00,88.364
455.00,88.432
456.00,88.436
457.00,88.459
458.00,88.477
459.00,88.520
460.00,88.619
461.00,88.703
462.00,88.616
463.00,88.757
464.00,88.718
465.00,88.768
466.00,88.850
467.00,88.795
468.00,88.738
469.00,88.771
470.00,88.707
471.00,88.630
472.00,88.727
473.00,88.658
474.00,88.645
475.00,88.722
476.00,88.637
477.00,88.558
478.00,88.596
479.00,88.778
480.00,88.676
481.00,88.457
482.00,88.558
483.00,88.629
484.00,88.729
485.00,88.621
486.00,88.684
487.00,88.550
488.00,88.742
489.00,88.739
490.00,88.868
491.00,88.958
492.00,89.186
493.00,89.316
494.00,89.179
495.00,88.903
496.00,88.870
497.00,88.815
498.00,88.847
499.00,88.845
500.00,88.859
501.00,88.938
502.00,88.938
503.00,88.957
504.00,88.692
505.00,88.731
506.00,88.779
507.00,88.687
508.00,88.736
509.00,88.932
510.00,88.908
511.00,88.817
512.00,88.949
513.00,88.958
514.00,88.900
515.00,89.015
516.00,89.022
517.00,88.978
518.00,88.940
519.00,88.875
520.00,88.716
521.00,88.739
522.00,88.930
523.00,88.693
524.00,88.907
525.00,88.879
526.00,88.900
527.00,88.863
528.00,88.866
529.00,89.224
530.00,89.305
531.00,89.175
532.00,89.021
533.00,89.086
534.00,89.158
535.00,89.052
536.00,88.969
537.00,89.086
538.00,88.936
539.00,88.944
540.00,88.895
541.00,88.865
542.00,88.786
543.00,88.744
544.00,88.868
545.00,88.971
546.00,88.724
547.00,88.779
548.00,88.802
549.00,88.868
550.00,88.754
551.00,88.907
552.00,88.820
553.00,88.651
554.00,88.742
555.00,88.686
556.00,88.592
557.00,88.626
558.00,88.701
559.00,88.873
560.00,88.714
561.00,88.862
562.00,88.776
563.00,88.751
564.00,88.757
565.00,88.667
566.00,88.554
567.00,88.535
568.00,88.547
569.00,88.658
570.00,88.689
571.00,88.578
572.00,88.561
573.00,88.412
574.00,88.389
575.00,88.316
576.00,88.171
577.00,88.263
578.00,88.293
579.00,88.278
580.00,88.191
581.00,88.340
582.00,88.283
583.00,88.128
584.00,88.147
585.00,88.409
586.00,88.227
587.00,87.992
588.00,87.831
589.00,87.786
590.00,87.869
591.00,87.966
592.00,87.798
593.00,87.717
594.00,87.937
595.00,87.966
596.00,87.875
597.00,87.871
598.00,87.941
599.00,87.797
600.00,87.833
601.00,87.761
602.00,87.656
603.00,87.775
604.00,87.684
605.00,87.758
606.00,87.615
607.00,87.596
608.00,87.962
609.00,87.997
610.00,87.286
611.00,87.467
612.00,87.352
613.00,87.367
614.00,87.218
615.00,87.483
616.00,87.527
617.00,87.401
618.00,87.187
619.00,87.202
620.00,87.235
621.00,87.167
622.00,87.166
623.00,87.122
624.00,87.193
625.00,87.137
626.00,87.072
627.00,87.055
628.00,86.896
629.00,86.728
630.00,86.738
631.00,86.815
632.00,86.909
633.00,86.829
634.00,86.855
635.00,86.766
636.00,86.748
637.00,86.567
638.00,86.454
639.00,86.572
640.00,86.532
641.00,86.363
642.00,86.429
643.00,86.444
644.00,86.340
645.00,86.324
646.00,86.681
647.00,86.445
648.00,86.313
649.00,86.181
650.00,86.128
651.00,86.364
652.00,86.225
653.00,86.106
654.00,86.127
655.00,86.402
656.00,86.781
657.00,86.068
658.00,85.981
659.00,86.214
660.00,86.041
661.00,86.087
662.00,85.818
663.00,85.904
664.00,86.202
665.00,86.304
666.00,85.760
667.00,85.787
668.00,85.560
669.00,85.893
670.00,86.381
671.00,85.925
672.00,85.960
673.00,85.875
674.00,85.920
675.00,85.834
676.00,85.898
677.00,85.919
678.00,85.101
679.00,85.429
680.00,85.480
681.00,85.619
682.00,85.194
683.00,85.096
684.00,85.124
685.00,85.013
686.00,84.649
687.00,84.922
688.00,85.006
689.00,84.808
690.00,85.178
691.00,85.499
692.00,84.584
693.00,84.561
694.00,84.748
695.00,84.673
696.00,84.697
697.00,84.480
698.00,84.362
699.00,84.600
700.00,84.501
701.00,84.381
702.00,84.471
703.00,84.694
704.00,84.451
705.00,84.056
706.00,84.011
707.00,84.055
708.00,84.327
709.00,85.025
710.00,84.089
711.00,83.780
712.00,83.758
713.00,84.030
714.00,83.898
715.00,83.937
716.00,83.437
717.00,83.987
718.00,83.858
719.00,83.515
720.00,83.653
721.00,83.997
722.00,83.917
723.00,83.803
724.00,83.776
725.00,83.710
726.00,83.732
727.00,83.634
728.00,83.626
729.00,83.714
730.00,83.716
731.00,83.631
732.00,83.520
733.00,83.525
734.00,83.458
735.00,83.423
736.00,83.403
737.00,83.393
738.00,83.374
739.00,83.265
740.00,83.276
741.00,83.356
742.00,83.216
743.00,83.057
744.00,83.033
745.00,83.007
746.00,83.061
747.00,82.980
748.00,82.919
749.00,82.895
750.00,82.820
751.00,82.811
752.00,82.761
753.00,82.717
754.00,82.730
755.00,82.657
756.00,82.591
757.00,82.585
758.00,82.493
759.00,82.462
760.00,82.394
761.00,82.371
762.00,82.266
763.00,82.273
764.00,82.142
765.00,82.142
766.00,82.187
767.00,82.090
768.00,82.002
769.00,82.098
770.00,82.045
771.00,81.918
772.00,81.822
773.00,81.896
774.00,81.917
775.00,81.852
776.00,81.681
777.00,81.757
778.00,81.650
779.00,81.648
780.00,81.531
781.00,81.568
782.00,81.582
783.00,81.460
784.00,81.508
785.00,81.289
786.00,81.391
787.00,81.360
788.00,81.238
789.00,81.272
790.00,81.158
791.00,81.283
792.00,81.218
793.00,81.222
794.00,81.094
795.00,81.061
796.00,81.095
797.00,80.995
798.00,80.973
799.00,80.871
800.00,80.813
801.00,80.910
802.00,80.872
803.00,80.790
804.00,80.670
805.00,80.779
806.00,80.714
807.00,80.642
808.00,80.615
809.00,80.503
810.00,80.427
811.00,80.489
812.00,80.506
813.00,80.341
814.00,80.458
815.00,80.249
816.00,80.378
817.00,80.357
818.00,80.320
819.00,80.434
820.00,80.135
821.00,80.233
822.00,80.318
823.00,80.037
824.00,80.327
825.00,79.914
826.00,79.906
827.00,80.064
828.00,80.258
829.00,80.131
830.00,79.989
831.00,80.711
832.00,80.708
833.00,80.520
834.00,80.613
835.00,80.511
836.00,80.656
837.00,80.585
838.00,80.490
839.00,80.529
840.00,80.440
841.00,80.452
842.00,80.425
843.00,80.467
844.00,80.382
845.00,80.318
846.00,80.357
847.00,80.261
848.00,80.314
849.00,80.222
850.00,80.282
851.00,80.118
852.00,80.302
853.00,80.106
854.00,80.137
855.00,80.158
856.00,80.161
857.00,80.126
858.00,80.014
859.00,80.131
860.00,80.047
861.00,80.055
862.00,79.933
863.00,80.027
864.00,79.908
865.00,79.941
866.00,79.920
867.00,79.847
868.00,79.900
869.00,79.806
870.00,79.924
871.00,79.797
872.00,79.883
873.00,79.738
874.00,79.868
875.00,79.700
876.00,79.819
877.00,79.687
878.00,79.753
879.00,79.677
880.00,79.682
881.00,79.635
882.00,79.686
883.00,79.588
884.00,79.589
885.00,79.562
886.00,79.605
887.00,79.546
888.00,79.537
889.00,79.530
890.00,79.572
891.00,79.503
892.00,79.471
893.00,79.475
894.00,79.458
895.00,79.409
896.00,79.369
897.00,79.388
898.00,79.351
899.00,79.411
900.00,79.321
901.00,79.328
902.00,79.365
903.00,79.337
904.00,79.282
905.00,79.311
906.00,79.290
907.00,79.236
908.00,79.201
909.00,79.240
910.00,79.139
911.00,79.199
912.00,79.122
913.00,79.126
914.00,79.177
915.00,79.137
916.00,79.087
917.00,79.137
918.00,79.111
919.00,79.075
920.00,79.030
921.00,79.062
922.00,79.018
923.00,79.046
924.00,78.949
925.00,79.034
926.00,78.974
927.00,79.013
928.00,78.919
929.00,79.036
930.00,78.881
931.00,78.966
932.00,78.770
933.00,79.023
934.00,78.906
935.00,78.857
936.00,78.795
937.00,78.878
938.00,78.832
939.00,78.863
940.00,78.806
941.00,78.845
942.00,78.813
943.00,78.774
944.00,78.772
945.00,78.784
946.00,78.786
947.00,78.708
948.00,78.743
949.00,78.707
950.00,78.760
951.00,78.684
952.00,78.706
953.00,78.664
954.00,78.715
955.00,78.623
956.00,78.693
957.00,78.617
958.00,78.658
959.00,78.595
960.00,78.621
961.00,78.622
962.00,78.590
963.00,78.622
964.00,78.587
965.00,78.644
966.00,78.542
967.00,78.618
968.00,78.529
969.00,78.600
970.00,78.537
971.00,78.535
972.00,78.517
973.00,78.535
974.00,78.531
975.00,78.455
976.00,78.529
977.00,78.473
978.00,78.510
979.00,78.509
980.00,78.449
981.00,78.525
982.00,78.392
983.00,78.517
984.00,78.426
985.00,78.463
986.00,78.458
987.00,78.470
988.00,78.419
989.00,78.444
990.00,78.439
991.00,78.413
992.00,78.443
993.00,78.391
994.00,78.401
995.00,78.409
996.00,78.365
997.00,78.423
998.00,78.381
999.00,78.393
1000.00,78.347
1001.00,78.368
1002.00,78.330
1003.00,78.312
1004.00,78.334
1005.00,78.297
1006.00,78.379
1007.00,78.306
1008.00,78.310
1009.00,78.340
1010.00,78.307
1011.00,78.349
1012.00,78.275
1013.00,78.325
1014.00,78.317
1015.00,78.312
1016.00,78.304
1017.00,78.271
1018.00,78.316
1019.00,78.237
1020.00,78.329
1021.00,78.242
1022.00,78.296
1023.00,78.217
1024.00,78.275
1025.00,78.273
1026.00,78.227
1027.00,78.261
1028.00,78.245
1029.00,78.250
1030.00,78.233
1031.00,78.274
1032.00,78.239
1033.00,78.250
1034.00,78.227
1035.00,78.198
1036.00,78.249
1037.00,78.193
1038.00,78.242
1039.00,78.217
1040.00,78.204
1041.00,78.202
1042.00,78.210
1043.00,78.182
1044.00,78.215
1045.00,78.190
1046.00,78.147
1047.00,78.220
1048.00,78.154
1049.00,78.195
1050.00,78.153
1051.00,78.214
1052.00,78.170
1053.00,78.179
1054.00,78.137
1055.00,78.202
1056.00,78.179
1057.00,78.155
1058.00,78.169
1059.00,78.146
1060.00,78.181
1061.00,78.143
1062.00,78.165
1063.00,78.154
1064.00,78.193
1065.00,78.123
1066.00,78.180
1067.00,78.141
1068.00,78.174
1069.00,78.128
1070.00,78.130
1071.00,78.141
1072.00,78.180
1073.00,78.124
1074.00,78.155
1075.00,78.147
1076.00,78.139
1077.00,78.145
1078.00,78.127
1079.00,78.151
1080.00,78.151
1081.00,78.147
1082.00,78.134
1083.00,78.163
1084.00,78.127
1085.00,78.175
1086.00,78.135
1087.00,78.154
1088.00,78.148
1089.00,78.166
1090.00,78.132
1091.00,78.186
1092.00,78.131
1093.00,78.177
1094.00,78.138
1095.00,78.159
1096.00,78.139
1097.00,78.183
1098.00,78.146
1099.00,78.192
1100.00,78.139
1101.00,78.164
1102.00,78.152
1103.00,78.169
1104.00,78.153
1105.00,78.187
1106.00,78.135
1107.00,78.196
1108.00,78.162
1109.00,78.182
1110.00,78.164
1111.00,78.179
1112.00,78.149
1113.00,78.189
1114.00,78.139
1115.00,78.189
1116.00,78.169
1117.00,78.173
1118.00,78.158
1119.00,78.205
1120.00,78.162
1121.00,78.211
1122.00,78.150
1123.00,78.194
1124.00,78.186
1125.00,78.209
1126.00,78.177
1127.00,78.229
1128.00,78.175
1129.00,78.223
1130.00,78.193
1131.00,78.200
1132.00,78.197
1133.00,78.201
1134.00,78.189
1135.00,78.260
1136.00,78.170
1137.00,78.241
1138.00,78.225
1139.00,78.242
1140.00,78.244
1141.00,78.266
1142.00,78.223
1143.00,78.279
1144.00,78.228
1145.00,78.243
1146.00,78.251
1147.00,78.250
1148.00,78.244
1149.00,78.299
1150.00,78.242
1151.00,78.284
1152.00,78.277
1153.00,78.286
1154.00,78.291
1155.00,78.295
1156.00,78.267
1157.00,78.314
1158.00,78.286
1159.00,78.309
1160.00,78.321
1161.00,78.303
1162.00,78.326
1163.00,78.327
1164.00,78.342
1165.00,78.321
1166.00,78.343
1167.00,78.315
1168.00,78.378
1169.00,78.330
1170.00,78.363
1171.00,78.354
1172.00,78.354
1173.00,78.375
1174.00,78.385
1175.00,78.377
1176.00,78.390
1177.00,78.384
1178.00,78.370
1179.00,78.426
1180.00,78.373
1181.00,78.422
1182.00,78.408
1183.00,78.404
1184.00,78.426
1185.00,78.438
1186.00,78.428
1187.00,78.451
1188.00,78.457
1189.00,78.433
1190.00,78.480
1191.00,78.441
1192.00,78.483
1193.00,78.467
1194.00,78.471
1195.00,78.487
1196.00,78.515
1197.00,78.492
1198.00,78.498
1199.00,78.504
1200.00,78.516
1201.00,78.572
1202.00,78.504
1203.00,78.545
1204.00,78.549
1205.00,78.566
1206.00,78.578
1207.00,78.568
1208.00,78.582
1209.00,78.599
1210.00,78.611
1211.00,78.583
1212.00,78.653
1213.00,78.591
1214.00,78.633
1215.00,78.642
1216.00,78.615
1217.00,78.668
1218.00,78.644
1219.00,78.677
1220.00,78.663
1221.00,78.687
1222.00,78.683
1223.00,78.718
1224.00,78.702
1225.00,78.690
1226.00,78.728
1227.00,78.718
1228.00,78.757
1229.00,78.729
1230.00,78.732
1231.00,78.777
1232.00,78.759
1233.00,78.764
1234.00,78.788
1235.00,78.790
1236.00,78.792
1237.00,78.843
1238.00,78.791
1239.00,78.837
1240.00,78.820
1241.00,78.853
1242.00,78.848
1243.00,78.853
1244.00,78.833
1245.00,78.906
1246.00,78.864
1247.00,78.868
1248.00,78.917
1249.00,78.888
1250.00,78.938
1251.00,78.920
1252.00,78.956
1253.00,78.940
1254.00,78.976
1255.00,78.936
1256.00,78.997
1257.00,78.996
1258.00,79.012
1259.00,79.005
1260.00,79.014
1261.00,79.020
1262.00,79.030
1263.00,79.027
1264.00,79.060
1265.00,79.054
1266.00,79.073
1267.00,79.120
1268.00,79.071
1269.00,79.122
1270.00,79.129
1271.00,79.142
1272.00,79.149
1273.00,79.183
1274.00,79.167
1275.00,79.179
1276.00,79.147
1277.00,79.197
1278.00,79.226
1279.00,79.206
1280.00,79.223
1281.00,79.263
1282.00,79.244
1283.00,79.292
1284.00,79.317
1285.00,79.301
1286.00,79.344
1287.00,79.327
1288.00,79.350
1289.00,79.357
1290.00,79.381
1291.00,79.359
1292.00,79.412
1293.00,79.387
1294.00,79.426
1295.00,79.407
1296.00,79.436
1297.00,79.447
1298.00,79.510
1299.00,79.433
1300.00,79.532
1301.00,79.486
1302.00,79.539
1303.00,79.530
1304.00,79.530
1305.00,79.578
1306.00,79.567
1307.00,79.555
1308.00,79.576
1309.00,79.610
1310.00,79.560
1311.00,79.606
1312.00,79.618
1313.00,79.712
1314.00,79.658
1315.00,79.707
1316.00,79.729
1317.00,79.765
1318.00,79.749
1319.00,79.796
1320.00,79.742
1321.00,79.818
1322.00,79.784
1323.00,79.792
1324.00,79.804
1325.00,79.831
1326.00,79.817
1327.00,79.847
1328.00,79.884
1329.00,79.842
1330.00,79.921
1331.00,79.896
1332.00,79.914
1333.00,79.925
1334.00,79.926
1335.00,79.961
1336.00,79.992
1337.00,79.946
1338.00,79.993
1339.00,80.001
1340.00,80.026
1341.00,80.069
1342.00,80.078
1343.00,80.070
1344.00,80.122
1345.00,80.100
1346.00,80.134
1347.00,80.147
1348.00,80.170
1349.00,80.158
1350.00,80.195
1351.00,80.175
1352.00,80.223
1353.00,80.185
1354.00,80.263
1355.00,80.203
1356.00,80.346
1357.00,80.239
1358.00,80.278
1359.00,80.300
1360.00,80.359
1361.00,80.470
1362.00,80.322
1363.00,80.472
1364.00,80.661
1365.00,80.417
1366.00,80.499
1367.00,80.538
1368.00,80.373
1369.00,80.477
1370.00,80.597
1371.00,80.523
1372.00,80.554
1373.00,80.483
1374.00,80.623
1375.00,80.612
1376.00,80.602
1377.00,80.630
1378.00,80.700
1379.00,80.687
1380.00,80.703
1381.00,80.772
1382.00,80.694
1383.00,80.808
1384.00,80.646
1385.00,80.713
1386.00,80.769
1387.00,80.897
1388.00,80.697
1389.00,80.683
1390.00,80.689
1391.00,80.908
1392.00,80.750
1393.00,80.739
1394.00,80.852
1395.00,80.884
1396.00,80.840
1397.00,80.800
1398.00,80.780
1399.00,80.840
1400.00,80.950
1401.00,80.856
1402.00,80.938
1403.00,81.008
1404.00,80.988
1405.00,80.971
1406.00,81.024
1407.00,80.970
1408.00,81.074
1409.00,81.021
1410.00,81.089
1411.00,81.011
1412.00,81.094
1413.00,81.127
1414.00,81.085
1415.00,81.116
1416.00,81.161
1417.00,81.221
1418.00,81.153
1419.00,81.239
1420.00,81.195
1421.00,81.307
1422.00,81.244
1423.00,81.331
1424.00,81.308
1425.00,81.360
1426.00,81.367
1427.00,81.428
1428.00,81.357
1429.00,81.439
1430.00,81.416
1431.00,81.494
1432.00,81.489
1433.00,81.498
1434.00,81.512
1435.00,81.580
1436.00,81.574
1437.00,81.586
1438.00,81.621
1439.00,81.614
1440.00,81.669
1441.00,81.669
1442.00,81.704
1443.00,81.736
1444.00,81.788
1445.00,81.736
1446.00,81.819
1447.00,81.781
1448.00,81.899
1449.00,81.834
1450.00,81.893
1451.00,81.895
1452.00,81.943
1453.00,81.914
1454.00,81.995
1455.00,81.967
1456.00,81.993
1457.00,82.010
1458.00,82.037
1459.00,82.052
1460.00,82.115
1461.00,82.072
1462.00,82.167
1463.00,82.120
1464.00,82.149
1465.00,82.187
1466.00,82.188
1467.00,82.206
1468.00,82.291
1469.00,82.215
1470.00,82.299
1471.00,82.312
1472.00,82.298
1473.00,82.343
1474.00,82.351
1475.00,82.367
1476.00,82.420
1477.00,82.360
1478.00,82.456
1479.00,82.472
1480.00,82.466
1481.00,82.476
1482.00,82.491
1483.00,82.510
1484.00,82.555
1485.00,82.536
1486.00,82.579
1487.00,82.600
1488.00,82.623
1489.00,82.591
1490.00,82.687
1491.00,82.613
1492.00,82.721
1493.00,82.656
1494.00,82.726
1495.00,82.721
1496.00,82.776
1497.00,82.733
1498.00,82.790
1499.00,82.768
1500.00,82.765
1501.00, 
1502.00, 
1503.00, 
1504.00, 
1505.00, 
1506.00, 
1507.00, 
1508.00, 
1509.00, 
1510.00, 
1511.00, 
1512.00, 
1513.00, 
1514.00, 
1515.00, 
1516.00, 
1517.00, 
1518.00, 
1519.00, 
1520.00, 
1521.00, 
1522.00, 
1523.00, 
1524.00, 
1525.00, 
1526.00, 
1527.00, 
1528.00, 
1529.00, 
1530.00, 
1531.00, 
1532.00, 
1533.00, 
1534.00, 
1535.00, 
1536.00, 
1537.00, 
1538.00, 
1539.00, 
1540.00, 
1541.00, 
1542.00, 
1543.00, 
1544.00, 
1545.00, 
1546.00, 
1547.00, 
1548.00, 
1549.00, 
1550.00, 
1551.00, 
1552.00, 
1553.00, 
1554.00, 
1555.00, 
1556.00, 
1557.00, 
1558.00, 
1559.00, 
1560.00, 
1561.00, 
1562.00, 
1563.00, 
1564.00, 
1565.00, 
1566.00, 
1567.00, 
1568.00, 
1569.00, 
1570.00, 
1571.00, 
1572.00, 
1573.00, 
1574.00, 
1575.00, 
1576.00, 
1577.00, 
1578.00, 
1579.00, 
1580.00, 
1581.00, 
1582.00, 
1583.00, 
1584.00, 
1585.00, 
1586.00, 
1587.00, 
1588.00, 
1589.00, 
1590.00, 
1591.00, 
1592.00, 
1593.00, 
1594.00, 
1595.00, 
1596.00, 
1597.00, 
1598.00, 
1599.00, 
1600.00, 
1601.00, 
1602.00, 
1603.00, 
1604.00, 
1605.00, 
1606.00, 
1607.00, 
1608.00, 
1609.00, 
1610.00, 
1611.00, 
1612.00, 
1613.00, 
1614.00, 
1615.00, 
1616.00, 
1617.00, 
1618.00, 
1619.00, 
1620.00, 
1621.00, 
1622.00, 
1623.00, 
1624.00, 
1625.00, 
1626.00, 
1627.00, 
1628.00, 
1629.00, 
1630.00, 
1631.00, 
1632.00, 
1633.00, 
1634.00, 
1635.00, 
1636.00, 
1637.00, 
1638.00, 
1639.00, 
1640.00, 
1641.00, 
1642.00, 
1643.00, 
1644.00, 
1645.00, 
1646.00, 
1647.00, 
1648.00, 
1649.00, 
1650.00, 
1651.00, 
1652.00, 
1653.00, 
1654.00, 
1655.00, 
1656.00, 
1657.00, 
1658.00, 
1659.00, 
1660.00, 
1661.00, 
1662.00, 
1663.00, 
1664.00, 
1665.00, 
1666.00, 
1667.00, 
1668.00, 
1669.00, 
1670.00, 
1671.00, 
1672.00, 
1673.00, 
1674.00, 
1675.00, 
1676.00, 
1677.00, 
1678.00, 
1679.00, 
1680.00, 
1681.00, 
1682.00, 
1683.00, 
1684.00, 
1685.00, 
1686.00, 
1687.00, 
1688.00, 
1689.00, 
1690.00, 
1691.00, 
1692.00, 
1693.00, 
1694.00, 
1695.00, 
1696.00, 
1697.00, 
1698.00, 
1699.00, 
1700.00, 
1701.00, 
1702.00, 
1703.00, 
1704.00, 
1705.00, 
1706.00, 
1707.00, 
1708.00, 
1709.00, 
1710.00, 
1711.00, 
1712.00, 
1713.00, 
1714.00, 
1715.00, 
1716.00, 
1717.00, 
1718.00, 
1719.00, 
1720.00, 
1721.00, 
1722.00, 
1723.00, 
1724.00, 
1725.00, 
1726.00, 
1727.00, 
1728.00, 
1729.00, 
1730.00, 
1731.00, 
1732.00, 
1733.00, 
1734.00, 
1735.00, 
1736.00, 
1737.00, 
1738.00, 
1739.00, 
1740.00, 
1741.00, 
1742.00, 
1743.00, 
1744.00, 
1745.00, 
1746.00, 
1747.00, 
1748.00, 
1749.00, 
1750.00, 
1751.00, 
1752.00, 
1753.00, 
1754.00, 
1755.00, 
1756.00, 
1757.00, 
1758.00, 
1759.00, 
1760.00, 
1761.00, 
1762.00, 
1763.00, 
1764.00, 
1765.00, 
1766.00, 
1767.00, 
1768.00, 
1769.00, 
1770.00, 
1771.00, 
1772.00, 
1773.00, 
1774.00, 
1775.00, 
1776.00, 
1777.00, 
1778.00, 
1779.00, 
1780.00, 
1781.00, 
1782.00, 
1783.00, 
1784.00, 
1785.00, 
1786.00, 
1787.00, 
1788.00, 
1789.00, 
1790.00, 
1791.00, 
1792.00, 
1793.00, 
1794.00, 
1795.00, 
1796.00, 
1797.00, 
1798.00, 
1799.00, 
1800.00, 
1801.00, 
1802.00, 
1803.00, 
1804.00, 
1805.00, 
1806.00, 
1807.00, 
1808.00, 
1809.00, 
1810.00, 
1811.00, 
1812.00, 
1813.00, 
1814.00, 
1815.00, 
1816.00, 
1817.00, 
1818.00, 
1819.00, 
1820.00, 
1821.00, 
1822.00, 
1823.00, 
1824.00, 
1825.00, 
1826.00, 
1827.00, 
1828.00, 
1829.00, 
1830.00, 
1831.00, 
1832.00, 
1833.00, 
1834.00, 
1835.00, 
1836.00, 
1837.00, 
1838.00, 
1839.00, 
1840.00, 
1841.00, 
1842.00, 
1843.00, 
1844.00, 
1845.00, 
1846.00, 
1847.00, 
1848.00, 
1849.00, 
1850.00, 
1851.00, 
1852.00, 
1853.00, 
1854.00, 
1855.00, 
1856.00, 
1857.00, 
1858.00, 
1859.00, 
1860.00, 
1861.00, 
1862.00, 
1863.00, 
1864.00, 
1865.00, 
1866.00, 
1867.00, 
1868.00, 
1869.00, 
1870.00, 
1871.00, 
1872.00, 
1873.00, 
1874.00, 
1875.00, 
1876.00, 
1877.00, 
1878.00, 
1879.00, 
1880.00, 
1881.00, 
1882.00, 
1883.00, 
1884.00, 
1885.00, 
1886.00, 
1887.00, 
1888.00, 
1889.00, 
1890.00, 
1891.00, 
1892.00, 
1893.00, 
1894.00, 
1895.00, 
1896.00, 
1897.00, 
1898.00, 
1899.00, 
1900.00, 
1901.00, 
1902.00, 
1903.00, 
1904.00, 
1905.00, 
1906.00, 
1907.00, 
1908.00, 
1909.00, 
1910.00, 
1911.00, 
1912.00, 
1913.00, 
1914.00, 
1915.00, 
1916.00, 
1917.00, 
1918.00, 
1919.00, 
1920.00, 
1921.00, 
1922.00, 
1923.00, 
1924.00, 
1925.00, 
1926.00, 
1927.00, 
1928.00, 
1929.00, 
1930.00, 
1931.00, 
1932.00, 
1933.00, 
1934.00, 
1935.00, 
1936.00, 
1937.00, 
1938.00, 
1939.00, 
1940.00, 
1941.00, 
1942.00, 
1943.00, 
1944.00, 
1945.00, 
1946.00, 
1947.00, 
1948.00, 
1949.00, 
1950.00, 
1951.00, 
1952.00, 
1953.00, 
1954.00, 
1955.00, 
1956.00, 
1957.00, 
1958.00, 
1959.00, 
1960.00, 
1961.00, 
1962.00, 
1963.00, 
1964.00, 
1965.00, 
1966.00, 
1967.00, 
1968.00, 
1969.00, 
1970.00, 
1971.00, 
1972.00, 
1973.00, 
1974.00, 
1975.00, 
1976.00, 
1977.00, 
1978.00, 
1979.00, 
1980.00, 
1981.00, 
1982.00, 
1983.00, 
1984.00, 
1985.00, 
1986.00, 
1987.00, 
1988.00, 
1989.00, 
1990.00, 
1991.00, 
1992.00, 
1993.00, 
1994.00, 
1995.00, 
1996.00, 
1997.00, 
1998.00, 
1999.00, 
2000.00, 
2001.00, 
2002.00, 
2003.00, 
2004.00, 
2005.00, 
2006.00, 
2007.00, 
2008.00, 
2009.00, 
2010.00, 
2011.00, 
2012.00, 
2013.00, 
2014.00, 
2015.00, 
2016.00, 
2017.00, 
2018.00, 
2019.00, 
2020.00, 
2021.00, 
2022.00, 
2023.00, 
2024.00, 
2025.00, 
2026.00, 
2027.00, 
2028.00, 
2029.00, 
2030.00, 
2031.00, 
2032.00, 
2033.00, 
2034.00, 
2035.00, 
2036.00, 
2037.00, 
2038.00, 
2039.00, 
2040.00, 
2041.00, 
2042.00, 
2043.00, 
2044.00, 
2045.00, 
2046.00, 
2047.00, 
2048.00, 
2049.00, 
2050.00, 
2051.00, 
2052.00, 
2053.00, 
2054.00, 
2055.00, 
2056.00, 
2057.00, 
2058.00, 
2059.00, 
2060.00, 
2061.00, 
2062.00, 
2063.00, 
2064.00, 
2065.00, 
2066.00, 
2067.00, 
2068.00, 
2069.00, 
2070.00, 
2071.00, 
2072.00, 
2073.00, 
2074.00, 
2075.00, 
2076.00, 
2077.00, 
2078.00, 
2079.00, 
2080.00, 
2081.00, 
2082.00, 
2083.00, 
2084.00, 
2085.00, 
2086.00, 
2087.00, 
2088.00, 
2089.00, 
2090.00, 
2091.00, 
2092.00, 
2093.00, 
2094.00, 
2095.00, 
2096.00, 
2097.00, 
2098.00, 
2099.00, 
2100.00, 
2101.00, 
2102.00, 
2103.00, 
2104.00, 
2105.00, 
2106.00, 
2107.00, 
2108.00, 
2109.00, 
2110.00, 
2111.00, 
2112.00, 
2113.00, 
2114.00, 
2115.00, 
2116.00, 
2117.00, 
2118.00, 
2119.00, 
2120.00, 
2121.00, 
2122.00, 
2123.00, 
2124.00, 
2125.00, 
2126.00, 
2127.00, 
2128.00, 
2129.00, 
2130.00, 
2131.00, 
2132.00, 
2133.00, 
2134.00, 
2135.00, 
2136.00, 
2137.00, 
2138.00, 
2139.00, 
2140.00, 
2141.00, 
2142.00, 
2143.00, 
2144.00, 
2145.00, 
2146.00, 
2147.00, 
2148.00, 
2149.00, 
2150.00, 
2151.00, 
2152.00, 
2153.00, 
2154.00, 
2155.00, 
2156.00, 
2157.00, 
2158.00, 
2159.00, 
2160.00, 
2161.00, 
2162.00, 
2163.00, 
2164.00, 
2165.00, 
2166.00, 
2167.00, 
2168.00, 
2169.00, 
2170.00, 
2171.00, 
2172.00, 
2173.00, 
2174.00, 
2175.00, 
2176.00, 
2177.00, 
2178.00, 
2179.00, 
2180.00, 
2181.00, 
2182.00, 
2183.00, 
2184.00, 
2185.00, 
2186.00, 
2187.00, 
2188.00, 
2189.00, 
2190.00, 
2191.00, 
2192.00, 
2193.00, 
2194.00, 
2195.00, 
2196.00, 
2197.00, 
2198.00, 
2199.00, 
2200.00, 
2201.00, 
2202.00, 
2203.00, 
2204.00, 
2205.00, 
2206.00, 
2207.00, 
2208.00, 
2209.00, 
2210.00, 
2211.00, 
2212.00, 
2213.00, 
2214.00, 
2215.00, 
2216.00, 
2217.00, 
2218.00, 
2219.00, 
2220.00, 
2221.00, 
2222.00, 
2223.00, 
2224.00, 
2225.00, 
2226.00, 
2227.00, 
2228.00, 
2229.00, 
2230.00, 
2231.00, 
2232.00, 
2233.00, 
2234.00, 
2235.00, 
2236.00, 
2237.00, 
2238.00, 
2239.00, 
2240.00, 
2241.00, 
2242.00, 
2243.00, 
2244.00, 
2245.00, 
2246.00, 
2247.00, 
2248.00, 
2249.00, 
2250.00, 
2251.00, 
2252.00, 
2253.00, 
2254.00, 
2255.00, 
2256.00, 
2257.00, 
2258.00, 
2259.00, 
2260.00, 
2261.00, 
2262.00, 
2263.00, 
2264.00, 
2265.00, 
2266.00, 
2267.00, 
2268.00, 
2269.00, 
2270.00, 
2271.00, 
2272.00, 
2273.00, 
2274.00, 
2275.00, 
2276.00, 
2277.00, 
2278.00, 
2279.00, 
2280.00, 
2281.00, 
2282.00, 
2283.00, 
2284.00, 
2285.00, 
2286.00, 
2287.00, 
2288.00, 
2289.00, 
2290.00, 
2291.00, 
2292.00, 
2293.00, 
2294.00, 
2295.00, 
2296.00, 
2297.00, 
2298.00, 
2299.00, 
2300.00, 
2301.00, 
2302.00, 
2303.00, 
2304.00, 
2305.00, 
2306.00, 
2307.00, 
2308.00, 
2309.00, 
2310.00, 
2311.00, 
2312.00, 
2313.00, 
2314.00, 
2315.00, 
2316.00, 
2317.00, 
2318.00, 
2319.00, 
2320.00, 
2321.00, 
2322.00, 
2323.00, 
2324.00, 
2325.00, 
2326.00, 
2327.00, 
2328.00, 
2329.00, 
2330.00, 
2331.00, 
2332.00, 
2333.00, 
2334.00, 
2335.00, 
2336.00, 
2337.00, 
2338.00, 
2339.00, 
2340.00, 
2341.00, 
2342.00, 
2343.00, 
2344.00, 
2345.00, 
2346.00, 
2347.00, 
2348.00, 
2349.00, 
2350.00, 
2351.00, 
2352.00, 
2353.00, 
2354.00, 
2355.00, 
2356.00, 
2357.00, 
2358.00, 
2359.00, 
2360.00, 
2361.00, 
2362.00, 
2363.00, 
2364.00, 
2365.00, 
2366.00, 
2367.00, 
2368.00, 
2369.00, 
2370.00, 
2371.00, 
2372.00, 
2373.00, 
2374.00, 
2375.00, 
2376.00, 
2377.00, 
2378.00, 
2379.00, 
2380.00, 
2381.00, 
2382.00, 
2383.00, 
2384.00, 
2385.00, 
2386.00, 
2387.00, 
2388.00, 
2389.00, 
2390.00, 
2391.00, 
2392.00, 
2393.00, 
2394.00, 
2395.00, 
2396.00, 
2397.00, 
2398.00, 
2399.00, 
2400.00, 
2401.00, 
2402.00, 
2403.00, 
2404.00, 
2405.00, 
2406.00, 
2407.00, 
2408.00, 
2409.00, 
2410.00, 
2411.00, 
2412.00, 
2413.00, 
2414.00, 
2415.00, 
2416.00, 
2417.00, 
2418.00, 
2419.00, 
2420.00, 
2421.00, 
2422.00, 
2423.00, 
2424.00, 
2425.00, 
2426.00, 
2427.00, 
2428.00, 
2429.00, 
2430.00, 
2431.00, 
2432.00, 
2433.00, 
2434.00, 
2435.00, 
2436.00, 
2437.00, 
2438.00, 
2439.00, 
2440.00, 
2441.00, 
2442.00, 
2443.00, 
2444.00, 
2445.00, 
2446.00, 
2447.00, 
2448.00, 
2449.00, 
2450.00, 
2451.00, 
2452.00, 
2453.00, 
2454.00, 
2455.00, 
2456.00, 
2457.00, 
2458.00, 
2459.00, 
2460.00, 
2461.00, 
2462.00, 
2463.00, 
2464.00, 
2465.00, 
2466.00, 
2467.00, 
2468.00, 
2469.00, 
2470.00, 
2471.00, 
2472.00, 
2473.00, 
2474.00, 
2475.00, 
2476.00, 
2477.00, 
2478.00, 
2479.00, 
2480.00, 
2481.00, 
2482.00, 
2483.00, 
2484.00, 
2485.00, 
2486.00, 
2487.00, 
2488.00, 
2489.00, 
2490.00, 
2491.00, 
2492.00, 
2493.00, 
2494.00, 
2495.00, 
2496.00, 
2497.00, 
2498.00, 
2499.00, 
2500.00, 
2501.00, 
2502.00, 
2503.00, 
2504.00, 
2505.00, 
2506.00, 
2507.00, 
2508.00, 
2509.00, 
2510.00, 
2511.00, 
2512.00, 
2513.00, 
2514.00, 
2515.00, 
2516.00, 
2517.00, 
2518.00, 
2519.00, 
2520.00, 
2521.00, 
2522.00, 
2523.00, 
2524.00, 
2525.00, 
2526.00, 
2527.00, 
2528.00, 
2529.00, 
2530.00, 
2531.00, 
2532.00, 
2533.00, 
2534.00, 
2535.00, 
2536.00, 
2537.00, 
2538.00, 
2539.00, 
2540.00, 
2541.00, 
2542.00, 
2543.00, 
2544.00, 
2545.00, 
2546.00, 
2547.00, 
2548.00, 
2549.00, 
2550.00, 
2551.00, 
2552.00, 
2553.00, 
2554.00, 
2555.00, 
2556.00, 
2557.00, 
2558.00, 
2559.00, 
2560.00, 
2561.00, 
2562.00, 
2563.00, 
2564.00, 
2565.00, 
2566.00, 
2567.00, 
2568.00, 
2569.00, 
2570.00, 
2571.00, 
2572.00, 
2573.00, 
2574.00, 
2575.00, 
2576.00, 
2577.00, 
2578.00, 
2579.00, 
2580.00, 
2581.00, 
2582.00, 
2583.00, 
2584.00, 
2585.00, 
2586.00, 
2587.00, 
2588.00, 
2589.00, 
2590.00, 
2591.00, 
2592.00, 
2593.00, 
2594.00, 
2595.00, 
2596.00, 
2597.00, 
2598.00, 
2599.00, 
2600.00, 
