"1cP3 - RawData"
"Wavelength nm.","T%"
200.00,0.001
201.00,0.001
202.00,0.003
203.00,-0.000
204.00,-0.001
205.00,-0.001
206.00,0.001
207.00,0.001
208.00,-0.001
209.00,0.002
210.00,0.001
211.00,0.003
212.00,-0.001
213.00,-0.002
214.00,0.002
215.00,0.000
216.00,0.004
217.00,0.001
218.00,0.003
219.00,-0.001
220.00,0.003
221.00,0.004
222.00,0.000
223.00,0.001
224.00,0.000
225.00,0.001
226.00,-0.001
227.00,0.001
228.00,-0.001
229.00,0.001
230.00,-0.000
231.00,-0.001
232.00,-0.000
233.00,0.002
234.00,0.001
235.00,0.000
236.00,0.001
237.00,0.000
238.00,0.001
239.00,-0.000
240.00,0.000
241.00,-0.000
242.00,-0.000
243.00,0.001
244.00,-0.001
245.00,0.000
246.00,-0.001
247.00,-0.000
248.00,0.001
249.00,0.001
250.00,0.000
251.00,0.001
252.00,0.000
253.00,-0.001
254.00,0.001
255.00,0.001
256.00,0.001
257.00,0.000
258.00,0.000
259.00,-0.001
260.00,-0.000
261.00,0.001
262.00,0.000
263.00,-0.000
264.00,-0.001
265.00,0.000
266.00,-0.001
267.00,0.003
268.00,-0.000
269.00,-0.000
270.00,0.001
271.00,-0.000
272.00,0.000
273.00,-0.001
274.00,0.001
275.00,0.001
276.00,-0.000
277.00,0.002
278.00,0.000
279.00,0.000
280.00,0.002
281.00,-0.001
282.00,0.001
283.00,-0.001
284.00,-0.001
285.00,0.001
286.00,0.001
287.00,0.002
288.00,0.001
289.00,0.002
290.00,0.001
291.00,-0.001
292.00,-0.001
293.00,0.001
294.00,0.001
295.00,-0.001
296.00,0.001
297.00,-0.001
298.00,-0.000
299.00,0.000
300.00,-0.001
301.00,-0.000
302.00,-0.001
303.00,0.002
304.00,0.002
305.00,-0.001
306.00,0.005
307.00,0.003
308.00,0.003
309.00,0.005
310.00,0.009
311.00,0.016
312.00,0.023
313.00,0.040
314.00,0.055
315.00,0.083
316.00,0.114
317.00,0.165
318.00,0.225
319.00,0.298
320.00,0.402
321.00,0.521
322.00,0.664
323.00,0.841
324.00,1.023
325.00,1.232
326.00,1.457
327.00,1.738
328.00,2.025
329.00,2.324
330.00,2.668
331.00,2.998
332.00,3.380
333.00,3.776
334.00,4.142
335.00,4.475
336.00,4.918
337.00,5.327
338.00,5.742
339.00,6.130
340.00,6.531
341.00,6.898
342.00,7.238
343.00,7.611
344.00,7.966
345.00,8.284
346.00,8.535
347.00,8.834
348.00,9.143
349.00,9.370
350.00,9.629
351.00,9.811
352.00,10.020
353.00,10.187
354.00,10.393
355.00,10.559
356.00,10.705
357.00,10.830
358.00,10.947
359.00,11.109
360.00,11.241
361.00,11.247
362.00,11.316
363.00,11.405
364.00,11.464
365.00,11.460
366.00,11.514
367.00,11.537
368.00,11.542
369.00,11.573
370.00,11.555
371.00,11.546
372.00,11.490
373.00,11.495
374.00,11.471
375.00,11.368
376.00,11.308
377.00,11.242
378.00,11.178
379.00,11.078
380.00,11.075
381.00,11.032
382.00,11.001
383.00,11.010
384.00,10.947
385.00,10.991
386.00,10.930
387.00,10.998
388.00,10.999
389.00,10.989
390.00,10.997
391.00,10.970
392.00,10.988
393.00,10.950
394.00,10.962
395.00,10.942
396.00,10.919
397.00,10.938
398.00,10.871
399.00,10.877
400.00,10.844
401.00,10.826
402.00,10.850
403.00,10.842
404.00,10.795
405.00,10.759
406.00,10.750
407.00,10.712
408.00,10.690
409.00,10.681
410.00,10.631
411.00,10.617
412.00,10.595
413.00,10.601
414.00,10.588
415.00,10.570
416.00,10.593
417.00,10.567
418.00,10.616
419.00,10.644
420.00,10.656
421.00,10.593
422.00,10.609
423.00,10.642
424.00,10.645
425.00,10.670
426.00,10.713
427.00,10.725
428.00,10.743
429.00,10.771
430.00,10.800
431.00,10.842
432.00,10.862
433.00,10.895
434.00,10.933
435.00,11.000
436.00,11.036
437.00,11.084
438.00,11.136
439.00,11.164
440.00,11.230
441.00,11.292
442.00,11.350
443.00,11.411
444.00,11.479
445.00,11.533
446.00,11.644
447.00,11.689
448.00,11.758
449.00,11.861
450.00,11.925
451.00,12.011
452.00,12.081
453.00,12.197
454.00,12.277
455.00,12.358
456.00,12.455
457.00,12.546
458.00,12.636
459.00,12.755
460.00,12.859
461.00,12.979
462.00,13.060
463.00,13.185
464.00,13.276
465.00,13.408
466.00,13.521
467.00,13.633
468.00,13.704
469.00,13.808
470.00,13.927
471.00,14.026
472.00,14.155
473.00,14.251
474.00,14.361
475.00,14.496
476.00,14.591
477.00,14.718
478.00,14.846
479.00,15.021
480.00,15.122
481.00,15.232
482.00,15.382
483.00,15.536
484.00,15.688
485.00,15.822
486.00,15.946
487.00,16.081
488.00,16.218
489.00,16.398
490.00,16.521
491.00,16.681
492.00,16.807
493.00,17.015
494.00,17.141
495.00,17.196
496.00,17.301
497.00,17.435
498.00,17.520
499.00,17.737
500.00,17.848
501.00,17.958
502.00,18.120
503.00,18.260
504.00,18.334
505.00,18.486
506.00,18.625
507.00,18.738
508.00,18.873
509.00,19.050
510.00,19.159
511.00,19.221
512.00,19.418
513.00,19.543
514.00,19.696
515.00,19.845
516.00,19.976
517.00,20.057
518.00,20.222
519.00,20.293
520.00,20.393
521.00,20.551
522.00,20.671
523.00,20.725
524.00,20.880
525.00,21.024
526.00,21.128
527.00,21.197
528.00,21.322
529.00,21.494
530.00,21.650
531.00,21.712
532.00,21.809
533.00,21.917
534.00,22.043
535.00,22.112
536.00,22.226
537.00,22.326
538.00,22.422
539.00,22.481
540.00,22.595
541.00,22.681
542.00,22.728
543.00,22.801
544.00,22.935
545.00,23.004
546.00,23.044
547.00,23.160
548.00,23.281
549.00,23.321
550.00,23.440
551.00,23.536
552.00,23.602
553.00,23.667
554.00,23.762
555.00,23.846
556.00,23.903
557.00,23.983
558.00,24.045
559.00,24.125
560.00,24.204
561.00,24.287
562.00,24.351
563.00,24.409
564.00,24.488
565.00,24.556
566.00,24.568
567.00,24.649
568.00,24.706
569.00,24.773
570.00,24.810
571.00,24.864
572.00,24.916
573.00,24.922
574.00,24.984
575.00,25.032
576.00,25.045
577.00,25.114
578.00,25.227
579.00,25.307
580.00,25.332
581.00,25.492
582.00,25.585
583.00,25.551
584.00,25.681
585.00,25.753
586.00,25.823
587.00,25.869
588.00,25.930
589.00,25.915
590.00,26.018
591.00,26.064
592.00,26.053
593.00,26.111
594.00,26.191
595.00,26.252
596.00,26.327
597.00,26.412
598.00,26.510
599.00,26.512
600.00,26.539
601.00,26.630
602.00,26.679
603.00,26.726
604.00,26.789
605.00,26.862
606.00,26.895
607.00,26.950
608.00,27.055
609.00,27.155
610.00,27.328
611.00,27.177
612.00,27.230
613.00,27.339
614.00,27.366
615.00,27.468
616.00,27.554
617.00,27.582
618.00,27.612
619.00,27.673
620.00,27.694
621.00,27.901
622.00,28.043
623.00,28.090
624.00,28.153
625.00,28.229
626.00,28.289
627.00,28.417
628.00,28.407
629.00,28.516
630.00,28.604
631.00,28.645
632.00,28.798
633.00,28.933
634.00,28.967
635.00,29.057
636.00,29.196
637.00,29.338
638.00,29.443
639.00,29.578
640.00,29.619
641.00,29.691
642.00,29.773
643.00,29.880
644.00,30.030
645.00,30.082
646.00,30.328
647.00,30.395
648.00,30.463
649.00,30.592
650.00,30.649
651.00,30.865
652.00,30.952
653.00,30.976
654.00,31.136
655.00,31.400
656.00,31.591
657.00,31.602
658.00,31.755
659.00,31.828
660.00,32.009
661.00,32.042
662.00,32.228
663.00,32.337
664.00,32.550
665.00,32.819
666.00,32.559
667.00,32.872
668.00,32.953
669.00,33.068
670.00,33.532
671.00,33.613
672.00,33.658
673.00,33.765
674.00,33.942
675.00,34.033
676.00,34.268
677.00,34.481
678.00,34.333
679.00,34.553
680.00,34.719
681.00,34.940
682.00,34.952
683.00,35.059
684.00,35.361
685.00,35.468
686.00,35.571
687.00,35.774
688.00,35.833
689.00,35.939
690.00,36.242
691.00,36.472
692.00,36.294
693.00,36.508
694.00,36.680
695.00,36.841
696.00,36.986
697.00,37.022
698.00,37.273
699.00,37.497
700.00,37.634
701.00,37.757
702.00,37.919
703.00,38.102
704.00,38.256
705.00,38.287
706.00,38.417
707.00,38.597
708.00,38.606
709.00,38.950
710.00,39.373
711.00,38.952
712.00,39.089
713.00,39.347
714.00,39.524
715.00,39.632
716.00,39.633
717.00,39.863
718.00,40.147
719.00,39.981
720.00,40.166
721.00,44.731
722.00,44.708
723.00,44.859
724.00,44.940
725.00,45.038
726.00,45.081
727.00,45.172
728.00,45.343
729.00,45.324
730.00,45.493
731.00,45.499
732.00,45.633
733.00,45.748
734.00,45.883
735.00,45.969
736.00,46.030
737.00,46.111
738.00,46.214
739.00,46.299
740.00,46.432
741.00,46.474
742.00,46.691
743.00,46.583
744.00,46.640
745.00,46.709
746.00,46.856
747.00,46.890
748.00,46.884
749.00,47.078
750.00,47.037
751.00,47.181
752.00,47.200
753.00,47.164
754.00,47.313
755.00,47.361
756.00,47.450
757.00,47.445
758.00,47.546
759.00,47.578
760.00,47.704
761.00,47.713
762.00,47.723
763.00,47.865
764.00,47.869
765.00,47.976
766.00,47.976
767.00,48.050
768.00,48.133
769.00,48.115
770.00,48.319
771.00,48.269
772.00,48.244
773.00,48.314
774.00,48.372
775.00,48.472
776.00,48.419
777.00,48.584
778.00,48.543
779.00,48.707
780.00,48.579
781.00,48.673
782.00,48.675
783.00,48.718
784.00,48.780
785.00,48.687
786.00,48.894
787.00,48.783
788.00,48.864
789.00,48.947
790.00,48.859
791.00,48.945
792.00,48.912
793.00,48.953
794.00,48.999
795.00,48.984
796.00,49.026
797.00,48.967
798.00,49.086
799.00,49.075
800.00,49.016
801.00,49.126
802.00,49.107
803.00,49.050
804.00,49.073
805.00,49.134
806.00,49.151
807.00,49.149
808.00,49.171
809.00,49.167
810.00,49.146
811.00,49.118
812.00,49.271
813.00,49.143
814.00,49.324
815.00,49.127
816.00,49.164
817.00,49.188
818.00,49.165
819.00,49.256
820.00,49.233
821.00,49.132
822.00,49.250
823.00,49.239
824.00,49.231
825.00,49.209
826.00,49.164
827.00,49.231
828.00,49.295
829.00,49.269
830.00,49.289
831.00,51.693
832.00,51.652
833.00,51.674
834.00,51.696
835.00,51.671
836.00,51.674
837.00,51.643
838.00,51.653
839.00,51.628
840.00,51.609
841.00,51.620
842.00,51.623
843.00,51.613
844.00,51.631
845.00,51.579
846.00,51.601
847.00,51.567
848.00,51.610
849.00,51.548
850.00,51.525
851.00,51.499
852.00,51.532
853.00,51.503
854.00,51.468
855.00,51.446
856.00,51.423
857.00,51.469
858.00,51.440
859.00,51.400
860.00,51.426
861.00,51.491
862.00,51.386
863.00,51.420
864.00,51.404
865.00,51.424
866.00,51.440
867.00,51.408
868.00,51.426
869.00,51.402
870.00,51.417
871.00,51.418
872.00,51.407
873.00,51.390
874.00,51.421
875.00,51.363
876.00,51.406
877.00,51.382
878.00,51.375
879.00,51.342
880.00,51.362
881.00,51.336
882.00,51.372
883.00,51.320
884.00,51.296
885.00,51.256
886.00,51.347
887.00,51.286
888.00,51.283
889.00,51.264
890.00,51.245
891.00,51.224
892.00,51.223
893.00,51.210
894.00,51.206
895.00,51.164
896.00,51.159
897.00,51.148
898.00,51.120
899.00,51.153
900.00,51.114
901.00,51.094
902.00,51.081
903.00,51.061
904.00,51.084
905.00,51.093
906.00,51.070
907.00,51.063
908.00,50.997
909.00,51.035
910.00,50.977
911.00,50.981
912.00,50.967
913.00,50.903
914.00,51.053
915.00,50.910
916.00,50.891
917.00,50.912
918.00,50.879
919.00,50.834
920.00,50.805
921.00,50.829
922.00,50.838
923.00,50.779
924.00,50.746
925.00,50.758
926.00,50.709
927.00,50.707
928.00,50.686
929.00,50.697
930.00,50.684
931.00,50.659
932.00,50.640
933.00,50.653
934.00,50.645
935.00,50.600
936.00,50.599
937.00,50.568
938.00,50.586
939.00,50.538
940.00,50.519
941.00,50.541
942.00,50.510
943.00,50.473
944.00,50.472
945.00,50.452
946.00,50.453
947.00,50.407
948.00,50.400
949.00,50.391
950.00,50.405
951.00,50.358
952.00,50.357
953.00,50.319
954.00,50.309
955.00,50.294
956.00,50.253
957.00,50.215
958.00,50.228
959.00,50.215
960.00,50.190
961.00,50.173
962.00,50.167
963.00,50.122
964.00,50.124
965.00,50.135
966.00,50.128
967.00,50.106
968.00,50.079
969.00,50.115
970.00,50.064
971.00,50.089
972.00,50.073
973.00,50.095
974.00,50.116
975.00,50.090
976.00,50.107
977.00,50.095
978.00,50.135
979.00,50.102
980.00,50.113
981.00,50.108
982.00,50.091
983.00,50.104
984.00,50.077
985.00,50.094
986.00,50.077
987.00,50.101
988.00,50.060
989.00,50.039
990.00,50.035
991.00,50.026
992.00,50.026
993.00,49.994
994.00,50.005
995.00,49.973
996.00,49.974
997.00,49.969
998.00,49.939
999.00,49.959
1000.00,49.904
1001.00,49.919
1002.00,49.942
1003.00,49.907
1004.00,49.882
1005.00,49.867
1006.00,49.904
1007.00,49.882
1008.00,49.862
1009.00,49.847
1010.00,49.844
1011.00,49.824
1012.00,49.808
1013.00,49.813
1014.00,49.771
1015.00,49.782
1016.00,49.751
1017.00,49.748
1018.00,49.728
1019.00,49.695
1020.00,49.710
1021.00,49.666
1022.00,49.650
1023.00,49.629
1024.00,49.642
1025.00,49.594
1026.00,49.605
1027.00,49.566
1028.00,49.569
1029.00,49.558
1030.00,49.538
1031.00,49.538
1032.00,49.480
1033.00,49.494
1034.00,49.504
1035.00,49.451
1036.00,49.396
1037.00,49.398
1038.00,49.378
1039.00,49.343
1040.00,49.344
1041.00,49.303
1042.00,49.320
1043.00,49.302
1044.00,49.331
1045.00,49.304
1046.00,49.316
1047.00,49.333
1048.00,49.357
1049.00,49.369
1050.00,49.365
1051.00,49.410
1052.00,49.392
1053.00,49.400
1054.00,49.403
1055.00,49.416
1056.00,49.429
1057.00,49.431
1058.00,49.412
1059.00,49.427
1060.00,49.442
1061.00,49.415
1062.00,49.404
1063.00,49.401
1064.00,49.403
1065.00,49.400
1066.00,49.359
1067.00,49.370
1068.00,49.403
1069.00,49.344
1070.00,49.337
1071.00,49.318
1072.00,49.339
1073.00,49.320
1074.00,49.303
1075.00,49.296
1076.00,49.314
1077.00,49.279
1078.00,49.267
1079.00,49.284
1080.00,49.288
1081.00,49.283
1082.00,49.276
1083.00,49.269
1084.00,49.274
1085.00,49.267
1086.00,49.247
1087.00,49.259
1088.00,49.233
1089.00,49.232
1090.00,49.226
1091.00,49.217
1092.00,49.218
1093.00,49.204
1094.00,49.174
1095.00,49.173
1096.00,49.156
1097.00,49.157
1098.00,49.159
1099.00,49.134
1100.00,49.120
1101.00,49.129
1102.00,49.100
1103.00,49.123
1104.00,49.103
1105.00,49.091
1106.00,49.080
1107.00,49.075
1108.00,49.074
1109.00,49.064
1110.00,49.043
1111.00,49.043
1112.00,49.033
1113.00,49.013
1114.00,49.022
1115.00,49.020
1116.00,49.002
1117.00,49.008
1118.00,48.990
1119.00,48.999
1120.00,48.997
1121.00,48.985
1122.00,48.966
1123.00,48.971
1124.00,48.967
1125.00,48.967
1126.00,48.959
1127.00,48.947
1128.00,48.933
1129.00,48.911
1130.00,48.902
1131.00,48.919
1132.00,48.897
1133.00,48.904
1134.00,48.898
1135.00,48.867
1136.00,48.883
1137.00,48.888
1138.00,48.882
1139.00,48.898
1140.00,48.873
1141.00,48.866
1142.00,48.857
1143.00,48.866
1144.00,48.839
1145.00,48.843
1146.00,48.830
1147.00,48.853
1148.00,48.831
1149.00,48.834
1150.00,48.840
1151.00,48.823
1152.00,48.813
1153.00,48.811
1154.00,48.794
1155.00,48.808
1156.00,48.805
1157.00,48.810
1158.00,48.803
1159.00,48.827
1160.00,48.809
1161.00,48.820
1162.00,48.793
1163.00,48.791
1164.00,48.813
1165.00,48.799
1166.00,48.812
1167.00,48.802
1168.00,48.818
1169.00,48.815
1170.00,48.812
1171.00,48.786
1172.00,48.804
1173.00,48.801
1174.00,48.799
1175.00,48.792
1176.00,48.781
1177.00,48.779
1178.00,48.780
1179.00,48.785
1180.00,48.786
1181.00,48.799
1182.00,48.773
1183.00,48.788
1184.00,48.772
1185.00,48.781
1186.00,48.777
1187.00,48.766
1188.00,48.761
1189.00,48.768
1190.00,48.755
1191.00,48.763
1192.00,48.802
1193.00,48.785
1194.00,48.801
1195.00,48.771
1196.00,48.794
1197.00,48.794
1198.00,48.762
1199.00,48.756
1200.00,48.779
1201.00,48.783
1202.00,48.778
1203.00,48.795
1204.00,48.784
1205.00,48.804
1206.00,48.781
1207.00,48.785
1208.00,48.784
1209.00,48.779
1210.00,48.788
1211.00,48.778
1212.00,48.782
1213.00,48.763
1214.00,48.783
1215.00,48.761
1216.00,48.780
1217.00,48.767
1218.00,48.762
1219.00,48.794
1220.00,48.770
1221.00,48.798
1222.00,48.793
1223.00,48.811
1224.00,48.802
1225.00,48.792
1226.00,48.792
1227.00,48.788
1228.00,48.790
1229.00,48.798
1230.00,48.832
1231.00,48.816
1232.00,48.844
1233.00,48.852
1234.00,48.856
1235.00,48.848
1236.00,48.852
1237.00,48.837
1238.00,48.853
1239.00,48.862
1240.00,48.840
1241.00,48.861
1242.00,48.846
1243.00,48.867
1244.00,48.860
1245.00,48.875
1246.00,48.897
1247.00,48.880
1248.00,48.868
1249.00,48.897
1250.00,48.897
1251.00,48.887
1252.00,48.904
1253.00,48.887
1254.00,48.907
1255.00,48.895
1256.00,48.877
1257.00,48.867
1258.00,48.916
1259.00,48.906
1260.00,48.942
1261.00,48.937
1262.00,48.928
1263.00,48.942
1264.00,48.951
1265.00,48.954
1266.00,48.955
1267.00,48.966
1268.00,48.970
1269.00,48.973
1270.00,48.987
1271.00,48.990
1272.00,48.987
1273.00,49.004
1274.00,49.010
1275.00,48.991
1276.00,48.988
1277.00,49.016
1278.00,49.008
1279.00,49.034
1280.00,49.019
1281.00,49.025
1282.00,49.031
1283.00,49.055
1284.00,49.063
1285.00,49.052
1286.00,49.070
1287.00,49.060
1288.00,49.077
1289.00,49.043
1290.00,49.099
1291.00,49.094
1292.00,49.073
1293.00,49.089
1294.00,49.095
1295.00,49.121
1296.00,49.130
1297.00,49.121
1298.00,49.166
1299.00,49.139
1300.00,49.158
1301.00,49.148
1302.00,49.182
1303.00,49.174
1304.00,49.172
1305.00,49.214
1306.00,49.208
1307.00,49.223
1308.00,49.205
1309.00,49.221
1310.00,49.222
1311.00,49.200
1312.00,49.227
1313.00,49.252
1314.00,49.257
1315.00,49.269
1316.00,49.268
1317.00,49.290
1318.00,49.295
1319.00,49.284
1320.00,49.290
1321.00,49.473
1322.00,49.434
1323.00,49.431
1324.00,49.436
1325.00,49.410
1326.00,49.457
1327.00,49.431
1328.00,49.430
1329.00,49.436
1330.00,49.452
1331.00,49.432
1332.00,49.449
1333.00,49.446
1334.00,49.483
1335.00,49.495
1336.00,49.522
1337.00,49.552
1338.00,49.603
1339.00,49.617
1340.00,49.697
1341.00,49.765
1342.00,49.824
1343.00,49.878
1344.00,49.928
1345.00,49.990
1346.00,50.053
1347.00,50.061
1348.00,50.089
1349.00,50.120
1350.00,50.110
1351.00,50.157
1352.00,50.153
1353.00,50.252
1354.00,50.169
1355.00,50.080
1356.00,50.226
1357.00,50.227
1358.00,50.249
1359.00,50.237
1360.00,50.265
1361.00,50.249
1362.00,50.254
1363.00,50.303
1364.00,50.260
1365.00,50.255
1366.00,50.190
1367.00,50.239
1368.00,50.251
1369.00,50.209
1370.00,50.181
1371.00,50.189
1372.00,50.209
1373.00,50.229
1374.00,50.280
1375.00,50.214
1376.00,50.229
1377.00,50.203
1378.00,50.240
1379.00,50.209
1380.00,50.267
1381.00,50.241
1382.00,50.224
1383.00,50.237
1384.00,50.223
1385.00,50.287
1386.00,50.236
1387.00,50.207
1388.00,50.190
1389.00,50.306
1390.00,50.150
1391.00,50.258
1392.00,50.206
1393.00,50.260
1394.00,50.209
1395.00,50.135
1396.00,50.171
1397.00,50.300
1398.00,50.254
1399.00,50.151
1400.00,50.176
1401.00,50.222
1402.00,50.297
1403.00,50.215
1404.00,50.307
1405.00,50.263
1406.00,50.367
1407.00,50.295
1408.00,50.272
1409.00,50.303
1410.00,50.351
1411.00,50.287
1412.00,50.384
1413.00,50.314
1414.00,50.323
1415.00,50.323
1416.00,50.370
1417.00,50.397
1418.00,50.380
1419.00,50.403
1420.00,50.439
1421.00,50.464
1422.00,50.443
1423.00,50.484
1424.00,50.477
1425.00,50.504
1426.00,50.548
1427.00,50.525
1428.00,50.536
1429.00,50.614
1430.00,50.556
1431.00,50.599
1432.00,50.605
1433.00,50.631
1434.00,50.636
1435.00,50.690
1436.00,50.684
1437.00,50.682
1438.00,50.687
1439.00,50.739
1440.00,50.744
1441.00,50.747
1442.00,50.773
1443.00,50.805
1444.00,50.856
1445.00,50.819
1446.00,50.841
1447.00,50.871
1448.00,50.928
1449.00,50.920
1450.00,50.939
1451.00,50.948
1452.00,50.966
1453.00,50.972
1454.00,50.975
1455.00,51.007
1456.00,51.038
1457.00,51.007
1458.00,51.044
1459.00,51.077
1460.00,51.111
1461.00,51.104
1462.00,51.169
1463.00,51.159
1464.00,51.189
1465.00,51.194
1466.00,51.204
1467.00,51.222
1468.00,51.272
1469.00,51.259
1470.00,51.276
1471.00,51.279
1472.00,51.285
1473.00,51.309
1474.00,51.321
1475.00,51.344
1476.00,51.370
1477.00,51.351
1478.00,51.393
1479.00,51.395
1480.00,51.401
1481.00,51.416
1482.00,51.446
1483.00,51.463
1484.00,51.478
1485.00,51.490
1486.00,51.517
1487.00,51.530
1488.00,51.553
1489.00,51.550
1490.00,51.559
1491.00,51.582
1492.00,51.608
1493.00,51.580
1494.00,51.635
1495.00,51.627
1496.00,51.657
1497.00,51.657
1498.00,51.659
1499.00,51.685
1500.00,51.693
1501.00, 
1502.00, 
1503.00, 
1504.00, 
1505.00, 
1506.00, 
1507.00, 
1508.00, 
1509.00, 
1510.00, 
1511.00, 
1512.00, 
1513.00, 
1514.00, 
1515.00, 
1516.00, 
1517.00, 
1518.00, 
1519.00, 
1520.00, 
1521.00, 
1522.00, 
1523.00, 
1524.00, 
1525.00, 
1526.00, 
1527.00, 
1528.00, 
1529.00, 
1530.00, 
1531.00, 
1532.00, 
1533.00, 
1534.00, 
1535.00, 
1536.00, 
1537.00, 
1538.00, 
1539.00, 
1540.00, 
1541.00, 
1542.00, 
1543.00, 
1544.00, 
1545.00, 
1546.00, 
1547.00, 
1548.00, 
1549.00, 
1550.00, 
1551.00, 
1552.00, 
1553.00, 
1554.00, 
1555.00, 
1556.00, 
1557.00, 
1558.00, 
1559.00, 
1560.00, 
1561.00, 
1562.00, 
1563.00, 
1564.00, 
1565.00, 
1566.00, 
1567.00, 
1568.00, 
1569.00, 
1570.00, 
1571.00, 
1572.00, 
1573.00, 
1574.00, 
1575.00, 
1576.00, 
1577.00, 
1578.00, 
1579.00, 
1580.00, 
1581.00, 
1582.00, 
1583.00, 
1584.00, 
1585.00, 
1586.00, 
1587.00, 
1588.00, 
1589.00, 
1590.00, 
1591.00, 
1592.00, 
1593.00, 
1594.00, 
1595.00, 
1596.00, 
1597.00, 
1598.00, 
1599.00, 
1600.00, 
1601.00, 
1602.00, 
1603.00, 
1604.00, 
1605.00, 
1606.00, 
1607.00, 
1608.00, 
1609.00, 
1610.00, 
1611.00, 
1612.00, 
1613.00, 
1614.00, 
1615.00, 
1616.00, 
1617.00, 
1618.00, 
1619.00, 
1620.00, 
1621.00, 
1622.00, 
1623.00, 
1624.00, 
1625.00, 
1626.00, 
1627.00, 
1628.00, 
1629.00, 
1630.00, 
1631.00, 
1632.00, 
1633.00, 
1634.00, 
1635.00, 
1636.00, 
1637.00, 
1638.00, 
1639.00, 
1640.00, 
1641.00, 
1642.00, 
1643.00, 
1644.00, 
1645.00, 
1646.00, 
1647.00, 
1648.00, 
1649.00, 
1650.00, 
1651.00, 
1652.00, 
1653.00, 
1654.00, 
1655.00, 
1656.00, 
1657.00, 
1658.00, 
1659.00, 
1660.00, 
1661.00, 
1662.00, 
1663.00, 
1664.00, 
1665.00, 
1666.00, 
1667.00, 
1668.00, 
1669.00, 
1670.00, 
1671.00, 
1672.00, 
1673.00, 
1674.00, 
1675.00, 
1676.00, 
1677.00, 
1678.00, 
1679.00, 
1680.00, 
1681.00, 
1682.00, 
1683.00, 
1684.00, 
1685.00, 
1686.00, 
1687.00, 
1688.00, 
1689.00, 
1690.00, 
1691.00, 
1692.00, 
1693.00, 
1694.00, 
1695.00, 
1696.00, 
1697.00, 
1698.00, 
1699.00, 
1700.00, 
1701.00, 
1702.00, 
1703.00, 
1704.00, 
1705.00, 
1706.00, 
1707.00, 
1708.00, 
1709.00, 
1710.00, 
1711.00, 
1712.00, 
1713.00, 
1714.00, 
1715.00, 
1716.00, 
1717.00, 
1718.00, 
1719.00, 
1720.00, 
1721.00, 
1722.00, 
1723.00, 
1724.00, 
1725.00, 
1726.00, 
1727.00, 
1728.00, 
1729.00, 
1730.00, 
1731.00, 
1732.00, 
1733.00, 
1734.00, 
1735.00, 
1736.00, 
1737.00, 
1738.00, 
1739.00, 
1740.00, 
1741.00, 
1742.00, 
1743.00, 
1744.00, 
1745.00, 
1746.00, 
1747.00, 
1748.00, 
1749.00, 
1750.00, 
1751.00, 
1752.00, 
1753.00, 
1754.00, 
1755.00, 
1756.00, 
1757.00, 
1758.00, 
1759.00, 
1760.00, 
1761.00, 
1762.00, 
1763.00, 
1764.00, 
1765.00, 
1766.00, 
1767.00, 
1768.00, 
1769.00, 
1770.00, 
1771.00, 
1772.00, 
1773.00, 
1774.00, 
1775.00, 
1776.00, 
1777.00, 
1778.00, 
1779.00, 
1780.00, 
1781.00, 
1782.00, 
1783.00, 
1784.00, 
1785.00, 
1786.00, 
1787.00, 
1788.00, 
1789.00, 
1790.00, 
1791.00, 
1792.00, 
1793.00, 
1794.00, 
1795.00, 
1796.00, 
1797.00, 
1798.00, 
1799.00, 
1800.00, 
1801.00, 
1802.00, 
1803.00, 
1804.00, 
1805.00, 
1806.00, 
1807.00, 
1808.00, 
1809.00, 
1810.00, 
1811.00, 
1812.00, 
1813.00, 
1814.00, 
1815.00, 
1816.00, 
1817.00, 
1818.00, 
1819.00, 
1820.00, 
1821.00, 
1822.00, 
1823.00, 
1824.00, 
1825.00, 
1826.00, 
1827.00, 
1828.00, 
1829.00, 
1830.00, 
1831.00, 
1832.00, 
1833.00, 
1834.00, 
1835.00, 
1836.00, 
1837.00, 
1838.00, 
1839.00, 
1840.00, 
1841.00, 
1842.00, 
1843.00, 
1844.00, 
1845.00, 
1846.00, 
1847.00, 
1848.00, 
1849.00, 
1850.00, 
1851.00, 
1852.00, 
1853.00, 
1854.00, 
1855.00, 
1856.00, 
1857.00, 
1858.00, 
1859.00, 
1860.00, 
1861.00, 
1862.00, 
1863.00, 
1864.00, 
1865.00, 
1866.00, 
1867.00, 
1868.00, 
1869.00, 
1870.00, 
1871.00, 
1872.00, 
1873.00, 
1874.00, 
1875.00, 
1876.00, 
1877.00, 
1878.00, 
1879.00, 
1880.00, 
1881.00, 
1882.00, 
1883.00, 
1884.00, 
1885.00, 
1886.00, 
1887.00, 
1888.00, 
1889.00, 
1890.00, 
1891.00, 
1892.00, 
1893.00, 
1894.00, 
1895.00, 
1896.00, 
1897.00, 
1898.00, 
1899.00, 
1900.00, 
1901.00, 
1902.00, 
1903.00, 
1904.00, 
1905.00, 
1906.00, 
1907.00, 
1908.00, 
1909.00, 
1910.00, 
1911.00, 
1912.00, 
1913.00, 
1914.00, 
1915.00, 
1916.00, 
1917.00, 
1918.00, 
1919.00, 
1920.00, 
1921.00, 
1922.00, 
1923.00, 
1924.00, 
1925.00, 
1926.00, 
1927.00, 
1928.00, 
1929.00, 
1930.00, 
1931.00, 
1932.00, 
1933.00, 
1934.00, 
1935.00, 
1936.00, 
1937.00, 
1938.00, 
1939.00, 
1940.00, 
1941.00, 
1942.00, 
1943.00, 
1944.00, 
1945.00, 
1946.00, 
1947.00, 
1948.00, 
1949.00, 
1950.00, 
1951.00, 
1952.00, 
1953.00, 
1954.00, 
1955.00, 
1956.00, 
1957.00, 
1958.00, 
1959.00, 
1960.00, 
1961.00, 
1962.00, 
1963.00, 
1964.00, 
1965.00, 
1966.00, 
1967.00, 
1968.00, 
1969.00, 
1970.00, 
1971.00, 
1972.00, 
1973.00, 
1974.00, 
1975.00, 
1976.00, 
1977.00, 
1978.00, 
1979.00, 
1980.00, 
1981.00, 
1982.00, 
1983.00, 
1984.00, 
1985.00, 
1986.00, 
1987.00, 
1988.00, 
1989.00, 
1990.00, 
1991.00, 
1992.00, 
1993.00, 
1994.00, 
1995.00, 
1996.00, 
1997.00, 
1998.00, 
1999.00, 
2000.00, 
2001.00, 
2002.00, 
2003.00, 
2004.00, 
2005.00, 
2006.00, 
2007.00, 
2008.00, 
2009.00, 
2010.00, 
2011.00, 
2012.00, 
2013.00, 
2014.00, 
2015.00, 
2016.00, 
2017.00, 
2018.00, 
2019.00, 
2020.00, 
2021.00, 
2022.00, 
2023.00, 
2024.00, 
2025.00, 
2026.00, 
2027.00, 
2028.00, 
2029.00, 
2030.00, 
2031.00, 
2032.00, 
2033.00, 
2034.00, 
2035.00, 
2036.00, 
2037.00, 
2038.00, 
2039.00, 
2040.00, 
2041.00, 
2042.00, 
2043.00, 
2044.00, 
2045.00, 
2046.00, 
2047.00, 
2048.00, 
2049.00, 
2050.00, 
2051.00, 
2052.00, 
2053.00, 
2054.00, 
2055.00, 
2056.00, 
2057.00, 
2058.00, 
2059.00, 
2060.00, 
2061.00, 
2062.00, 
2063.00, 
2064.00, 
2065.00, 
2066.00, 
2067.00, 
2068.00, 
2069.00, 
2070.00, 
2071.00, 
2072.00, 
2073.00, 
2074.00, 
2075.00, 
2076.00, 
2077.00, 
2078.00, 
2079.00, 
2080.00, 
2081.00, 
2082.00, 
2083.00, 
2084.00, 
2085.00, 
2086.00, 
2087.00, 
2088.00, 
2089.00, 
2090.00, 
2091.00, 
2092.00, 
2093.00, 
2094.00, 
2095.00, 
2096.00, 
2097.00, 
2098.00, 
2099.00, 
2100.00, 
2101.00, 
2102.00, 
2103.00, 
2104.00, 
2105.00, 
2106.00, 
2107.00, 
2108.00, 
2109.00, 
2110.00, 
2111.00, 
2112.00, 
2113.00, 
2114.00, 
2115.00, 
2116.00, 
2117.00, 
2118.00, 
2119.00, 
2120.00, 
2121.00, 
2122.00, 
2123.00, 
2124.00, 
2125.00, 
2126.00, 
2127.00, 
2128.00, 
2129.00, 
2130.00, 
2131.00, 
2132.00, 
2133.00, 
2134.00, 
2135.00, 
2136.00, 
2137.00, 
2138.00, 
2139.00, 
2140.00, 
2141.00, 
2142.00, 
2143.00, 
2144.00, 
2145.00, 
2146.00, 
2147.00, 
2148.00, 
2149.00, 
2150.00, 
2151.00, 
2152.00, 
2153.00, 
2154.00, 
2155.00, 
2156.00, 
2157.00, 
2158.00, 
2159.00, 
2160.00, 
2161.00, 
2162.00, 
2163.00, 
2164.00, 
2165.00, 
2166.00, 
2167.00, 
2168.00, 
2169.00, 
2170.00, 
2171.00, 
2172.00, 
2173.00, 
2174.00, 
2175.00, 
2176.00, 
2177.00, 
2178.00, 
2179.00, 
2180.00, 
2181.00, 
2182.00, 
2183.00, 
2184.00, 
2185.00, 
2186.00, 
2187.00, 
2188.00, 
2189.00, 
2190.00, 
2191.00, 
2192.00, 
2193.00, 
2194.00, 
2195.00, 
2196.00, 
2197.00, 
2198.00, 
2199.00, 
2200.00, 
2201.00, 
2202.00, 
2203.00, 
2204.00, 
2205.00, 
2206.00, 
2207.00, 
2208.00, 
2209.00, 
2210.00, 
2211.00, 
2212.00, 
2213.00, 
2214.00, 
2215.00, 
2216.00, 
2217.00, 
2218.00, 
2219.00, 
2220.00, 
2221.00, 
2222.00, 
2223.00, 
2224.00, 
2225.00, 
2226.00, 
2227.00, 
2228.00, 
2229.00, 
2230.00, 
2231.00, 
2232.00, 
2233.00, 
2234.00, 
2235.00, 
2236.00, 
2237.00, 
2238.00, 
2239.00, 
2240.00, 
2241.00, 
2242.00, 
2243.00, 
2244.00, 
2245.00, 
2246.00, 
2247.00, 
2248.00, 
2249.00, 
2250.00, 
2251.00, 
2252.00, 
2253.00, 
2254.00, 
2255.00, 
2256.00, 
2257.00, 
2258.00, 
2259.00, 
2260.00, 
2261.00, 
2262.00, 
2263.00, 
2264.00, 
2265.00, 
2266.00, 
2267.00, 
2268.00, 
2269.00, 
2270.00, 
2271.00, 
2272.00, 
2273.00, 
2274.00, 
2275.00, 
2276.00, 
2277.00, 
2278.00, 
2279.00, 
2280.00, 
2281.00, 
2282.00, 
2283.00, 
2284.00, 
2285.00, 
2286.00, 
2287.00, 
2288.00, 
2289.00, 
2290.00, 
2291.00, 
2292.00, 
2293.00, 
2294.00, 
2295.00, 
2296.00, 
2297.00, 
2298.00, 
2299.00, 
2300.00, 
2301.00, 
2302.00, 
2303.00, 
2304.00, 
2305.00, 
2306.00, 
2307.00, 
2308.00, 
2309.00, 
2310.00, 
2311.00, 
2312.00, 
2313.00, 
2314.00, 
2315.00, 
2316.00, 
2317.00, 
2318.00, 
2319.00, 
2320.00, 
2321.00, 
2322.00, 
2323.00, 
2324.00, 
2325.00, 
2326.00, 
2327.00, 
2328.00, 
2329.00, 
2330.00, 
2331.00, 
2332.00, 
2333.00, 
2334.00, 
2335.00, 
2336.00, 
2337.00, 
2338.00, 
2339.00, 
2340.00, 
2341.00, 
2342.00, 
2343.00, 
2344.00, 
2345.00, 
2346.00, 
2347.00, 
2348.00, 
2349.00, 
2350.00, 
2351.00, 
2352.00, 
2353.00, 
2354.00, 
2355.00, 
2356.00, 
2357.00, 
2358.00, 
2359.00, 
2360.00, 
2361.00, 
2362.00, 
2363.00, 
2364.00, 
2365.00, 
2366.00, 
2367.00, 
2368.00, 
2369.00, 
2370.00, 
2371.00, 
2372.00, 
2373.00, 
2374.00, 
2375.00, 
2376.00, 
2377.00, 
2378.00, 
2379.00, 
2380.00, 
2381.00, 
2382.00, 
2383.00, 
2384.00, 
2385.00, 
2386.00, 
2387.00, 
2388.00, 
2389.00, 
2390.00, 
2391.00, 
2392.00, 
2393.00, 
2394.00, 
2395.00, 
2396.00, 
2397.00, 
2398.00, 
2399.00, 
2400.00, 
2401.00, 
2402.00, 
2403.00, 
2404.00, 
2405.00, 
2406.00, 
2407.00, 
2408.00, 
2409.00, 
2410.00, 
2411.00, 
2412.00, 
2413.00, 
2414.00, 
2415.00, 
2416.00, 
2417.00, 
2418.00, 
2419.00, 
2420.00, 
2421.00, 
2422.00, 
2423.00, 
2424.00, 
2425.00, 
2426.00, 
2427.00, 
2428.00, 
2429.00, 
2430.00, 
2431.00, 
2432.00, 
2433.00, 
2434.00, 
2435.00, 
2436.00, 
2437.00, 
2438.00, 
2439.00, 
2440.00, 
2441.00, 
2442.00, 
2443.00, 
2444.00, 
2445.00, 
2446.00, 
2447.00, 
2448.00, 
2449.00, 
2450.00, 
2451.00, 
2452.00, 
2453.00, 
2454.00, 
2455.00, 
2456.00, 
2457.00, 
2458.00, 
2459.00, 
2460.00, 
2461.00, 
2462.00, 
2463.00, 
2464.00, 
2465.00, 
2466.00, 
2467.00, 
2468.00, 
2469.00, 
2470.00, 
2471.00, 
2472.00, 
2473.00, 
2474.00, 
2475.00, 
2476.00, 
2477.00, 
2478.00, 
2479.00, 
2480.00, 
2481.00, 
2482.00, 
2483.00, 
2484.00, 
2485.00, 
2486.00, 
2487.00, 
2488.00, 
2489.00, 
2490.00, 
2491.00, 
2492.00, 
2493.00, 
2494.00, 
2495.00, 
2496.00, 
2497.00, 
2498.00, 
2499.00, 
2500.00, 
2501.00, 
2502.00, 
2503.00, 
2504.00, 
2505.00, 
2506.00, 
2507.00, 
2508.00, 
2509.00, 
2510.00, 
2511.00, 
2512.00, 
2513.00, 
2514.00, 
2515.00, 
2516.00, 
2517.00, 
2518.00, 
2519.00, 
2520.00, 
2521.00, 
2522.00, 
2523.00, 
2524.00, 
2525.00, 
2526.00, 
2527.00, 
2528.00, 
2529.00, 
2530.00, 
2531.00, 
2532.00, 
2533.00, 
2534.00, 
2535.00, 
2536.00, 
2537.00, 
2538.00, 
2539.00, 
2540.00, 
2541.00, 
2542.00, 
2543.00, 
2544.00, 
2545.00, 
2546.00, 
2547.00, 
2548.00, 
2549.00, 
2550.00, 
2551.00, 
2552.00, 
2553.00, 
2554.00, 
2555.00, 
2556.00, 
2557.00, 
2558.00, 
2559.00, 
2560.00, 
2561.00, 
2562.00, 
2563.00, 
2564.00, 
2565.00, 
2566.00, 
2567.00, 
2568.00, 
2569.00, 
2570.00, 
2571.00, 
2572.00, 
2573.00, 
2574.00, 
2575.00, 
2576.00, 
2577.00, 
2578.00, 
2579.00, 
2580.00, 
2581.00, 
2582.00, 
2583.00, 
2584.00, 
2585.00, 
2586.00, 
2587.00, 
2588.00, 
2589.00, 
2590.00, 
2591.00, 
2592.00, 
2593.00, 
2594.00, 
2595.00, 
2596.00, 
2597.00, 
2598.00, 
2599.00, 
2600.00, 
