"2cP5 - RawData"
"Wavelength nm.","T%"
200.00,0.002
201.00,0.001
202.00,0.001
203.00,0.000
204.00,0.000
205.00,-0.001
206.00,-0.000
207.00,0.005
208.00,0.000
209.00,0.001
210.00,0.005
211.00,0.002
212.00,0.000
213.00,0.002
214.00,0.002
215.00,-0.002
216.00,-0.000
217.00,-0.002
218.00,-0.002
219.00,0.004
220.00,0.001
221.00,-0.001
222.00,0.001
223.00,-0.003
224.00,0.003
225.00,0.000
226.00,0.002
227.00,0.002
228.00,-0.001
229.00,-0.000
230.00,0.001
231.00,0.000
232.00,0.000
233.00,-0.002
234.00,-0.002
235.00,-0.001
236.00,-0.001
237.00,0.000
238.00,0.000
239.00,-0.001
240.00,0.001
241.00,0.001
242.00,0.002
243.00,0.001
244.00,0.002
245.00,0.002
246.00,0.001
247.00,-0.000
248.00,0.001
249.00,0.001
250.00,0.001
251.00,-0.000
252.00,0.000
253.00,-0.000
254.00,0.000
255.00,0.001
256.00,-0.001
257.00,-0.000
258.00,0.002
259.00,0.000
260.00,-0.001
261.00,-0.000
262.00,0.002
263.00,0.003
264.00,-0.002
265.00,0.000
266.00,0.002
267.00,-0.001
268.00,0.000
269.00,-0.001
270.00,0.000
271.00,0.001
272.00,-0.000
273.00,-0.000
274.00,-0.001
275.00,-0.001
276.00,0.001
277.00,0.001
278.00,-0.000
279.00,0.001
280.00,0.001
281.00,-0.001
282.00,-0.001
283.00,0.001
284.00,-0.000
285.00,0.001
286.00,-0.000
287.00,-0.001
288.00,0.002
289.00,-0.000
290.00,0.002
291.00,0.000
292.00,0.002
293.00,0.000
294.00,0.001
295.00,-0.000
296.00,-0.000
297.00,0.000
298.00,0.001
299.00,0.003
300.00,0.001
301.00,0.001
302.00,0.003
303.00,0.002
304.00,0.004
305.00,0.006
306.00,0.011
307.00,0.022
308.00,0.029
309.00,0.044
310.00,0.062
311.00,0.087
312.00,0.113
313.00,0.150
314.00,0.192
315.00,0.255
316.00,0.333
317.00,0.407
318.00,0.502
319.00,0.618
320.00,0.749
321.00,0.900
322.00,1.067
323.00,1.260
324.00,1.460
325.00,1.615
326.00,1.842
327.00,2.079
328.00,2.306
329.00,2.537
330.00,2.801
331.00,3.044
332.00,3.314
333.00,3.586
334.00,3.831
335.00,4.094
336.00,4.364
337.00,4.599
338.00,4.858
339.00,5.094
340.00,5.329
341.00,5.556
342.00,5.765
343.00,5.967
344.00,6.158
345.00,6.373
346.00,6.524
347.00,6.659
348.00,6.832
349.00,6.939
350.00,7.077
351.00,7.191
352.00,7.285
353.00,7.395
354.00,7.472
355.00,7.585
356.00,7.643
357.00,7.698
358.00,7.762
359.00,7.827
360.00,7.878
361.00,7.907
362.00,7.947
363.00,7.983
364.00,7.971
365.00,7.996
366.00,7.980
367.00,7.985
368.00,7.984
369.00,7.991
370.00,7.965
371.00,7.952
372.00,7.903
373.00,7.889
374.00,7.897
375.00,7.849
376.00,7.780
377.00,7.762
378.00,7.714
379.00,7.654
380.00,7.629
381.00,7.599
382.00,7.551
383.00,7.547
384.00,7.538
385.00,7.510
386.00,7.483
387.00,7.495
388.00,7.479
389.00,7.457
390.00,7.436
391.00,7.407
392.00,7.395
393.00,7.377
394.00,7.366
395.00,7.364
396.00,7.323
397.00,7.320
398.00,7.303
399.00,7.288
400.00,7.272
401.00,7.243
402.00,7.251
403.00,7.241
404.00,7.229
405.00,7.214
406.00,7.192
407.00,7.173
408.00,7.150
409.00,7.139
410.00,7.122
411.00,7.120
412.00,7.095
413.00,7.102
414.00,7.094
415.00,7.090
416.00,7.100
417.00,7.100
418.00,7.127
419.00,7.160
420.00,7.156
421.00,7.130
422.00,7.145
423.00,7.158
424.00,7.182
425.00,7.197
426.00,7.237
427.00,7.252
428.00,7.272
429.00,7.304
430.00,7.342
431.00,7.375
432.00,7.398
433.00,7.420
434.00,7.472
435.00,7.507
436.00,7.553
437.00,7.608
438.00,7.647
439.00,7.678
440.00,7.742
441.00,7.780
442.00,7.849
443.00,7.896
444.00,7.962
445.00,8.023
446.00,8.085
447.00,8.158
448.00,8.217
449.00,8.297
450.00,8.364
451.00,8.447
452.00,8.502
453.00,8.573
454.00,8.655
455.00,8.747
456.00,8.811
457.00,8.923
458.00,9.022
459.00,9.099
460.00,9.198
461.00,9.297
462.00,9.358
463.00,9.495
464.00,9.584
465.00,9.697
466.00,9.795
467.00,9.915
468.00,9.995
469.00,10.094
470.00,10.191
471.00,10.293
472.00,10.403
473.00,10.492
474.00,10.590
475.00,10.683
476.00,10.800
477.00,10.902
478.00,11.045
479.00,11.186
480.00,11.310
481.00,11.429
482.00,11.557
483.00,11.698
484.00,11.836
485.00,11.962
486.00,12.085
487.00,12.220
488.00,12.341
489.00,12.489
490.00,12.623
491.00,12.753
492.00,12.899
493.00,13.079
494.00,13.208
495.00,13.267
496.00,13.397
497.00,13.508
498.00,13.638
499.00,13.784
500.00,13.917
501.00,14.028
502.00,14.194
503.00,14.297
504.00,14.412
505.00,14.546
506.00,14.669
507.00,14.779
508.00,14.926
509.00,15.118
510.00,15.210
511.00,15.306
512.00,15.486
513.00,15.597
514.00,15.740
515.00,15.885
516.00,15.960
517.00,16.045
518.00,16.263
519.00,16.312
520.00,16.439
521.00,16.571
522.00,16.673
523.00,16.749
524.00,16.878
525.00,16.999
526.00,17.103
527.00,17.208
528.00,17.310
529.00,17.465
530.00,17.609
531.00,17.695
532.00,17.801
533.00,17.889
534.00,18.010
535.00,18.112
536.00,18.235
537.00,18.302
538.00,18.376
539.00,18.482
540.00,18.575
541.00,18.669
542.00,18.733
543.00,18.811
544.00,18.899
545.00,18.991
546.00,19.074
547.00,19.138
548.00,19.252
549.00,19.312
550.00,19.428
551.00,19.510
552.00,19.612
553.00,19.689
554.00,19.757
555.00,19.810
556.00,19.883
557.00,19.976
558.00,20.032
559.00,20.145
560.00,20.216
561.00,20.247
562.00,20.331
563.00,20.401
564.00,20.434
565.00,20.530
566.00,20.559
567.00,20.638
568.00,20.715
569.00,20.782
570.00,20.840
571.00,20.890
572.00,20.938
573.00,20.985
574.00,21.047
575.00,21.065
576.00,21.096
577.00,21.172
578.00,21.266
579.00,21.368
580.00,21.390
581.00,21.510
582.00,21.597
583.00,21.600
584.00,21.710
585.00,21.794
586.00,21.874
587.00,21.919
588.00,21.981
589.00,21.952
590.00,22.052
591.00,22.142
592.00,22.154
593.00,22.190
594.00,22.294
595.00,22.357
596.00,22.426
597.00,22.499
598.00,22.600
599.00,22.624
600.00,22.713
601.00,22.768
602.00,22.806
603.00,22.860
604.00,22.895
605.00,22.985
606.00,23.081
607.00,23.116
608.00,23.174
609.00,23.290
610.00,23.403
611.00,23.349
612.00,23.407
613.00,23.525
614.00,23.579
615.00,23.650
616.00,23.787
617.00,23.807
618.00,23.852
619.00,23.940
620.00,23.999
621.00,24.100
622.00,24.227
623.00,24.292
624.00,24.400
625.00,24.507
626.00,24.579
627.00,24.635
628.00,24.712
629.00,24.791
630.00,24.897
631.00,24.998
632.00,25.133
633.00,25.248
634.00,25.333
635.00,25.490
636.00,25.580
637.00,25.700
638.00,25.772
639.00,25.898
640.00,25.980
641.00,26.096
642.00,26.252
643.00,26.316
644.00,26.429
645.00,26.548
646.00,26.747
647.00,26.880
648.00,26.972
649.00,27.075
650.00,27.145
651.00,27.372
652.00,27.499
653.00,27.558
654.00,27.747
655.00,27.931
656.00,28.191
657.00,28.220
658.00,28.392
659.00,28.520
660.00,28.626
661.00,28.751
662.00,28.991
663.00,29.034
664.00,29.322
665.00,29.528
666.00,29.431
667.00,29.704
668.00,29.807
669.00,30.057
670.00,30.355
671.00,30.368
672.00,30.543
673.00,30.688
674.00,30.870
675.00,31.012
676.00,31.330
677.00,31.488
678.00,31.424
679.00,31.637
680.00,31.917
681.00,32.137
682.00,32.194
683.00,32.389
684.00,32.584
685.00,32.758
686.00,32.857
687.00,33.047
688.00,33.227
689.00,33.384
690.00,33.655
691.00,34.019
692.00,33.846
693.00,34.020
694.00,34.209
695.00,34.496
696.00,34.603
697.00,34.729
698.00,35.012
699.00,35.174
700.00,35.182
701.00,35.434
702.00,35.656
703.00,35.937
704.00,36.053
705.00,36.115
706.00,36.062
707.00,36.490
708.00,36.716
709.00,36.976
710.00,37.404
711.00,37.125
712.00,37.273
713.00,37.624
714.00,37.764
715.00,37.854
716.00,37.892
717.00,38.166
718.00,38.432
719.00,38.407
720.00,38.677
721.00,42.859
722.00,42.966
723.00,43.070
724.00,43.237
725.00,43.329
726.00,43.451
727.00,43.585
728.00,43.692
729.00,43.804
730.00,44.006
731.00,44.034
732.00,44.232
733.00,44.377
734.00,44.511
735.00,44.614
736.00,44.742
737.00,44.899
738.00,45.032
739.00,45.104
740.00,45.313
741.00,45.370
742.00,45.549
743.00,45.573
744.00,45.681
745.00,45.799
746.00,45.892
747.00,46.020
748.00,46.041
749.00,46.177
750.00,46.209
751.00,46.339
752.00,46.357
753.00,46.422
754.00,46.533
755.00,46.714
756.00,46.746
757.00,46.776
758.00,46.979
759.00,46.997
760.00,47.134
761.00,47.205
762.00,47.261
763.00,47.354
764.00,47.444
765.00,47.512
766.00,47.603
767.00,47.663
768.00,47.744
769.00,47.810
770.00,47.948
771.00,47.989
772.00,47.993
773.00,48.140
774.00,48.122
775.00,48.307
776.00,48.285
777.00,48.424
778.00,48.536
779.00,48.630
780.00,48.583
781.00,48.634
782.00,48.710
783.00,48.694
784.00,48.813
785.00,48.710
786.00,48.982
787.00,48.884
788.00,48.944
789.00,49.003
790.00,48.989
791.00,49.149
792.00,49.124
793.00,49.128
794.00,49.163
795.00,49.226
796.00,49.270
797.00,49.258
798.00,49.362
799.00,49.387
800.00,49.326
801.00,49.388
802.00,49.433
803.00,49.460
804.00,49.428
805.00,49.502
806.00,49.490
807.00,49.553
808.00,49.565
809.00,49.596
810.00,49.656
811.00,49.631
812.00,49.775
813.00,49.651
814.00,49.784
815.00,49.765
816.00,49.676
817.00,49.733
818.00,49.703
819.00,49.810
820.00,49.718
821.00,49.705
822.00,49.804
823.00,49.864
824.00,49.834
825.00,49.803
826.00,49.793
827.00,49.893
828.00,49.970
829.00,49.917
830.00,49.972
831.00,52.102
832.00,52.104
833.00,52.124
834.00,52.162
835.00,52.161
836.00,52.169
837.00,52.121
838.00,52.221
839.00,52.183
840.00,52.178
841.00,52.220
842.00,52.134
843.00,52.253
844.00,52.202
845.00,52.178
846.00,52.205
847.00,52.180
848.00,52.212
849.00,52.151
850.00,52.133
851.00,52.117
852.00,52.156
853.00,52.104
854.00,52.111
855.00,52.073
856.00,52.066
857.00,52.100
858.00,52.099
859.00,52.053
860.00,52.089
861.00,52.105
862.00,52.013
863.00,52.073
864.00,52.070
865.00,52.116
866.00,52.131
867.00,52.085
868.00,52.087
869.00,52.093
870.00,52.109
871.00,52.107
872.00,52.108
873.00,52.107
874.00,52.125
875.00,52.087
876.00,52.132
877.00,52.110
878.00,52.106
879.00,52.102
880.00,52.105
881.00,52.088
882.00,52.134
883.00,52.080
884.00,51.987
885.00,52.232
886.00,52.096
887.00,52.071
888.00,52.051
889.00,52.035
890.00,52.025
891.00,52.006
892.00,52.007
893.00,52.008
894.00,52.023
895.00,51.983
896.00,51.981
897.00,51.980
898.00,51.939
899.00,51.940
900.00,51.936
901.00,51.936
902.00,51.937
903.00,51.913
904.00,51.926
905.00,51.936
906.00,51.907
907.00,51.889
908.00,51.843
909.00,51.888
910.00,51.817
911.00,51.835
912.00,51.817
913.00,51.804
914.00,51.800
915.00,51.770
916.00,51.743
917.00,51.738
918.00,51.774
919.00,51.752
920.00,51.690
921.00,51.711
922.00,51.739
923.00,51.700
924.00,51.559
925.00,51.702
926.00,51.627
927.00,51.627
928.00,51.599
929.00,51.619
930.00,51.591
931.00,51.574
932.00,51.553
933.00,51.586
934.00,51.541
935.00,51.495
936.00,51.518
937.00,51.499
938.00,51.461
939.00,51.426
940.00,51.519
941.00,51.437
942.00,51.412
943.00,51.399
944.00,51.373
945.00,51.365
946.00,51.376
947.00,51.320
948.00,51.318
949.00,51.303
950.00,51.291
951.00,51.266
952.00,51.259
953.00,51.220
954.00,51.213
955.00,51.193
956.00,51.174
957.00,51.122
958.00,51.140
959.00,51.093
960.00,51.111
961.00,51.080
962.00,51.090
963.00,51.054
964.00,51.048
965.00,51.053
966.00,51.049
967.00,51.034
968.00,50.995
969.00,51.024
970.00,50.991
971.00,51.004
972.00,50.970
973.00,51.023
974.00,51.044
975.00,51.012
976.00,51.026
977.00,51.021
978.00,51.059
979.00,51.024
980.00,51.046
981.00,51.028
982.00,51.030
983.00,51.032
984.00,50.988
985.00,51.023
986.00,51.035
987.00,51.009
988.00,50.980
989.00,50.976
990.00,50.974
991.00,50.975
992.00,50.963
993.00,50.943
994.00,50.948
995.00,50.938
996.00,50.933
997.00,50.903
998.00,50.912
999.00,50.909
1000.00,50.833
1001.00,50.859
1002.00,50.848
1003.00,50.831
1004.00,50.819
1005.00,50.791
1006.00,50.829
1007.00,50.782
1008.00,50.770
1009.00,50.765
1010.00,50.762
1011.00,50.742
1012.00,50.735
1013.00,50.743
1014.00,50.696
1015.00,50.713
1016.00,50.667
1017.00,50.670
1018.00,50.666
1019.00,50.635
1020.00,50.626
1021.00,50.609
1022.00,50.601
1023.00,50.567
1024.00,50.584
1025.00,50.525
1026.00,50.542
1027.00,50.505
1028.00,50.496
1029.00,50.500
1030.00,50.454
1031.00,50.472
1032.00,50.443
1033.00,50.447
1034.00,50.415
1035.00,50.374
1036.00,50.342
1037.00,50.343
1038.00,50.331
1039.00,50.280
1040.00,50.284
1041.00,50.246
1042.00,50.246
1043.00,50.223
1044.00,50.244
1045.00,50.236
1046.00,50.248
1047.00,50.267
1048.00,50.264
1049.00,50.286
1050.00,50.281
1051.00,50.326
1052.00,50.315
1053.00,50.302
1054.00,50.310
1055.00,50.334
1056.00,50.356
1057.00,50.346
1058.00,50.315
1059.00,50.343
1060.00,50.326
1061.00,50.302
1062.00,50.332
1063.00,50.305
1064.00,50.320
1065.00,50.307
1066.00,50.276
1067.00,50.267
1068.00,50.295
1069.00,50.247
1070.00,50.244
1071.00,50.235
1072.00,50.252
1073.00,50.250
1074.00,50.231
1075.00,50.238
1076.00,50.251
1077.00,50.186
1078.00,50.178
1079.00,50.177
1080.00,50.172
1081.00,50.161
1082.00,50.155
1083.00,50.141
1084.00,50.144
1085.00,50.131
1086.00,50.107
1087.00,50.123
1088.00,50.090
1089.00,50.098
1090.00,50.098
1091.00,50.087
1092.00,50.085
1093.00,50.067
1094.00,50.046
1095.00,50.048
1096.00,50.013
1097.00,50.015
1098.00,50.016
1099.00,49.999
1100.00,49.990
1101.00,49.981
1102.00,49.958
1103.00,49.982
1104.00,49.976
1105.00,49.951
1106.00,49.947
1107.00,49.942
1108.00,49.936
1109.00,49.933
1110.00,49.913
1111.00,49.916
1112.00,49.894
1113.00,49.872
1114.00,49.874
1115.00,49.880
1116.00,49.854
1117.00,49.859
1118.00,49.842
1119.00,49.842
1120.00,49.860
1121.00,49.841
1122.00,49.828
1123.00,49.847
1124.00,49.806
1125.00,49.808
1126.00,49.792
1127.00,49.790
1128.00,49.778
1129.00,49.763
1130.00,49.740
1131.00,49.750
1132.00,49.735
1133.00,49.752
1134.00,49.728
1135.00,49.712
1136.00,49.729
1137.00,49.734
1138.00,49.725
1139.00,49.748
1140.00,49.710
1141.00,49.704
1142.00,49.704
1143.00,49.706
1144.00,49.682
1145.00,49.680
1146.00,49.666
1147.00,49.669
1148.00,49.647
1149.00,49.652
1150.00,49.658
1151.00,49.651
1152.00,49.636
1153.00,49.632
1154.00,49.608
1155.00,49.625
1156.00,49.610
1157.00,49.636
1158.00,49.630
1159.00,49.625
1160.00,49.607
1161.00,49.622
1162.00,49.607
1163.00,49.598
1164.00,49.621
1165.00,49.612
1166.00,49.613
1167.00,49.592
1168.00,49.601
1169.00,49.593
1170.00,49.595
1171.00,49.565
1172.00,49.573
1173.00,49.551
1174.00,49.574
1175.00,49.580
1176.00,49.576
1177.00,49.578
1178.00,49.575
1179.00,49.577
1180.00,49.561
1181.00,49.580
1182.00,49.557
1183.00,49.576
1184.00,49.559
1185.00,49.551
1186.00,49.550
1187.00,49.545
1188.00,49.556
1189.00,49.556
1190.00,49.537
1191.00,49.541
1192.00,49.560
1193.00,49.537
1194.00,49.550
1195.00,49.525
1196.00,49.550
1197.00,49.561
1198.00,49.539
1199.00,49.540
1200.00,49.547
1201.00,49.551
1202.00,49.542
1203.00,49.540
1204.00,49.518
1205.00,49.535
1206.00,49.513
1207.00,49.522
1208.00,49.514
1209.00,49.517
1210.00,49.518
1211.00,49.520
1212.00,49.525
1213.00,49.498
1214.00,49.537
1215.00,49.486
1216.00,49.500
1217.00,49.501
1218.00,49.501
1219.00,49.536
1220.00,49.510
1221.00,49.534
1222.00,49.510
1223.00,49.523
1224.00,49.514
1225.00,49.488
1226.00,49.491
1227.00,49.495
1228.00,49.501
1229.00,49.510
1230.00,49.547
1231.00,49.531
1232.00,49.561
1233.00,49.563
1234.00,49.555
1235.00,49.570
1236.00,49.564
1237.00,49.544
1238.00,49.563
1239.00,49.550
1240.00,49.533
1241.00,49.545
1242.00,49.547
1243.00,49.559
1244.00,49.536
1245.00,49.564
1246.00,49.568
1247.00,49.552
1248.00,49.538
1249.00,49.572
1250.00,49.571
1251.00,49.562
1252.00,49.582
1253.00,49.550
1254.00,49.585
1255.00,49.567
1256.00,49.548
1257.00,49.545
1258.00,49.605
1259.00,49.580
1260.00,49.619
1261.00,49.612
1262.00,49.597
1263.00,49.607
1264.00,49.601
1265.00,49.622
1266.00,49.611
1267.00,49.610
1268.00,49.627
1269.00,49.628
1270.00,49.635
1271.00,49.634
1272.00,49.642
1273.00,49.657
1274.00,49.671
1275.00,49.670
1276.00,49.664
1277.00,49.665
1278.00,49.656
1279.00,49.668
1280.00,49.654
1281.00,49.661
1282.00,49.672
1283.00,49.673
1284.00,49.664
1285.00,49.667
1286.00,49.682
1287.00,49.693
1288.00,49.687
1289.00,49.666
1290.00,49.714
1291.00,49.706
1292.00,49.700
1293.00,49.709
1294.00,49.715
1295.00,49.719
1296.00,49.720
1297.00,49.720
1298.00,49.750
1299.00,49.729
1300.00,49.743
1301.00,49.732
1302.00,49.747
1303.00,49.739
1304.00,49.756
1305.00,49.776
1306.00,49.785
1307.00,49.800
1308.00,49.779
1309.00,49.808
1310.00,49.796
1311.00,49.782
1312.00,49.788
1313.00,49.822
1314.00,49.820
1315.00,49.839
1316.00,49.825
1317.00,49.877
1318.00,49.877
1319.00,49.866
1320.00,49.884
1321.00,50.030
1322.00,50.000
1323.00,49.991
1324.00,49.978
1325.00,49.960
1326.00,50.008
1327.00,49.994
1328.00,49.980
1329.00,49.983
1330.00,49.988
1331.00,49.979
1332.00,49.979
1333.00,49.976
1334.00,49.995
1335.00,50.020
1336.00,50.068
1337.00,50.071
1338.00,50.136
1339.00,50.155
1340.00,50.229
1341.00,50.304
1342.00,50.366
1343.00,50.412
1344.00,50.463
1345.00,50.521
1346.00,50.555
1347.00,50.573
1348.00,50.592
1349.00,50.625
1350.00,50.626
1351.00,50.653
1352.00,50.661
1353.00,50.651
1354.00,50.675
1355.00,50.612
1356.00,50.706
1357.00,50.684
1358.00,50.732
1359.00,50.724
1360.00,50.701
1361.00,50.718
1362.00,50.722
1363.00,50.688
1364.00,50.691
1365.00,50.693
1366.00,50.723
1367.00,50.698
1368.00,50.678
1369.00,50.678
1370.00,50.690
1371.00,50.644
1372.00,50.675
1373.00,50.681
1374.00,50.702
1375.00,50.666
1376.00,50.671
1377.00,50.651
1378.00,50.721
1379.00,50.699
1380.00,50.683
1381.00,50.693
1382.00,50.650
1383.00,50.664
1384.00,50.653
1385.00,50.663
1386.00,50.685
1387.00,50.666
1388.00,50.609
1389.00,50.681
1390.00,50.615
1391.00,50.707
1392.00,50.620
1393.00,50.677
1394.00,50.635
1395.00,50.658
1396.00,50.620
1397.00,50.746
1398.00,50.441
1399.00,50.627
1400.00,50.587
1401.00,50.640
1402.00,50.759
1403.00,50.637
1404.00,50.709
1405.00,50.656
1406.00,50.750
1407.00,50.699
1408.00,50.723
1409.00,50.716
1410.00,50.718
1411.00,50.758
1412.00,50.798
1413.00,50.770
1414.00,50.699
1415.00,50.750
1416.00,50.769
1417.00,50.816
1418.00,50.782
1419.00,50.807
1420.00,50.818
1421.00,50.838
1422.00,50.846
1423.00,50.875
1424.00,50.842
1425.00,50.869
1426.00,50.923
1427.00,50.890
1428.00,50.891
1429.00,50.950
1430.00,50.918
1431.00,50.953
1432.00,50.950
1433.00,50.977
1434.00,50.973
1435.00,51.014
1436.00,51.030
1437.00,51.031
1438.00,51.035
1439.00,51.068
1440.00,51.081
1441.00,51.079
1442.00,51.104
1443.00,51.128
1444.00,51.163
1445.00,51.136
1446.00,51.156
1447.00,51.203
1448.00,51.226
1449.00,51.219
1450.00,51.249
1451.00,51.238
1452.00,51.261
1453.00,51.263
1454.00,51.284
1455.00,51.317
1456.00,51.346
1457.00,51.325
1458.00,51.359
1459.00,51.371
1460.00,51.387
1461.00,51.391
1462.00,51.429
1463.00,51.418
1464.00,51.428
1465.00,51.439
1466.00,51.452
1467.00,51.457
1468.00,51.481
1469.00,51.494
1470.00,51.503
1471.00,51.510
1472.00,51.551
1473.00,51.569
1474.00,51.561
1475.00,51.581
1476.00,51.596
1477.00,51.593
1478.00,51.623
1479.00,51.630
1480.00,51.650
1481.00,51.638
1482.00,51.664
1483.00,51.689
1484.00,51.697
1485.00,51.683
1486.00,51.689
1487.00,51.725
1488.00,51.745
1489.00,51.749
1490.00,51.756
1491.00,51.766
1492.00,51.797
1493.00,51.764
1494.00,51.827
1495.00,51.803
1496.00,51.824
1497.00,51.834
1498.00,51.842
1499.00,51.880
1500.00,51.889
1501.00, 
1502.00, 
1503.00, 
1504.00, 
1505.00, 
1506.00, 
1507.00, 
1508.00, 
1509.00, 
1510.00, 
1511.00, 
1512.00, 
1513.00, 
1514.00, 
1515.00, 
1516.00, 
1517.00, 
1518.00, 
1519.00, 
1520.00, 
1521.00, 
1522.00, 
1523.00, 
1524.00, 
1525.00, 
1526.00, 
1527.00, 
1528.00, 
1529.00, 
1530.00, 
1531.00, 
1532.00, 
1533.00, 
1534.00, 
1535.00, 
1536.00, 
1537.00, 
1538.00, 
1539.00, 
1540.00, 
1541.00, 
1542.00, 
1543.00, 
1544.00, 
1545.00, 
1546.00, 
1547.00, 
1548.00, 
1549.00, 
1550.00, 
1551.00, 
1552.00, 
1553.00, 
1554.00, 
1555.00, 
1556.00, 
1557.00, 
1558.00, 
1559.00, 
1560.00, 
1561.00, 
1562.00, 
1563.00, 
1564.00, 
1565.00, 
1566.00, 
1567.00, 
1568.00, 
1569.00, 
1570.00, 
1571.00, 
1572.00, 
1573.00, 
1574.00, 
1575.00, 
1576.00, 
1577.00, 
1578.00, 
1579.00, 
1580.00, 
1581.00, 
1582.00, 
1583.00, 
1584.00, 
1585.00, 
1586.00, 
1587.00, 
1588.00, 
1589.00, 
1590.00, 
1591.00, 
1592.00, 
1593.00, 
1594.00, 
1595.00, 
1596.00, 
1597.00, 
1598.00, 
1599.00, 
1600.00, 
1601.00, 
1602.00, 
1603.00, 
1604.00, 
1605.00, 
1606.00, 
1607.00, 
1608.00, 
1609.00, 
1610.00, 
1611.00, 
1612.00, 
1613.00, 
1614.00, 
1615.00, 
1616.00, 
1617.00, 
1618.00, 
1619.00, 
1620.00, 
1621.00, 
1622.00, 
1623.00, 
1624.00, 
1625.00, 
1626.00, 
1627.00, 
1628.00, 
1629.00, 
1630.00, 
1631.00, 
1632.00, 
1633.00, 
1634.00, 
1635.00, 
1636.00, 
1637.00, 
1638.00, 
1639.00, 
1640.00, 
1641.00, 
1642.00, 
1643.00, 
1644.00, 
1645.00, 
1646.00, 
1647.00, 
1648.00, 
1649.00, 
1650.00, 
1651.00, 
1652.00, 
1653.00, 
1654.00, 
1655.00, 
1656.00, 
1657.00, 
1658.00, 
1659.00, 
1660.00, 
1661.00, 
1662.00, 
1663.00, 
1664.00, 
1665.00, 
1666.00, 
1667.00, 
1668.00, 
1669.00, 
1670.00, 
1671.00, 
1672.00, 
1673.00, 
1674.00, 
1675.00, 
1676.00, 
1677.00, 
1678.00, 
1679.00, 
1680.00, 
1681.00, 
1682.00, 
1683.00, 
1684.00, 
1685.00, 
1686.00, 
1687.00, 
1688.00, 
1689.00, 
1690.00, 
1691.00, 
1692.00, 
1693.00, 
1694.00, 
1695.00, 
1696.00, 
1697.00, 
1698.00, 
1699.00, 
1700.00, 
1701.00, 
1702.00, 
1703.00, 
1704.00, 
1705.00, 
1706.00, 
1707.00, 
1708.00, 
1709.00, 
1710.00, 
1711.00, 
1712.00, 
1713.00, 
1714.00, 
1715.00, 
1716.00, 
1717.00, 
1718.00, 
1719.00, 
1720.00, 
1721.00, 
1722.00, 
1723.00, 
1724.00, 
1725.00, 
1726.00, 
1727.00, 
1728.00, 
1729.00, 
1730.00, 
1731.00, 
1732.00, 
1733.00, 
1734.00, 
1735.00, 
1736.00, 
1737.00, 
1738.00, 
1739.00, 
1740.00, 
1741.00, 
1742.00, 
1743.00, 
1744.00, 
1745.00, 
1746.00, 
1747.00, 
1748.00, 
1749.00, 
1750.00, 
1751.00, 
1752.00, 
1753.00, 
1754.00, 
1755.00, 
1756.00, 
1757.00, 
1758.00, 
1759.00, 
1760.00, 
1761.00, 
1762.00, 
1763.00, 
1764.00, 
1765.00, 
1766.00, 
1767.00, 
1768.00, 
1769.00, 
1770.00, 
1771.00, 
1772.00, 
1773.00, 
1774.00, 
1775.00, 
1776.00, 
1777.00, 
1778.00, 
1779.00, 
1780.00, 
1781.00, 
1782.00, 
1783.00, 
1784.00, 
1785.00, 
1786.00, 
1787.00, 
1788.00, 
1789.00, 
1790.00, 
1791.00, 
1792.00, 
1793.00, 
1794.00, 
1795.00, 
1796.00, 
1797.00, 
1798.00, 
1799.00, 
1800.00, 
1801.00, 
1802.00, 
1803.00, 
1804.00, 
1805.00, 
1806.00, 
1807.00, 
1808.00, 
1809.00, 
1810.00, 
1811.00, 
1812.00, 
1813.00, 
1814.00, 
1815.00, 
1816.00, 
1817.00, 
1818.00, 
1819.00, 
1820.00, 
1821.00, 
1822.00, 
1823.00, 
1824.00, 
1825.00, 
1826.00, 
1827.00, 
1828.00, 
1829.00, 
1830.00, 
1831.00, 
1832.00, 
1833.00, 
1834.00, 
1835.00, 
1836.00, 
1837.00, 
1838.00, 
1839.00, 
1840.00, 
1841.00, 
1842.00, 
1843.00, 
1844.00, 
1845.00, 
1846.00, 
1847.00, 
1848.00, 
1849.00, 
1850.00, 
1851.00, 
1852.00, 
1853.00, 
1854.00, 
1855.00, 
1856.00, 
1857.00, 
1858.00, 
1859.00, 
1860.00, 
1861.00, 
1862.00, 
1863.00, 
1864.00, 
1865.00, 
1866.00, 
1867.00, 
1868.00, 
1869.00, 
1870.00, 
1871.00, 
1872.00, 
1873.00, 
1874.00, 
1875.00, 
1876.00, 
1877.00, 
1878.00, 
1879.00, 
1880.00, 
1881.00, 
1882.00, 
1883.00, 
1884.00, 
1885.00, 
1886.00, 
1887.00, 
1888.00, 
1889.00, 
1890.00, 
1891.00, 
1892.00, 
1893.00, 
1894.00, 
1895.00, 
1896.00, 
1897.00, 
1898.00, 
1899.00, 
1900.00, 
1901.00, 
1902.00, 
1903.00, 
1904.00, 
1905.00, 
1906.00, 
1907.00, 
1908.00, 
1909.00, 
1910.00, 
1911.00, 
1912.00, 
1913.00, 
1914.00, 
1915.00, 
1916.00, 
1917.00, 
1918.00, 
1919.00, 
1920.00, 
1921.00, 
1922.00, 
1923.00, 
1924.00, 
1925.00, 
1926.00, 
1927.00, 
1928.00, 
1929.00, 
1930.00, 
1931.00, 
1932.00, 
1933.00, 
1934.00, 
1935.00, 
1936.00, 
1937.00, 
1938.00, 
1939.00, 
1940.00, 
1941.00, 
1942.00, 
1943.00, 
1944.00, 
1945.00, 
1946.00, 
1947.00, 
1948.00, 
1949.00, 
1950.00, 
1951.00, 
1952.00, 
1953.00, 
1954.00, 
1955.00, 
1956.00, 
1957.00, 
1958.00, 
1959.00, 
1960.00, 
1961.00, 
1962.00, 
1963.00, 
1964.00, 
1965.00, 
1966.00, 
1967.00, 
1968.00, 
1969.00, 
1970.00, 
1971.00, 
1972.00, 
1973.00, 
1974.00, 
1975.00, 
1976.00, 
1977.00, 
1978.00, 
1979.00, 
1980.00, 
1981.00, 
1982.00, 
1983.00, 
1984.00, 
1985.00, 
1986.00, 
1987.00, 
1988.00, 
1989.00, 
1990.00, 
1991.00, 
1992.00, 
1993.00, 
1994.00, 
1995.00, 
1996.00, 
1997.00, 
1998.00, 
1999.00, 
2000.00, 
2001.00, 
2002.00, 
2003.00, 
2004.00, 
2005.00, 
2006.00, 
2007.00, 
2008.00, 
2009.00, 
2010.00, 
2011.00, 
2012.00, 
2013.00, 
2014.00, 
2015.00, 
2016.00, 
2017.00, 
2018.00, 
2019.00, 
2020.00, 
2021.00, 
2022.00, 
2023.00, 
2024.00, 
2025.00, 
2026.00, 
2027.00, 
2028.00, 
2029.00, 
2030.00, 
2031.00, 
2032.00, 
2033.00, 
2034.00, 
2035.00, 
2036.00, 
2037.00, 
2038.00, 
2039.00, 
2040.00, 
2041.00, 
2042.00, 
2043.00, 
2044.00, 
2045.00, 
2046.00, 
2047.00, 
2048.00, 
2049.00, 
2050.00, 
2051.00, 
2052.00, 
2053.00, 
2054.00, 
2055.00, 
2056.00, 
2057.00, 
2058.00, 
2059.00, 
2060.00, 
2061.00, 
2062.00, 
2063.00, 
2064.00, 
2065.00, 
2066.00, 
2067.00, 
2068.00, 
2069.00, 
2070.00, 
2071.00, 
2072.00, 
2073.00, 
2074.00, 
2075.00, 
2076.00, 
2077.00, 
2078.00, 
2079.00, 
2080.00, 
2081.00, 
2082.00, 
2083.00, 
2084.00, 
2085.00, 
2086.00, 
2087.00, 
2088.00, 
2089.00, 
2090.00, 
2091.00, 
2092.00, 
2093.00, 
2094.00, 
2095.00, 
2096.00, 
2097.00, 
2098.00, 
2099.00, 
2100.00, 
2101.00, 
2102.00, 
2103.00, 
2104.00, 
2105.00, 
2106.00, 
2107.00, 
2108.00, 
2109.00, 
2110.00, 
2111.00, 
2112.00, 
2113.00, 
2114.00, 
2115.00, 
2116.00, 
2117.00, 
2118.00, 
2119.00, 
2120.00, 
2121.00, 
2122.00, 
2123.00, 
2124.00, 
2125.00, 
2126.00, 
2127.00, 
2128.00, 
2129.00, 
2130.00, 
2131.00, 
2132.00, 
2133.00, 
2134.00, 
2135.00, 
2136.00, 
2137.00, 
2138.00, 
2139.00, 
2140.00, 
2141.00, 
2142.00, 
2143.00, 
2144.00, 
2145.00, 
2146.00, 
2147.00, 
2148.00, 
2149.00, 
2150.00, 
2151.00, 
2152.00, 
2153.00, 
2154.00, 
2155.00, 
2156.00, 
2157.00, 
2158.00, 
2159.00, 
2160.00, 
2161.00, 
2162.00, 
2163.00, 
2164.00, 
2165.00, 
2166.00, 
2167.00, 
2168.00, 
2169.00, 
2170.00, 
2171.00, 
2172.00, 
2173.00, 
2174.00, 
2175.00, 
2176.00, 
2177.00, 
2178.00, 
2179.00, 
2180.00, 
2181.00, 
2182.00, 
2183.00, 
2184.00, 
2185.00, 
2186.00, 
2187.00, 
2188.00, 
2189.00, 
2190.00, 
2191.00, 
2192.00, 
2193.00, 
2194.00, 
2195.00, 
2196.00, 
2197.00, 
2198.00, 
2199.00, 
2200.00, 
2201.00, 
2202.00, 
2203.00, 
2204.00, 
2205.00, 
2206.00, 
2207.00, 
2208.00, 
2209.00, 
2210.00, 
2211.00, 
2212.00, 
2213.00, 
2214.00, 
2215.00, 
2216.00, 
2217.00, 
2218.00, 
2219.00, 
2220.00, 
2221.00, 
2222.00, 
2223.00, 
2224.00, 
2225.00, 
2226.00, 
2227.00, 
2228.00, 
2229.00, 
2230.00, 
2231.00, 
2232.00, 
2233.00, 
2234.00, 
2235.00, 
2236.00, 
2237.00, 
2238.00, 
2239.00, 
2240.00, 
2241.00, 
2242.00, 
2243.00, 
2244.00, 
2245.00, 
2246.00, 
2247.00, 
2248.00, 
2249.00, 
2250.00, 
2251.00, 
2252.00, 
2253.00, 
2254.00, 
2255.00, 
2256.00, 
2257.00, 
2258.00, 
2259.00, 
2260.00, 
2261.00, 
2262.00, 
2263.00, 
2264.00, 
2265.00, 
2266.00, 
2267.00, 
2268.00, 
2269.00, 
2270.00, 
2271.00, 
2272.00, 
2273.00, 
2274.00, 
2275.00, 
2276.00, 
2277.00, 
2278.00, 
2279.00, 
2280.00, 
2281.00, 
2282.00, 
2283.00, 
2284.00, 
2285.00, 
2286.00, 
2287.00, 
2288.00, 
2289.00, 
2290.00, 
2291.00, 
2292.00, 
2293.00, 
2294.00, 
2295.00, 
2296.00, 
2297.00, 
2298.00, 
2299.00, 
2300.00, 
2301.00, 
2302.00, 
2303.00, 
2304.00, 
2305.00, 
2306.00, 
2307.00, 
2308.00, 
2309.00, 
2310.00, 
2311.00, 
2312.00, 
2313.00, 
2314.00, 
2315.00, 
2316.00, 
2317.00, 
2318.00, 
2319.00, 
2320.00, 
2321.00, 
2322.00, 
2323.00, 
2324.00, 
2325.00, 
2326.00, 
2327.00, 
2328.00, 
2329.00, 
2330.00, 
2331.00, 
2332.00, 
2333.00, 
2334.00, 
2335.00, 
2336.00, 
2337.00, 
2338.00, 
2339.00, 
2340.00, 
2341.00, 
2342.00, 
2343.00, 
2344.00, 
2345.00, 
2346.00, 
2347.00, 
2348.00, 
2349.00, 
2350.00, 
2351.00, 
2352.00, 
2353.00, 
2354.00, 
2355.00, 
2356.00, 
2357.00, 
2358.00, 
2359.00, 
2360.00, 
2361.00, 
2362.00, 
2363.00, 
2364.00, 
2365.00, 
2366.00, 
2367.00, 
2368.00, 
2369.00, 
2370.00, 
2371.00, 
2372.00, 
2373.00, 
2374.00, 
2375.00, 
2376.00, 
2377.00, 
2378.00, 
2379.00, 
2380.00, 
2381.00, 
2382.00, 
2383.00, 
2384.00, 
2385.00, 
2386.00, 
2387.00, 
2388.00, 
2389.00, 
2390.00, 
2391.00, 
2392.00, 
2393.00, 
2394.00, 
2395.00, 
2396.00, 
2397.00, 
2398.00, 
2399.00, 
2400.00, 
2401.00, 
2402.00, 
2403.00, 
2404.00, 
2405.00, 
2406.00, 
2407.00, 
2408.00, 
2409.00, 
2410.00, 
2411.00, 
2412.00, 
2413.00, 
2414.00, 
2415.00, 
2416.00, 
2417.00, 
2418.00, 
2419.00, 
2420.00, 
2421.00, 
2422.00, 
2423.00, 
2424.00, 
2425.00, 
2426.00, 
2427.00, 
2428.00, 
2429.00, 
2430.00, 
2431.00, 
2432.00, 
2433.00, 
2434.00, 
2435.00, 
2436.00, 
2437.00, 
2438.00, 
2439.00, 
2440.00, 
2441.00, 
2442.00, 
2443.00, 
2444.00, 
2445.00, 
2446.00, 
2447.00, 
2448.00, 
2449.00, 
2450.00, 
2451.00, 
2452.00, 
2453.00, 
2454.00, 
2455.00, 
2456.00, 
2457.00, 
2458.00, 
2459.00, 
2460.00, 
2461.00, 
2462.00, 
2463.00, 
2464.00, 
2465.00, 
2466.00, 
2467.00, 
2468.00, 
2469.00, 
2470.00, 
2471.00, 
2472.00, 
2473.00, 
2474.00, 
2475.00, 
2476.00, 
2477.00, 
2478.00, 
2479.00, 
2480.00, 
2481.00, 
2482.00, 
2483.00, 
2484.00, 
2485.00, 
2486.00, 
2487.00, 
2488.00, 
2489.00, 
2490.00, 
2491.00, 
2492.00, 
2493.00, 
2494.00, 
2495.00, 
2496.00, 
2497.00, 
2498.00, 
2499.00, 
2500.00, 
2501.00, 
2502.00, 
2503.00, 
2504.00, 
2505.00, 
2506.00, 
2507.00, 
2508.00, 
2509.00, 
2510.00, 
2511.00, 
2512.00, 
2513.00, 
2514.00, 
2515.00, 
2516.00, 
2517.00, 
2518.00, 
2519.00, 
2520.00, 
2521.00, 
2522.00, 
2523.00, 
2524.00, 
2525.00, 
2526.00, 
2527.00, 
2528.00, 
2529.00, 
2530.00, 
2531.00, 
2532.00, 
2533.00, 
2534.00, 
2535.00, 
2536.00, 
2537.00, 
2538.00, 
2539.00, 
2540.00, 
2541.00, 
2542.00, 
2543.00, 
2544.00, 
2545.00, 
2546.00, 
2547.00, 
2548.00, 
2549.00, 
2550.00, 
2551.00, 
2552.00, 
2553.00, 
2554.00, 
2555.00, 
2556.00, 
2557.00, 
2558.00, 
2559.00, 
2560.00, 
2561.00, 
2562.00, 
2563.00, 
2564.00, 
2565.00, 
2566.00, 
2567.00, 
2568.00, 
2569.00, 
2570.00, 
2571.00, 
2572.00, 
2573.00, 
2574.00, 
2575.00, 
2576.00, 
2577.00, 
2578.00, 
2579.00, 
2580.00, 
2581.00, 
2582.00, 
2583.00, 
2584.00, 
2585.00, 
2586.00, 
2587.00, 
2588.00, 
2589.00, 
2590.00, 
2591.00, 
2592.00, 
2593.00, 
2594.00, 
2595.00, 
2596.00, 
2597.00, 
2598.00, 
2599.00, 
2600.00, 
