"1aP2 - RawData"
"Wavelength nm.","T%"
200.00,0.002
201.00,0.001
202.00,0.002
203.00,-0.000
204.00,0.000
205.00,0.001
206.00,0.002
207.00,0.001
208.00,-0.000
209.00,0.001
210.00,0.001
211.00,0.002
212.00,-0.001
213.00,0.000
214.00,0.002
215.00,0.001
216.00,0.001
217.00,0.003
218.00,-0.002
219.00,0.005
220.00,0.000
221.00,0.002
222.00,-0.000
223.00,-0.000
224.00,-0.000
225.00,0.001
226.00,-0.000
227.00,-0.001
228.00,0.001
229.00,0.000
230.00,0.004
231.00,0.000
232.00,0.000
233.00,0.001
234.00,-0.001
235.00,0.002
236.00,0.000
237.00,0.002
238.00,-0.000
239.00,0.001
240.00,-0.001
241.00,0.000
242.00,0.001
243.00,0.001
244.00,0.001
245.00,0.001
246.00,0.000
247.00,-0.001
248.00,0.001
249.00,0.001
250.00,0.001
251.00,0.000
252.00,-0.001
253.00,0.001
254.00,-0.002
255.00,-0.001
256.00,0.000
257.00,0.001
258.00,-0.001
259.00,0.000
260.00,-0.000
261.00,0.001
262.00,0.000
263.00,0.001
264.00,0.001
265.00,-0.001
266.00,0.004
267.00,-0.001
268.00,-0.001
269.00,-0.001
270.00,0.000
271.00,-0.000
272.00,0.000
273.00,-0.002
274.00,0.000
275.00,0.000
276.00,-0.002
277.00,-0.000
278.00,0.001
279.00,-0.000
280.00,0.001
281.00,-0.001
282.00,-0.001
283.00,-0.000
284.00,-0.000
285.00,0.002
286.00,0.000
287.00,0.001
288.00,0.002
289.00,0.001
290.00,0.002
291.00,0.002
292.00,0.001
293.00,0.001
294.00,0.000
295.00,0.001
296.00,-0.000
297.00,0.000
298.00,0.001
299.00,0.002
300.00,0.003
301.00,0.005
302.00,0.009
303.00,0.012
304.00,0.020
305.00,0.034
306.00,0.050
307.00,0.075
308.00,0.111
309.00,0.176
310.00,0.241
311.00,0.325
312.00,0.448
313.00,0.607
314.00,0.789
315.00,1.009
316.00,1.279
317.00,1.598
318.00,1.958
319.00,2.383
320.00,2.863
321.00,3.416
322.00,4.009
323.00,4.689
324.00,5.381
325.00,6.114
326.00,6.856
327.00,7.657
328.00,8.496
329.00,9.335
330.00,10.237
331.00,11.025
332.00,11.970
333.00,12.920
334.00,13.727
335.00,14.676
336.00,15.546
337.00,16.429
338.00,17.310
339.00,18.039
340.00,18.865
341.00,19.655
342.00,20.312
343.00,21.084
344.00,21.713
345.00,22.403
346.00,22.962
347.00,23.502
348.00,24.033
349.00,24.495
350.00,24.976
351.00,25.382
352.00,25.772
353.00,26.163
354.00,26.443
355.00,26.809
356.00,27.129
357.00,27.396
358.00,27.518
359.00,27.905
360.00,28.183
361.00,28.364
362.00,28.526
363.00,28.756
364.00,28.893
365.00,29.013
366.00,29.134
367.00,29.192
368.00,29.333
369.00,29.364
370.00,29.420
371.00,29.403
372.00,29.392
373.00,29.382
374.00,29.407
375.00,29.357
376.00,29.342
377.00,29.277
378.00,29.183
379.00,29.143
380.00,29.066
381.00,29.058
382.00,29.028
383.00,29.122
384.00,29.170
385.00,29.213
386.00,29.169
387.00,29.311
388.00,29.294
389.00,29.348
390.00,29.435
391.00,29.504
392.00,29.530
393.00,29.568
394.00,29.588
395.00,29.590
396.00,29.557
397.00,29.595
398.00,29.616
399.00,29.628
400.00,29.620
401.00,29.634
402.00,29.656
403.00,29.635
404.00,29.644
405.00,29.628
406.00,29.638
407.00,29.609
408.00,29.591
409.00,29.525
410.00,29.454
411.00,29.439
412.00,29.428
413.00,29.425
414.00,29.401
415.00,29.452
416.00,29.510
417.00,29.515
418.00,29.516
419.00,29.558
420.00,29.623
421.00,29.680
422.00,29.685
423.00,29.696
424.00,29.777
425.00,29.833
426.00,29.840
427.00,29.922
428.00,29.940
429.00,29.965
430.00,30.015
431.00,30.074
432.00,30.117
433.00,30.198
434.00,30.232
435.00,30.295
436.00,30.354
437.00,30.411
438.00,30.479
439.00,30.583
440.00,30.624
441.00,30.589
442.00,30.799
443.00,30.848
444.00,30.984
445.00,31.025
446.00,31.158
447.00,31.219
448.00,31.314
449.00,31.440
450.00,31.489
451.00,31.624
452.00,31.719
453.00,31.825
454.00,31.945
455.00,31.996
456.00,32.110
457.00,32.305
458.00,32.321
459.00,32.509
460.00,32.630
461.00,32.742
462.00,32.841
463.00,32.997
464.00,33.105
465.00,33.251
466.00,33.362
467.00,33.472
468.00,33.582
469.00,33.703
470.00,33.719
471.00,33.891
472.00,33.996
473.00,34.065
474.00,34.131
475.00,34.240
476.00,34.340
477.00,34.468
478.00,34.567
479.00,34.748
480.00,34.848
481.00,34.965
482.00,35.045
483.00,35.191
484.00,35.424
485.00,35.490
486.00,35.657
487.00,35.737
488.00,35.958
489.00,36.097
490.00,36.245
491.00,36.322
492.00,36.544
493.00,36.657
494.00,36.649
495.00,36.797
496.00,36.885
497.00,37.052
498.00,37.198
499.00,37.305
500.00,37.401
501.00,37.537
502.00,37.646
503.00,37.751
504.00,37.820
505.00,37.866
506.00,38.072
507.00,38.075
508.00,38.178
509.00,38.313
510.00,38.443
511.00,38.523
512.00,38.619
513.00,38.770
514.00,38.807
515.00,39.058
516.00,39.128
517.00,39.248
518.00,39.302
519.00,39.399
520.00,39.421
521.00,39.491
522.00,39.572
523.00,39.648
524.00,39.721
525.00,39.812
526.00,39.837
527.00,39.913
528.00,40.014
529.00,40.073
530.00,40.224
531.00,40.352
532.00,40.434
533.00,40.495
534.00,40.586
535.00,40.676
536.00,40.705
537.00,40.782
538.00,40.910
539.00,40.860
540.00,40.951
541.00,40.936
542.00,40.886
543.00,41.074
544.00,41.160
545.00,41.132
546.00,41.220
547.00,41.332
548.00,41.355
549.00,41.458
550.00,41.533
551.00,41.620
552.00,41.684
553.00,41.722
554.00,41.758
555.00,41.751
556.00,41.858
557.00,41.912
558.00,41.907
559.00,42.008
560.00,42.089
561.00,42.081
562.00,42.122
563.00,42.130
564.00,42.175
565.00,42.206
566.00,42.192
567.00,42.178
568.00,42.307
569.00,42.395
570.00,42.327
571.00,42.423
572.00,42.446
573.00,42.461
574.00,42.464
575.00,42.481
576.00,42.442
577.00,42.482
578.00,42.572
579.00,42.613
580.00,42.672
581.00,42.801
582.00,42.823
583.00,42.925
584.00,43.009
585.00,43.026
586.00,43.019
587.00,43.052
588.00,43.117
589.00,43.045
590.00,43.086
591.00,43.175
592.00,43.124
593.00,43.236
594.00,43.268
595.00,43.274
596.00,43.331
597.00,43.406
598.00,43.491
599.00,43.525
600.00,43.554
601.00,43.566
602.00,43.555
603.00,43.604
604.00,43.591
605.00,43.608
606.00,43.700
607.00,43.701
608.00,43.769
609.00,43.781
610.00,43.783
611.00,43.818
612.00,43.884
613.00,43.831
614.00,43.893
615.00,44.002
616.00,44.085
617.00,44.108
618.00,44.090
619.00,44.207
620.00,44.226
621.00,44.213
622.00,44.332
623.00,44.363
624.00,44.390
625.00,44.437
626.00,44.447
627.00,44.482
628.00,44.485
629.00,44.607
630.00,44.587
631.00,44.546
632.00,44.639
633.00,44.786
634.00,44.812
635.00,44.937
636.00,44.968
637.00,45.034
638.00,45.092
639.00,45.118
640.00,45.209
641.00,45.152
642.00,45.265
643.00,45.339
644.00,45.398
645.00,45.420
646.00,45.524
647.00,45.545
648.00,45.588
649.00,45.661
650.00,45.694
651.00,45.658
652.00,45.780
653.00,45.864
654.00,45.799
655.00,45.903
656.00,46.107
657.00,46.300
658.00,46.299
659.00,46.471
660.00,46.461
661.00,46.323
662.00,46.449
663.00,46.519
664.00,46.654
665.00,46.738
666.00,46.706
667.00,46.948
668.00,46.840
669.00,46.998
670.00,47.181
671.00,47.108
672.00,47.086
673.00,47.226
674.00,47.340
675.00,47.410
676.00,47.465
677.00,47.582
678.00,47.449
679.00,47.633
680.00,47.696
681.00,47.645
682.00,47.861
683.00,47.875
684.00,47.965
685.00,47.917
686.00,47.919
687.00,48.083
688.00,48.029
689.00,48.082
690.00,48.373
691.00,48.441
692.00,48.363
693.00,48.418
694.00,48.481
695.00,48.649
696.00,48.695
697.00,48.784
698.00,48.738
699.00,48.923
700.00,49.027
701.00,49.029
702.00,49.104
703.00,49.270
704.00,49.295
705.00,49.265
706.00,49.299
707.00,49.341
708.00,49.168
709.00,49.306
710.00,49.741
711.00,49.525
712.00,49.510
713.00,49.591
714.00,49.568
715.00,49.707
716.00,49.702
717.00,49.692
718.00,49.880
719.00,49.853
720.00,50.010
721.00,54.241
722.00,54.330
723.00,54.223
724.00,54.282
725.00,54.205
726.00,54.240
727.00,54.268
728.00,54.380
729.00,54.280
730.00,54.335
731.00,54.323
732.00,54.318
733.00,54.369
734.00,54.336
735.00,54.391
736.00,54.348
737.00,54.284
738.00,54.503
739.00,54.430
740.00,54.404
741.00,54.428
742.00,54.459
743.00,54.400
744.00,54.425
745.00,54.440
746.00,54.412
747.00,54.475
748.00,54.359
749.00,54.294
750.00,54.363
751.00,54.272
752.00,54.335
753.00,54.250
754.00,54.368
755.00,54.405
756.00,54.385
757.00,54.307
758.00,54.361
759.00,54.264
760.00,54.369
761.00,54.318
762.00,54.298
763.00,54.365
764.00,54.221
765.00,54.344
766.00,54.323
767.00,54.334
768.00,54.379
769.00,54.420
770.00,54.328
771.00,54.327
772.00,54.373
773.00,54.299
774.00,54.285
775.00,54.385
776.00,54.378
777.00,54.281
778.00,54.234
779.00,54.320
780.00,54.262
781.00,54.335
782.00,54.170
783.00,54.236
784.00,54.279
785.00,54.173
786.00,54.290
787.00,54.256
788.00,54.238
789.00,54.175
790.00,54.059
791.00,54.215
792.00,54.097
793.00,54.011
794.00,54.122
795.00,54.101
796.00,54.116
797.00,53.997
798.00,54.036
799.00,54.018
800.00,53.923
801.00,53.975
802.00,53.941
803.00,53.904
804.00,53.901
805.00,53.937
806.00,53.819
807.00,53.810
808.00,53.870
809.00,53.823
810.00,53.758
811.00,53.792
812.00,53.917
813.00,53.648
814.00,53.734
815.00,53.744
816.00,53.739
817.00,53.704
818.00,53.607
819.00,53.709
820.00,53.512
821.00,53.662
822.00,53.652
823.00,53.587
824.00,53.661
825.00,53.420
826.00,53.476
827.00,53.626
828.00,53.520
829.00,53.421
830.00,53.551
831.00,56.006
832.00,56.031
833.00,55.980
834.00,55.958
835.00,55.894
836.00,55.934
837.00,55.901
838.00,55.894
839.00,55.868
840.00,55.797
841.00,55.830
842.00,55.829
843.00,55.789
844.00,55.760
845.00,55.731
846.00,55.780
847.00,55.722
848.00,55.719
849.00,55.662
850.00,55.619
851.00,55.607
852.00,55.603
853.00,55.536
854.00,55.483
855.00,55.482
856.00,55.465
857.00,55.464
858.00,55.400
859.00,55.352
860.00,55.495
861.00,55.405
862.00,55.316
863.00,55.364
864.00,55.281
865.00,55.316
866.00,55.305
867.00,55.318
868.00,55.296
869.00,55.270
870.00,55.270
871.00,55.275
872.00,55.237
873.00,55.263
874.00,55.159
875.00,55.177
876.00,55.222
877.00,55.218
878.00,55.153
879.00,55.177
880.00,55.123
881.00,55.123
882.00,55.142
883.00,55.109
884.00,55.073
885.00,55.071
886.00,55.090
887.00,55.030
888.00,55.007
889.00,54.990
890.00,54.988
891.00,54.955
892.00,54.944
893.00,54.945
894.00,54.927
895.00,54.878
896.00,54.866
897.00,54.839
898.00,54.828
899.00,54.844
900.00,54.786
901.00,54.821
902.00,54.807
903.00,54.686
904.00,54.731
905.00,54.754
906.00,54.709
907.00,54.735
908.00,54.676
909.00,54.661
910.00,54.618
911.00,54.610
912.00,54.630
913.00,54.551
914.00,54.568
915.00,54.548
916.00,54.524
917.00,54.494
918.00,54.524
919.00,54.479
920.00,54.434
921.00,54.435
922.00,54.469
923.00,54.404
924.00,54.397
925.00,54.399
926.00,54.345
927.00,54.318
928.00,54.344
929.00,54.314
930.00,54.283
931.00,54.258
932.00,54.219
933.00,54.237
934.00,54.202
935.00,54.175
936.00,54.164
937.00,54.145
938.00,54.160
939.00,54.155
940.00,54.106
941.00,54.113
942.00,54.086
943.00,54.075
944.00,54.024
945.00,54.045
946.00,54.026
947.00,53.993
948.00,53.963
949.00,53.947
950.00,53.924
951.00,53.899
952.00,53.888
953.00,53.849
954.00,53.835
955.00,53.799
956.00,53.770
957.00,53.754
958.00,53.777
959.00,53.628
960.00,53.709
961.00,53.781
962.00,53.719
963.00,53.668
964.00,53.652
965.00,53.656
966.00,53.654
967.00,53.644
968.00,53.626
969.00,53.664
970.00,53.625
971.00,53.633
972.00,53.588
973.00,53.628
974.00,53.651
975.00,53.610
976.00,53.620
977.00,53.621
978.00,53.653
979.00,53.603
980.00,53.625
981.00,53.657
982.00,53.588
983.00,53.619
984.00,53.600
985.00,53.630
986.00,53.585
987.00,53.607
988.00,53.650
989.00,53.573
990.00,53.553
991.00,53.540
992.00,53.558
993.00,53.518
994.00,53.499
995.00,53.489
996.00,53.490
997.00,53.460
998.00,53.450
999.00,53.480
1000.00,53.433
1001.00,53.428
1002.00,53.448
1003.00,53.440
1004.00,53.391
1005.00,53.359
1006.00,53.416
1007.00,53.370
1008.00,53.363
1009.00,53.352
1010.00,53.354
1011.00,53.333
1012.00,53.317
1013.00,53.325
1014.00,53.294
1015.00,53.297
1016.00,53.258
1017.00,53.245
1018.00,53.226
1019.00,53.204
1020.00,53.185
1021.00,53.193
1022.00,53.232
1023.00,53.137
1024.00,53.139
1025.00,53.124
1026.00,53.125
1027.00,53.101
1028.00,53.086
1029.00,53.086
1030.00,53.051
1031.00,53.060
1032.00,53.030
1033.00,53.017
1034.00,52.997
1035.00,52.941
1036.00,52.928
1037.00,52.944
1038.00,52.905
1039.00,52.878
1040.00,52.881
1041.00,52.850
1042.00,52.850
1043.00,52.829
1044.00,52.855
1045.00,52.832
1046.00,52.827
1047.00,52.836
1048.00,52.860
1049.00,52.853
1050.00,52.872
1051.00,52.904
1052.00,52.911
1053.00,52.920
1054.00,52.922
1055.00,52.924
1056.00,52.933
1057.00,52.947
1058.00,52.939
1059.00,52.942
1060.00,52.933
1061.00,52.928
1062.00,52.912
1063.00,52.915
1064.00,52.919
1065.00,52.921
1066.00,52.897
1067.00,52.905
1068.00,52.930
1069.00,52.895
1070.00,52.870
1071.00,52.862
1072.00,52.881
1073.00,52.858
1074.00,52.841
1075.00,52.837
1076.00,52.845
1077.00,52.817
1078.00,52.794
1079.00,52.799
1080.00,52.812
1081.00,52.783
1082.00,52.811
1083.00,52.827
1084.00,52.787
1085.00,52.789
1086.00,52.778
1087.00,52.791
1088.00,52.753
1089.00,52.732
1090.00,52.746
1091.00,52.743
1092.00,52.721
1093.00,52.697
1094.00,52.699
1095.00,52.685
1096.00,52.653
1097.00,52.683
1098.00,52.707
1099.00,52.660
1100.00,52.648
1101.00,52.654
1102.00,52.641
1103.00,52.644
1104.00,52.626
1105.00,52.612
1106.00,52.603
1107.00,52.579
1108.00,52.567
1109.00,52.572
1110.00,52.553
1111.00,52.540
1112.00,52.552
1113.00,52.543
1114.00,52.531
1115.00,52.533
1116.00,52.532
1117.00,52.515
1118.00,52.515
1119.00,52.518
1120.00,52.516
1121.00,52.495
1122.00,52.486
1123.00,52.483
1124.00,52.467
1125.00,52.462
1126.00,52.455
1127.00,52.463
1128.00,52.458
1129.00,52.451
1130.00,52.440
1131.00,52.451
1132.00,52.444
1133.00,52.416
1134.00,52.427
1135.00,52.404
1136.00,52.412
1137.00,52.418
1138.00,52.418
1139.00,52.417
1140.00,52.397
1141.00,52.398
1142.00,52.391
1143.00,52.435
1144.00,52.402
1145.00,52.383
1146.00,52.375
1147.00,52.363
1148.00,52.366
1149.00,52.382
1150.00,52.386
1151.00,52.376
1152.00,52.342
1153.00,52.373
1154.00,52.359
1155.00,52.343
1156.00,52.351
1157.00,52.341
1158.00,52.347
1159.00,52.354
1160.00,52.346
1161.00,52.377
1162.00,52.366
1163.00,52.358
1164.00,52.370
1165.00,52.376
1166.00,52.360
1167.00,52.355
1168.00,52.364
1169.00,52.353
1170.00,52.339
1171.00,52.324
1172.00,52.333
1173.00,52.319
1174.00,52.332
1175.00,52.341
1176.00,52.341
1177.00,52.330
1178.00,52.338
1179.00,52.349
1180.00,52.342
1181.00,52.351
1182.00,52.334
1183.00,52.317
1184.00,52.292
1185.00,52.314
1186.00,52.317
1187.00,52.321
1188.00,52.297
1189.00,52.312
1190.00,52.307
1191.00,52.327
1192.00,52.360
1193.00,52.352
1194.00,52.342
1195.00,52.325
1196.00,52.342
1197.00,52.363
1198.00,52.334
1199.00,52.334
1200.00,52.345
1201.00,52.350
1202.00,52.353
1203.00,52.330
1204.00,52.339
1205.00,52.376
1206.00,52.331
1207.00,52.339
1208.00,52.327
1209.00,52.334
1210.00,52.324
1211.00,52.346
1212.00,52.342
1213.00,52.303
1214.00,52.318
1215.00,52.307
1216.00,52.328
1217.00,52.318
1218.00,52.338
1219.00,52.348
1220.00,52.311
1221.00,52.332
1222.00,52.326
1223.00,52.345
1224.00,52.335
1225.00,52.326
1226.00,52.345
1227.00,52.340
1228.00,52.355
1229.00,52.338
1230.00,52.373
1231.00,52.365
1232.00,52.382
1233.00,52.382
1234.00,52.381
1235.00,52.386
1236.00,52.373
1237.00,52.382
1238.00,52.391
1239.00,52.390
1240.00,52.391
1241.00,52.404
1242.00,52.412
1243.00,52.392
1244.00,52.404
1245.00,52.430
1246.00,52.412
1247.00,52.410
1248.00,52.401
1249.00,52.427
1250.00,52.441
1251.00,52.423
1252.00,52.445
1253.00,52.434
1254.00,52.439
1255.00,52.450
1256.00,52.438
1257.00,52.431
1258.00,52.446
1259.00,52.456
1260.00,52.475
1261.00,52.477
1262.00,52.462
1263.00,52.479
1264.00,52.460
1265.00,52.488
1266.00,52.487
1267.00,52.486
1268.00,52.496
1269.00,52.494
1270.00,52.527
1271.00,52.522
1272.00,52.518
1273.00,52.539
1274.00,52.552
1275.00,52.541
1276.00,52.534
1277.00,52.548
1278.00,52.548
1279.00,52.546
1280.00,52.535
1281.00,52.563
1282.00,52.584
1283.00,52.566
1284.00,52.590
1285.00,52.598
1286.00,52.596
1287.00,52.587
1288.00,52.601
1289.00,52.598
1290.00,52.629
1291.00,52.617
1292.00,52.598
1293.00,52.612
1294.00,52.612
1295.00,52.633
1296.00,52.653
1297.00,52.662
1298.00,52.681
1299.00,52.672
1300.00,52.683
1301.00,52.679
1302.00,52.690
1303.00,52.686
1304.00,52.674
1305.00,52.689
1306.00,52.689
1307.00,52.710
1308.00,52.709
1309.00,52.701
1310.00,52.703
1311.00,52.691
1312.00,52.702
1313.00,52.704
1314.00,52.730
1315.00,52.742
1316.00,52.733
1317.00,52.757
1318.00,52.770
1319.00,52.773
1320.00,52.774
1321.00,52.960
1322.00,52.949
1323.00,52.914
1324.00,52.934
1325.00,52.923
1326.00,52.932
1327.00,52.926
1328.00,52.925
1329.00,52.930
1330.00,52.925
1331.00,52.938
1332.00,52.922
1333.00,52.928
1334.00,52.924
1335.00,52.980
1336.00,52.988
1337.00,53.026
1338.00,53.060
1339.00,53.152
1340.00,53.198
1341.00,53.256
1342.00,53.307
1343.00,53.362
1344.00,53.413
1345.00,53.458
1346.00,53.488
1347.00,53.503
1348.00,53.529
1349.00,53.531
1350.00,53.574
1351.00,53.588
1352.00,53.559
1353.00,53.583
1354.00,53.616
1355.00,53.697
1356.00,53.612
1357.00,53.616
1358.00,53.650
1359.00,53.655
1360.00,53.665
1361.00,53.762
1362.00,53.531
1363.00,53.696
1364.00,53.798
1365.00,53.659
1366.00,53.741
1367.00,53.674
1368.00,53.583
1369.00,53.735
1370.00,53.612
1371.00,53.562
1372.00,53.621
1373.00,53.634
1374.00,53.626
1375.00,53.626
1376.00,53.609
1377.00,53.592
1378.00,53.600
1379.00,53.638
1380.00,53.646
1381.00,53.675
1382.00,53.694
1383.00,53.686
1384.00,53.600
1385.00,53.579
1386.00,53.631
1387.00,53.682
1388.00,53.593
1389.00,53.608
1390.00,53.595
1391.00,53.645
1392.00,53.628
1393.00,53.612
1394.00,53.712
1395.00,53.671
1396.00,53.551
1397.00,53.514
1398.00,53.621
1399.00,53.626
1400.00,53.461
1401.00,53.599
1402.00,53.693
1403.00,53.630
1404.00,53.646
1405.00,53.686
1406.00,53.679
1407.00,53.652
1408.00,53.731
1409.00,53.677
1410.00,53.681
1411.00,53.662
1412.00,53.759
1413.00,53.682
1414.00,53.617
1415.00,53.685
1416.00,53.820
1417.00,53.810
1418.00,53.700
1419.00,53.715
1420.00,53.752
1421.00,53.830
1422.00,53.790
1423.00,53.798
1424.00,53.817
1425.00,53.828
1426.00,53.824
1427.00,53.857
1428.00,53.862
1429.00,53.845
1430.00,53.867
1431.00,53.885
1432.00,53.906
1433.00,53.919
1434.00,53.917
1435.00,53.977
1436.00,53.984
1437.00,53.944
1438.00,53.990
1439.00,54.015
1440.00,54.033
1441.00,54.022
1442.00,54.026
1443.00,54.069
1444.00,54.105
1445.00,54.079
1446.00,54.094
1447.00,54.116
1448.00,54.150
1449.00,54.172
1450.00,54.172
1451.00,54.181
1452.00,54.203
1453.00,54.205
1454.00,54.236
1455.00,54.241
1456.00,54.243
1457.00,54.245
1458.00,54.268
1459.00,54.295
1460.00,54.308
1461.00,54.339
1462.00,54.368
1463.00,54.368
1464.00,54.364
1465.00,54.389
1466.00,54.353
1467.00,54.367
1468.00,54.428
1469.00,54.396
1470.00,54.416
1471.00,54.450
1472.00,54.450
1473.00,54.463
1474.00,54.487
1475.00,54.522
1476.00,54.528
1477.00,54.498
1478.00,54.533
1479.00,54.552
1480.00,54.540
1481.00,54.557
1482.00,54.589
1483.00,54.616
1484.00,54.612
1485.00,54.622
1486.00,54.623
1487.00,54.653
1488.00,54.660
1489.00,54.646
1490.00,54.670
1491.00,54.685
1492.00,54.720
1493.00,54.683
1494.00,54.739
1495.00,54.725
1496.00,54.746
1497.00,54.744
1498.00,54.764
1499.00,54.770
1500.00,54.779
1501.00, 
1502.00, 
1503.00, 
1504.00, 
1505.00, 
1506.00, 
1507.00, 
1508.00, 
1509.00, 
1510.00, 
1511.00, 
1512.00, 
1513.00, 
1514.00, 
1515.00, 
1516.00, 
1517.00, 
1518.00, 
1519.00, 
1520.00, 
1521.00, 
1522.00, 
1523.00, 
1524.00, 
1525.00, 
1526.00, 
1527.00, 
1528.00, 
1529.00, 
1530.00, 
1531.00, 
1532.00, 
1533.00, 
1534.00, 
1535.00, 
1536.00, 
1537.00, 
1538.00, 
1539.00, 
1540.00, 
1541.00, 
1542.00, 
1543.00, 
1544.00, 
1545.00, 
1546.00, 
1547.00, 
1548.00, 
1549.00, 
1550.00, 
1551.00, 
1552.00, 
1553.00, 
1554.00, 
1555.00, 
1556.00, 
1557.00, 
1558.00, 
1559.00, 
1560.00, 
1561.00, 
1562.00, 
1563.00, 
1564.00, 
1565.00, 
1566.00, 
1567.00, 
1568.00, 
1569.00, 
1570.00, 
1571.00, 
1572.00, 
1573.00, 
1574.00, 
1575.00, 
1576.00, 
1577.00, 
1578.00, 
1579.00, 
1580.00, 
1581.00, 
1582.00, 
1583.00, 
1584.00, 
1585.00, 
1586.00, 
1587.00, 
1588.00, 
1589.00, 
1590.00, 
1591.00, 
1592.00, 
1593.00, 
1594.00, 
1595.00, 
1596.00, 
1597.00, 
1598.00, 
1599.00, 
1600.00, 
1601.00, 
1602.00, 
1603.00, 
1604.00, 
1605.00, 
1606.00, 
1607.00, 
1608.00, 
1609.00, 
1610.00, 
1611.00, 
1612.00, 
1613.00, 
1614.00, 
1615.00, 
1616.00, 
1617.00, 
1618.00, 
1619.00, 
1620.00, 
1621.00, 
1622.00, 
1623.00, 
1624.00, 
1625.00, 
1626.00, 
1627.00, 
1628.00, 
1629.00, 
1630.00, 
1631.00, 
1632.00, 
1633.00, 
1634.00, 
1635.00, 
1636.00, 
1637.00, 
1638.00, 
1639.00, 
1640.00, 
1641.00, 
1642.00, 
1643.00, 
1644.00, 
1645.00, 
1646.00, 
1647.00, 
1648.00, 
1649.00, 
1650.00, 
1651.00, 
1652.00, 
1653.00, 
1654.00, 
1655.00, 
1656.00, 
1657.00, 
1658.00, 
1659.00, 
1660.00, 
1661.00, 
1662.00, 
1663.00, 
1664.00, 
1665.00, 
1666.00, 
1667.00, 
1668.00, 
1669.00, 
1670.00, 
1671.00, 
1672.00, 
1673.00, 
1674.00, 
1675.00, 
1676.00, 
1677.00, 
1678.00, 
1679.00, 
1680.00, 
1681.00, 
1682.00, 
1683.00, 
1684.00, 
1685.00, 
1686.00, 
1687.00, 
1688.00, 
1689.00, 
1690.00, 
1691.00, 
1692.00, 
1693.00, 
1694.00, 
1695.00, 
1696.00, 
1697.00, 
1698.00, 
1699.00, 
1700.00, 
1701.00, 
1702.00, 
1703.00, 
1704.00, 
1705.00, 
1706.00, 
1707.00, 
1708.00, 
1709.00, 
1710.00, 
1711.00, 
1712.00, 
1713.00, 
1714.00, 
1715.00, 
1716.00, 
1717.00, 
1718.00, 
1719.00, 
1720.00, 
1721.00, 
1722.00, 
1723.00, 
1724.00, 
1725.00, 
1726.00, 
1727.00, 
1728.00, 
1729.00, 
1730.00, 
1731.00, 
1732.00, 
1733.00, 
1734.00, 
1735.00, 
1736.00, 
1737.00, 
1738.00, 
1739.00, 
1740.00, 
1741.00, 
1742.00, 
1743.00, 
1744.00, 
1745.00, 
1746.00, 
1747.00, 
1748.00, 
1749.00, 
1750.00, 
1751.00, 
1752.00, 
1753.00, 
1754.00, 
1755.00, 
1756.00, 
1757.00, 
1758.00, 
1759.00, 
1760.00, 
1761.00, 
1762.00, 
1763.00, 
1764.00, 
1765.00, 
1766.00, 
1767.00, 
1768.00, 
1769.00, 
1770.00, 
1771.00, 
1772.00, 
1773.00, 
1774.00, 
1775.00, 
1776.00, 
1777.00, 
1778.00, 
1779.00, 
1780.00, 
1781.00, 
1782.00, 
1783.00, 
1784.00, 
1785.00, 
1786.00, 
1787.00, 
1788.00, 
1789.00, 
1790.00, 
1791.00, 
1792.00, 
1793.00, 
1794.00, 
1795.00, 
1796.00, 
1797.00, 
1798.00, 
1799.00, 
1800.00, 
1801.00, 
1802.00, 
1803.00, 
1804.00, 
1805.00, 
1806.00, 
1807.00, 
1808.00, 
1809.00, 
1810.00, 
1811.00, 
1812.00, 
1813.00, 
1814.00, 
1815.00, 
1816.00, 
1817.00, 
1818.00, 
1819.00, 
1820.00, 
1821.00, 
1822.00, 
1823.00, 
1824.00, 
1825.00, 
1826.00, 
1827.00, 
1828.00, 
1829.00, 
1830.00, 
1831.00, 
1832.00, 
1833.00, 
1834.00, 
1835.00, 
1836.00, 
1837.00, 
1838.00, 
1839.00, 
1840.00, 
1841.00, 
1842.00, 
1843.00, 
1844.00, 
1845.00, 
1846.00, 
1847.00, 
1848.00, 
1849.00, 
1850.00, 
1851.00, 
1852.00, 
1853.00, 
1854.00, 
1855.00, 
1856.00, 
1857.00, 
1858.00, 
1859.00, 
1860.00, 
1861.00, 
1862.00, 
1863.00, 
1864.00, 
1865.00, 
1866.00, 
1867.00, 
1868.00, 
1869.00, 
1870.00, 
1871.00, 
1872.00, 
1873.00, 
1874.00, 
1875.00, 
1876.00, 
1877.00, 
1878.00, 
1879.00, 
1880.00, 
1881.00, 
1882.00, 
1883.00, 
1884.00, 
1885.00, 
1886.00, 
1887.00, 
1888.00, 
1889.00, 
1890.00, 
1891.00, 
1892.00, 
1893.00, 
1894.00, 
1895.00, 
1896.00, 
1897.00, 
1898.00, 
1899.00, 
1900.00, 
1901.00, 
1902.00, 
1903.00, 
1904.00, 
1905.00, 
1906.00, 
1907.00, 
1908.00, 
1909.00, 
1910.00, 
1911.00, 
1912.00, 
1913.00, 
1914.00, 
1915.00, 
1916.00, 
1917.00, 
1918.00, 
1919.00, 
1920.00, 
1921.00, 
1922.00, 
1923.00, 
1924.00, 
1925.00, 
1926.00, 
1927.00, 
1928.00, 
1929.00, 
1930.00, 
1931.00, 
1932.00, 
1933.00, 
1934.00, 
1935.00, 
1936.00, 
1937.00, 
1938.00, 
1939.00, 
1940.00, 
1941.00, 
1942.00, 
1943.00, 
1944.00, 
1945.00, 
1946.00, 
1947.00, 
1948.00, 
1949.00, 
1950.00, 
1951.00, 
1952.00, 
1953.00, 
1954.00, 
1955.00, 
1956.00, 
1957.00, 
1958.00, 
1959.00, 
1960.00, 
1961.00, 
1962.00, 
1963.00, 
1964.00, 
1965.00, 
1966.00, 
1967.00, 
1968.00, 
1969.00, 
1970.00, 
1971.00, 
1972.00, 
1973.00, 
1974.00, 
1975.00, 
1976.00, 
1977.00, 
1978.00, 
1979.00, 
1980.00, 
1981.00, 
1982.00, 
1983.00, 
1984.00, 
1985.00, 
1986.00, 
1987.00, 
1988.00, 
1989.00, 
1990.00, 
1991.00, 
1992.00, 
1993.00, 
1994.00, 
1995.00, 
1996.00, 
1997.00, 
1998.00, 
1999.00, 
2000.00, 
2001.00, 
2002.00, 
2003.00, 
2004.00, 
2005.00, 
2006.00, 
2007.00, 
2008.00, 
2009.00, 
2010.00, 
2011.00, 
2012.00, 
2013.00, 
2014.00, 
2015.00, 
2016.00, 
2017.00, 
2018.00, 
2019.00, 
2020.00, 
2021.00, 
2022.00, 
2023.00, 
2024.00, 
2025.00, 
2026.00, 
2027.00, 
2028.00, 
2029.00, 
2030.00, 
2031.00, 
2032.00, 
2033.00, 
2034.00, 
2035.00, 
2036.00, 
2037.00, 
2038.00, 
2039.00, 
2040.00, 
2041.00, 
2042.00, 
2043.00, 
2044.00, 
2045.00, 
2046.00, 
2047.00, 
2048.00, 
2049.00, 
2050.00, 
2051.00, 
2052.00, 
2053.00, 
2054.00, 
2055.00, 
2056.00, 
2057.00, 
2058.00, 
2059.00, 
2060.00, 
2061.00, 
2062.00, 
2063.00, 
2064.00, 
2065.00, 
2066.00, 
2067.00, 
2068.00, 
2069.00, 
2070.00, 
2071.00, 
2072.00, 
2073.00, 
2074.00, 
2075.00, 
2076.00, 
2077.00, 
2078.00, 
2079.00, 
2080.00, 
2081.00, 
2082.00, 
2083.00, 
2084.00, 
2085.00, 
2086.00, 
2087.00, 
2088.00, 
2089.00, 
2090.00, 
2091.00, 
2092.00, 
2093.00, 
2094.00, 
2095.00, 
2096.00, 
2097.00, 
2098.00, 
2099.00, 
2100.00, 
2101.00, 
2102.00, 
2103.00, 
2104.00, 
2105.00, 
2106.00, 
2107.00, 
2108.00, 
2109.00, 
2110.00, 
2111.00, 
2112.00, 
2113.00, 
2114.00, 
2115.00, 
2116.00, 
2117.00, 
2118.00, 
2119.00, 
2120.00, 
2121.00, 
2122.00, 
2123.00, 
2124.00, 
2125.00, 
2126.00, 
2127.00, 
2128.00, 
2129.00, 
2130.00, 
2131.00, 
2132.00, 
2133.00, 
2134.00, 
2135.00, 
2136.00, 
2137.00, 
2138.00, 
2139.00, 
2140.00, 
2141.00, 
2142.00, 
2143.00, 
2144.00, 
2145.00, 
2146.00, 
2147.00, 
2148.00, 
2149.00, 
2150.00, 
2151.00, 
2152.00, 
2153.00, 
2154.00, 
2155.00, 
2156.00, 
2157.00, 
2158.00, 
2159.00, 
2160.00, 
2161.00, 
2162.00, 
2163.00, 
2164.00, 
2165.00, 
2166.00, 
2167.00, 
2168.00, 
2169.00, 
2170.00, 
2171.00, 
2172.00, 
2173.00, 
2174.00, 
2175.00, 
2176.00, 
2177.00, 
2178.00, 
2179.00, 
2180.00, 
2181.00, 
2182.00, 
2183.00, 
2184.00, 
2185.00, 
2186.00, 
2187.00, 
2188.00, 
2189.00, 
2190.00, 
2191.00, 
2192.00, 
2193.00, 
2194.00, 
2195.00, 
2196.00, 
2197.00, 
2198.00, 
2199.00, 
2200.00, 
2201.00, 
2202.00, 
2203.00, 
2204.00, 
2205.00, 
2206.00, 
2207.00, 
2208.00, 
2209.00, 
2210.00, 
2211.00, 
2212.00, 
2213.00, 
2214.00, 
2215.00, 
2216.00, 
2217.00, 
2218.00, 
2219.00, 
2220.00, 
2221.00, 
2222.00, 
2223.00, 
2224.00, 
2225.00, 
2226.00, 
2227.00, 
2228.00, 
2229.00, 
2230.00, 
2231.00, 
2232.00, 
2233.00, 
2234.00, 
2235.00, 
2236.00, 
2237.00, 
2238.00, 
2239.00, 
2240.00, 
2241.00, 
2242.00, 
2243.00, 
2244.00, 
2245.00, 
2246.00, 
2247.00, 
2248.00, 
2249.00, 
2250.00, 
2251.00, 
2252.00, 
2253.00, 
2254.00, 
2255.00, 
2256.00, 
2257.00, 
2258.00, 
2259.00, 
2260.00, 
2261.00, 
2262.00, 
2263.00, 
2264.00, 
2265.00, 
2266.00, 
2267.00, 
2268.00, 
2269.00, 
2270.00, 
2271.00, 
2272.00, 
2273.00, 
2274.00, 
2275.00, 
2276.00, 
2277.00, 
2278.00, 
2279.00, 
2280.00, 
2281.00, 
2282.00, 
2283.00, 
2284.00, 
2285.00, 
2286.00, 
2287.00, 
2288.00, 
2289.00, 
2290.00, 
2291.00, 
2292.00, 
2293.00, 
2294.00, 
2295.00, 
2296.00, 
2297.00, 
2298.00, 
2299.00, 
2300.00, 
2301.00, 
2302.00, 
2303.00, 
2304.00, 
2305.00, 
2306.00, 
2307.00, 
2308.00, 
2309.00, 
2310.00, 
2311.00, 
2312.00, 
2313.00, 
2314.00, 
2315.00, 
2316.00, 
2317.00, 
2318.00, 
2319.00, 
2320.00, 
2321.00, 
2322.00, 
2323.00, 
2324.00, 
2325.00, 
2326.00, 
2327.00, 
2328.00, 
2329.00, 
2330.00, 
2331.00, 
2332.00, 
2333.00, 
2334.00, 
2335.00, 
2336.00, 
2337.00, 
2338.00, 
2339.00, 
2340.00, 
2341.00, 
2342.00, 
2343.00, 
2344.00, 
2345.00, 
2346.00, 
2347.00, 
2348.00, 
2349.00, 
2350.00, 
2351.00, 
2352.00, 
2353.00, 
2354.00, 
2355.00, 
2356.00, 
2357.00, 
2358.00, 
2359.00, 
2360.00, 
2361.00, 
2362.00, 
2363.00, 
2364.00, 
2365.00, 
2366.00, 
2367.00, 
2368.00, 
2369.00, 
2370.00, 
2371.00, 
2372.00, 
2373.00, 
2374.00, 
2375.00, 
2376.00, 
2377.00, 
2378.00, 
2379.00, 
2380.00, 
2381.00, 
2382.00, 
2383.00, 
2384.00, 
2385.00, 
2386.00, 
2387.00, 
2388.00, 
2389.00, 
2390.00, 
2391.00, 
2392.00, 
2393.00, 
2394.00, 
2395.00, 
2396.00, 
2397.00, 
2398.00, 
2399.00, 
2400.00, 
2401.00, 
2402.00, 
2403.00, 
2404.00, 
2405.00, 
2406.00, 
2407.00, 
2408.00, 
2409.00, 
2410.00, 
2411.00, 
2412.00, 
2413.00, 
2414.00, 
2415.00, 
2416.00, 
2417.00, 
2418.00, 
2419.00, 
2420.00, 
2421.00, 
2422.00, 
2423.00, 
2424.00, 
2425.00, 
2426.00, 
2427.00, 
2428.00, 
2429.00, 
2430.00, 
2431.00, 
2432.00, 
2433.00, 
2434.00, 
2435.00, 
2436.00, 
2437.00, 
2438.00, 
2439.00, 
2440.00, 
2441.00, 
2442.00, 
2443.00, 
2444.00, 
2445.00, 
2446.00, 
2447.00, 
2448.00, 
2449.00, 
2450.00, 
2451.00, 
2452.00, 
2453.00, 
2454.00, 
2455.00, 
2456.00, 
2457.00, 
2458.00, 
2459.00, 
2460.00, 
2461.00, 
2462.00, 
2463.00, 
2464.00, 
2465.00, 
2466.00, 
2467.00, 
2468.00, 
2469.00, 
2470.00, 
2471.00, 
2472.00, 
2473.00, 
2474.00, 
2475.00, 
2476.00, 
2477.00, 
2478.00, 
2479.00, 
2480.00, 
2481.00, 
2482.00, 
2483.00, 
2484.00, 
2485.00, 
2486.00, 
2487.00, 
2488.00, 
2489.00, 
2490.00, 
2491.00, 
2492.00, 
2493.00, 
2494.00, 
2495.00, 
2496.00, 
2497.00, 
2498.00, 
2499.00, 
2500.00, 
2501.00, 
2502.00, 
2503.00, 
2504.00, 
2505.00, 
2506.00, 
2507.00, 
2508.00, 
2509.00, 
2510.00, 
2511.00, 
2512.00, 
2513.00, 
2514.00, 
2515.00, 
2516.00, 
2517.00, 
2518.00, 
2519.00, 
2520.00, 
2521.00, 
2522.00, 
2523.00, 
2524.00, 
2525.00, 
2526.00, 
2527.00, 
2528.00, 
2529.00, 
2530.00, 
2531.00, 
2532.00, 
2533.00, 
2534.00, 
2535.00, 
2536.00, 
2537.00, 
2538.00, 
2539.00, 
2540.00, 
2541.00, 
2542.00, 
2543.00, 
2544.00, 
2545.00, 
2546.00, 
2547.00, 
2548.00, 
2549.00, 
2550.00, 
2551.00, 
2552.00, 
2553.00, 
2554.00, 
2555.00, 
2556.00, 
2557.00, 
2558.00, 
2559.00, 
2560.00, 
2561.00, 
2562.00, 
2563.00, 
2564.00, 
2565.00, 
2566.00, 
2567.00, 
2568.00, 
2569.00, 
2570.00, 
2571.00, 
2572.00, 
2573.00, 
2574.00, 
2575.00, 
2576.00, 
2577.00, 
2578.00, 
2579.00, 
2580.00, 
2581.00, 
2582.00, 
2583.00, 
2584.00, 
2585.00, 
2586.00, 
2587.00, 
2588.00, 
2589.00, 
2590.00, 
2591.00, 
2592.00, 
2593.00, 
2594.00, 
2595.00, 
2596.00, 
2597.00, 
2598.00, 
2599.00, 
2600.00, 
