"2aP2 - RawData"
"Wavelength nm.","T%"
200.00,0.002
201.00,0.002
202.00,0.002
203.00,-0.001
204.00,0.001
205.00,0.004
206.00,0.001
207.00,0.003
208.00,-0.002
209.00,0.002
210.00,0.003
211.00,0.004
212.00,0.003
213.00,-0.001
214.00,0.002
215.00,0.001
216.00,0.003
217.00,0.000
218.00,0.001
219.00,0.001
220.00,0.003
221.00,0.002
222.00,-0.001
223.00,0.002
224.00,0.002
225.00,0.005
226.00,0.001
227.00,0.001
228.00,0.000
229.00,0.001
230.00,0.003
231.00,0.001
232.00,0.002
233.00,0.003
234.00,0.003
235.00,0.000
236.00,0.003
237.00,0.002
238.00,0.002
239.00,-0.001
240.00,-0.000
241.00,0.001
242.00,-0.000
243.00,0.002
244.00,0.002
245.00,0.002
246.00,-0.001
247.00,0.001
248.00,-0.000
249.00,0.001
250.00,0.002
251.00,0.001
252.00,0.000
253.00,-0.000
254.00,0.001
255.00,0.002
256.00,0.001
257.00,-0.000
258.00,0.000
259.00,0.002
260.00,0.000
261.00,-0.001
262.00,0.000
263.00,0.002
264.00,0.001
265.00,0.000
266.00,0.002
267.00,0.001
268.00,-0.000
269.00,0.001
270.00,0.002
271.00,0.001
272.00,-0.001
273.00,-0.001
274.00,0.002
275.00,-0.000
276.00,0.001
277.00,0.000
278.00,-0.001
279.00,0.001
280.00,-0.001
281.00,0.002
282.00,-0.001
283.00,0.003
284.00,-0.000
285.00,0.001
286.00,-0.002
287.00,0.000
288.00,0.001
289.00,-0.000
290.00,-0.001
291.00,-0.001
292.00,0.001
293.00,0.002
294.00,-0.001
295.00,0.000
296.00,0.000
297.00,-0.000
298.00,0.001
299.00,0.001
300.00,0.001
301.00,0.003
302.00,0.004
303.00,0.008
304.00,0.011
305.00,0.016
306.00,0.025
307.00,0.041
308.00,0.063
309.00,0.098
310.00,0.136
311.00,0.182
312.00,0.253
313.00,0.335
314.00,0.443
315.00,0.570
316.00,0.726
317.00,0.922
318.00,1.137
319.00,1.398
320.00,1.699
321.00,2.015
322.00,2.387
323.00,2.810
324.00,3.267
325.00,3.730
326.00,4.174
327.00,4.693
328.00,5.261
329.00,5.815
330.00,6.386
331.00,6.975
332.00,7.490
333.00,8.235
334.00,8.813
335.00,9.437
336.00,10.056
337.00,10.671
338.00,11.257
339.00,11.832
340.00,12.401
341.00,12.967
342.00,13.476
343.00,13.976
344.00,14.471
345.00,14.963
346.00,15.376
347.00,15.764
348.00,16.178
349.00,16.526
350.00,16.881
351.00,17.230
352.00,17.468
353.00,17.752
354.00,18.024
355.00,18.313
356.00,18.536
357.00,18.712
358.00,18.898
359.00,19.113
360.00,19.314
361.00,19.467
362.00,19.634
363.00,19.750
364.00,19.851
365.00,19.888
366.00,20.011
367.00,20.059
368.00,20.125
369.00,20.148
370.00,20.221
371.00,20.243
372.00,20.215
373.00,20.213
374.00,20.257
375.00,20.275
376.00,20.170
377.00,20.134
378.00,20.082
379.00,20.018
380.00,20.002
381.00,19.958
382.00,19.979
383.00,19.989
384.00,20.007
385.00,20.033
386.00,20.007
387.00,20.079
388.00,20.107
389.00,20.075
390.00,20.113
391.00,20.178
392.00,20.170
393.00,20.172
394.00,20.170
395.00,20.122
396.00,20.171
397.00,20.171
398.00,20.220
399.00,20.198
400.00,20.187
401.00,20.211
402.00,20.200
403.00,20.198
404.00,20.236
405.00,20.182
406.00,20.175
407.00,20.146
408.00,20.176
409.00,20.100
410.00,20.080
411.00,20.007
412.00,20.003
413.00,20.049
414.00,20.041
415.00,20.072
416.00,20.135
417.00,20.134
418.00,20.153
419.00,20.192
420.00,20.272
421.00,20.281
422.00,20.298
423.00,20.352
424.00,20.382
425.00,20.442
426.00,20.436
427.00,20.535
428.00,20.558
429.00,20.590
430.00,20.665
431.00,20.726
432.00,20.761
433.00,20.813
434.00,20.891
435.00,20.967
436.00,21.042
437.00,21.083
438.00,21.150
439.00,21.218
440.00,21.330
441.00,21.407
442.00,21.480
443.00,21.585
444.00,21.676
445.00,21.759
446.00,21.881
447.00,21.943
448.00,22.046
449.00,22.145
450.00,22.244
451.00,22.355
452.00,22.457
453.00,22.604
454.00,22.709
455.00,22.777
456.00,22.943
457.00,23.061
458.00,23.127
459.00,23.296
460.00,23.435
461.00,23.567
462.00,23.678
463.00,23.821
464.00,23.966
465.00,24.102
466.00,24.219
467.00,24.361
468.00,24.478
469.00,24.599
470.00,24.678
471.00,24.787
472.00,24.949
473.00,25.032
474.00,25.150
475.00,25.280
476.00,25.370
477.00,25.505
478.00,25.643
479.00,25.836
480.00,25.947
481.00,26.084
482.00,26.245
483.00,26.367
484.00,26.561
485.00,26.723
486.00,26.870
487.00,27.043
488.00,27.183
489.00,27.349
490.00,27.501
491.00,27.604
492.00,27.853
493.00,27.987
494.00,28.026
495.00,28.166
496.00,28.268
497.00,28.419
498.00,28.548
499.00,28.722
500.00,28.889
501.00,29.009
502.00,29.158
503.00,29.273
504.00,29.345
505.00,29.483
506.00,29.610
507.00,29.721
508.00,29.852
509.00,30.022
510.00,30.159
511.00,30.202
512.00,30.405
513.00,30.580
514.00,30.698
515.00,30.816
516.00,30.916
517.00,31.003
518.00,31.170
519.00,31.212
520.00,31.261
521.00,31.369
522.00,31.489
523.00,31.536
524.00,31.660
525.00,31.780
526.00,31.866
527.00,31.961
528.00,31.988
529.00,32.198
530.00,32.367
531.00,32.450
532.00,32.524
533.00,32.641
534.00,32.739
535.00,32.814
536.00,32.866
537.00,32.976
538.00,33.042
539.00,33.129
540.00,33.220
541.00,33.234
542.00,33.293
543.00,33.399
544.00,33.489
545.00,33.525
546.00,33.569
547.00,33.663
548.00,33.807
549.00,33.849
550.00,33.920
551.00,34.042
552.00,34.111
553.00,34.148
554.00,34.204
555.00,34.235
556.00,34.349
557.00,34.384
558.00,34.424
559.00,34.505
560.00,34.606
561.00,34.631
562.00,34.718
563.00,34.757
564.00,34.774
565.00,34.816
566.00,34.847
567.00,34.862
568.00,34.931
569.00,35.078
570.00,35.026
571.00,35.050
572.00,35.138
573.00,35.063
574.00,35.194
575.00,35.180
576.00,35.199
577.00,35.259
578.00,35.382
579.00,35.426
580.00,35.426
581.00,35.632
582.00,35.694
583.00,35.705
584.00,35.814
585.00,35.869
586.00,35.952
587.00,35.986
588.00,35.967
589.00,35.966
590.00,36.080
591.00,36.115
592.00,36.084
593.00,36.164
594.00,36.238
595.00,36.342
596.00,36.366
597.00,36.434
598.00,36.530
599.00,36.538
600.00,36.635
601.00,36.619
602.00,36.605
603.00,36.684
604.00,36.747
605.00,36.797
606.00,36.839
607.00,36.869
608.00,37.012
609.00,37.117
610.00,37.010
611.00,37.045
612.00,37.110
613.00,37.189
614.00,37.215
615.00,37.314
616.00,37.404
617.00,37.421
618.00,37.396
619.00,37.486
620.00,37.551
621.00,37.650
622.00,37.740
623.00,37.778
624.00,37.855
625.00,37.938
626.00,37.971
627.00,38.038
628.00,38.084
629.00,38.201
630.00,38.188
631.00,38.234
632.00,38.353
633.00,38.472
634.00,38.592
635.00,38.684
636.00,38.741
637.00,38.769
638.00,38.825
639.00,38.963
640.00,39.039
641.00,39.056
642.00,39.096
643.00,39.145
644.00,39.344
645.00,39.384
646.00,39.521
647.00,39.642
648.00,39.648
649.00,39.720
650.00,39.817
651.00,39.923
652.00,40.128
653.00,40.058
654.00,40.129
655.00,40.349
656.00,40.640
657.00,40.460
658.00,40.504
659.00,40.792
660.00,40.823
661.00,40.766
662.00,40.881
663.00,41.095
664.00,41.330
665.00,41.480
666.00,41.395
667.00,41.495
668.00,41.555
669.00,41.831
670.00,42.050
671.00,41.975
672.00,42.027
673.00,42.178
674.00,42.271
675.00,42.364
676.00,42.646
677.00,42.745
678.00,42.532
679.00,42.790
680.00,42.977
681.00,43.036
682.00,43.090
683.00,43.207
684.00,43.297
685.00,43.359
686.00,43.421
687.00,43.595
688.00,43.591
689.00,43.673
690.00,44.001
691.00,44.181
692.00,43.852
693.00,44.031
694.00,44.135
695.00,44.348
696.00,44.250
697.00,44.148
698.00,44.469
699.00,45.442
700.00,45.558
701.00,44.965
702.00,45.057
703.00,45.302
704.00,45.289
705.00,45.337
706.00,45.404
707.00,45.437
708.00,45.468
709.00,45.847
710.00,46.202
711.00,45.830
712.00,45.930
713.00,46.019
714.00,46.109
715.00,46.156
716.00,46.204
717.00,46.383
718.00,46.626
719.00,46.507
720.00,46.649
721.00,51.027
722.00,51.047
723.00,51.057
724.00,51.123
725.00,51.136
726.00,51.235
727.00,51.276
728.00,51.394
729.00,51.308
730.00,51.447
731.00,51.473
732.00,51.476
733.00,51.594
734.00,51.612
735.00,51.667
736.00,51.692
737.00,51.681
738.00,51.892
739.00,51.834
740.00,51.860
741.00,51.938
742.00,51.964
743.00,51.955
744.00,51.997
745.00,52.033
746.00,52.044
747.00,52.095
748.00,52.066
749.00,52.047
750.00,52.021
751.00,52.095
752.00,52.106
753.00,52.128
754.00,52.201
755.00,52.222
756.00,52.283
757.00,52.253
758.00,52.289
759.00,52.245
760.00,52.355
761.00,52.448
762.00,52.248
763.00,52.438
764.00,52.416
765.00,52.397
766.00,52.504
767.00,52.424
768.00,52.489
769.00,52.592
770.00,52.592
771.00,52.582
772.00,52.625
773.00,52.507
774.00,52.674
775.00,52.638
776.00,52.629
777.00,52.698
778.00,52.714
779.00,52.722
780.00,52.647
781.00,52.692
782.00,52.680
783.00,52.714
784.00,52.708
785.00,52.652
786.00,52.751
787.00,52.755
788.00,52.739
789.00,52.700
790.00,52.727
791.00,52.861
792.00,52.675
793.00,52.654
794.00,52.709
795.00,52.697
796.00,52.747
797.00,52.640
798.00,52.675
799.00,52.687
800.00,52.680
801.00,52.651
802.00,52.617
803.00,52.670
804.00,52.625
805.00,52.749
806.00,52.572
807.00,52.587
808.00,52.607
809.00,52.591
810.00,52.602
811.00,52.595
812.00,52.657
813.00,52.533
814.00,52.610
815.00,52.554
816.00,52.522
817.00,52.600
818.00,52.451
819.00,52.543
820.00,52.407
821.00,52.532
822.00,52.553
823.00,52.487
824.00,52.535
825.00,52.349
826.00,52.406
827.00,52.563
828.00,52.526
829.00,52.377
830.00,52.420
831.00,54.549
832.00,54.604
833.00,54.568
834.00,54.563
835.00,54.507
836.00,54.493
837.00,54.470
838.00,54.496
839.00,54.454
840.00,54.431
841.00,54.430
842.00,54.421
843.00,54.424
844.00,54.401
845.00,54.353
846.00,54.373
847.00,54.350
848.00,54.338
849.00,54.277
850.00,54.271
851.00,54.250
852.00,54.226
853.00,54.197
854.00,54.174
855.00,54.137
856.00,54.134
857.00,54.112
858.00,54.060
859.00,54.067
860.00,54.045
861.00,54.068
862.00,53.990
863.00,54.043
864.00,53.956
865.00,53.990
866.00,53.956
867.00,53.973
868.00,53.963
869.00,53.967
870.00,53.962
871.00,53.925
872.00,53.941
873.00,53.974
874.00,53.887
875.00,53.887
876.00,53.914
877.00,53.891
878.00,53.884
879.00,53.852
880.00,53.845
881.00,53.813
882.00,53.831
883.00,53.812
884.00,53.794
885.00,53.775
886.00,53.759
887.00,53.713
888.00,53.711
889.00,53.691
890.00,53.681
891.00,53.649
892.00,53.615
893.00,53.597
894.00,53.617
895.00,53.580
896.00,53.565
897.00,53.548
898.00,53.504
899.00,53.510
900.00,53.500
901.00,53.525
902.00,53.533
903.00,53.428
904.00,53.440
905.00,53.479
906.00,53.444
907.00,53.429
908.00,53.367
909.00,53.372
910.00,53.332
911.00,53.319
912.00,53.335
913.00,53.285
914.00,53.275
915.00,53.273
916.00,53.245
917.00,53.200
918.00,53.213
919.00,53.196
920.00,53.112
921.00,53.156
922.00,53.139
923.00,53.090
924.00,53.034
925.00,53.157
926.00,53.050
927.00,53.057
928.00,53.005
929.00,53.030
930.00,52.980
931.00,52.965
932.00,52.928
933.00,52.941
934.00,52.891
935.00,52.887
936.00,52.859
937.00,52.836
938.00,52.827
939.00,52.844
940.00,52.790
941.00,52.802
942.00,52.780
943.00,52.782
944.00,52.717
945.00,52.715
946.00,52.846
947.00,52.675
948.00,52.664
949.00,52.644
950.00,52.607
951.00,52.580
952.00,52.594
953.00,52.525
954.00,52.537
955.00,52.460
956.00,52.464
957.00,52.438
958.00,52.467
959.00,52.336
960.00,52.405
961.00,52.449
962.00,52.397
963.00,52.354
964.00,52.329
965.00,52.350
966.00,52.320
967.00,52.319
968.00,52.281
969.00,52.325
970.00,52.286
971.00,52.293
972.00,52.267
973.00,52.311
974.00,52.363
975.00,52.280
976.00,52.311
977.00,52.290
978.00,52.326
979.00,52.283
980.00,52.304
981.00,52.320
982.00,52.269
983.00,52.297
984.00,52.270
985.00,52.308
986.00,52.247
987.00,52.270
988.00,52.241
989.00,52.217
990.00,52.209
991.00,52.191
992.00,52.215
993.00,52.178
994.00,52.154
995.00,52.152
996.00,52.147
997.00,52.132
998.00,52.129
999.00,52.141
1000.00,52.077
1001.00,52.085
1002.00,52.081
1003.00,52.063
1004.00,52.050
1005.00,52.017
1006.00,52.064
1007.00,52.058
1008.00,51.998
1009.00,51.991
1010.00,51.984
1011.00,51.967
1012.00,51.938
1013.00,51.943
1014.00,51.902
1015.00,51.934
1016.00,51.870
1017.00,51.875
1018.00,51.862
1019.00,51.832
1020.00,51.837
1021.00,51.807
1022.00,51.835
1023.00,51.765
1024.00,51.771
1025.00,51.748
1026.00,51.737
1027.00,51.714
1028.00,51.717
1029.00,51.710
1030.00,51.652
1031.00,51.686
1032.00,51.639
1033.00,51.623
1034.00,51.608
1035.00,51.570
1036.00,51.545
1037.00,51.541
1038.00,51.536
1039.00,51.495
1040.00,51.491
1041.00,51.448
1042.00,51.448
1043.00,51.433
1044.00,51.450
1045.00,51.451
1046.00,51.426
1047.00,51.438
1048.00,51.454
1049.00,51.450
1050.00,51.462
1051.00,51.509
1052.00,51.498
1053.00,51.506
1054.00,51.515
1055.00,51.520
1056.00,51.541
1057.00,51.533
1058.00,51.498
1059.00,51.507
1060.00,51.513
1061.00,51.501
1062.00,51.502
1063.00,51.485
1064.00,51.491
1065.00,51.476
1066.00,51.458
1067.00,51.466
1068.00,51.517
1069.00,51.421
1070.00,51.423
1071.00,51.404
1072.00,51.428
1073.00,51.402
1074.00,51.390
1075.00,51.382
1076.00,51.381
1077.00,51.345
1078.00,51.342
1079.00,51.346
1080.00,51.337
1081.00,51.336
1082.00,51.331
1083.00,51.341
1084.00,51.314
1085.00,51.314
1086.00,51.305
1087.00,51.312
1088.00,51.274
1089.00,51.271
1090.00,51.253
1091.00,51.260
1092.00,51.254
1093.00,51.220
1094.00,51.209
1095.00,51.223
1096.00,51.193
1097.00,51.215
1098.00,51.191
1099.00,51.172
1100.00,51.167
1101.00,51.170
1102.00,51.132
1103.00,51.143
1104.00,51.115
1105.00,51.102
1106.00,51.100
1107.00,51.084
1108.00,51.084
1109.00,51.078
1110.00,51.062
1111.00,51.063
1112.00,51.043
1113.00,51.035
1114.00,51.042
1115.00,51.038
1116.00,51.022
1117.00,51.013
1118.00,50.993
1119.00,50.996
1120.00,50.990
1121.00,50.975
1122.00,50.969
1123.00,50.977
1124.00,50.944
1125.00,50.958
1126.00,50.959
1127.00,50.963
1128.00,50.948
1129.00,50.976
1130.00,50.905
1131.00,50.904
1132.00,50.908
1133.00,50.921
1134.00,50.916
1135.00,50.895
1136.00,50.892
1137.00,50.892
1138.00,50.876
1139.00,50.898
1140.00,50.862
1141.00,50.878
1142.00,50.861
1143.00,50.883
1144.00,50.861
1145.00,50.849
1146.00,50.832
1147.00,50.829
1148.00,50.816
1149.00,50.829
1150.00,50.819
1151.00,50.795
1152.00,50.780
1153.00,50.819
1154.00,50.793
1155.00,50.804
1156.00,50.790
1157.00,50.795
1158.00,50.800
1159.00,50.803
1160.00,50.811
1161.00,50.801
1162.00,50.783
1163.00,50.779
1164.00,50.791
1165.00,50.771
1166.00,50.775
1167.00,50.763
1168.00,50.775
1169.00,50.773
1170.00,50.756
1171.00,50.730
1172.00,50.768
1173.00,50.736
1174.00,50.764
1175.00,50.768
1176.00,50.744
1177.00,50.747
1178.00,50.745
1179.00,50.746
1180.00,50.738
1181.00,50.739
1182.00,50.722
1183.00,50.715
1184.00,50.715
1185.00,50.737
1186.00,50.722
1187.00,50.739
1188.00,50.729
1189.00,50.720
1190.00,50.728
1191.00,50.711
1192.00,50.719
1193.00,50.709
1194.00,50.707
1195.00,50.678
1196.00,50.714
1197.00,50.709
1198.00,50.680
1199.00,50.685
1200.00,50.702
1201.00,50.699
1202.00,50.703
1203.00,50.727
1204.00,50.700
1205.00,50.705
1206.00,50.680
1207.00,50.697
1208.00,50.675
1209.00,50.676
1210.00,50.683
1211.00,50.682
1212.00,50.687
1213.00,50.667
1214.00,50.685
1215.00,50.665
1216.00,50.677
1217.00,50.670
1218.00,50.658
1219.00,50.684
1220.00,50.653
1221.00,50.684
1222.00,50.660
1223.00,50.679
1224.00,50.685
1225.00,50.665
1226.00,50.676
1227.00,50.663
1228.00,50.680
1229.00,50.681
1230.00,50.719
1231.00,50.695
1232.00,50.724
1233.00,50.727
1234.00,50.723
1235.00,50.729
1236.00,50.707
1237.00,50.729
1238.00,50.735
1239.00,50.723
1240.00,50.714
1241.00,50.732
1242.00,50.727
1243.00,50.743
1244.00,50.720
1245.00,50.740
1246.00,50.754
1247.00,50.731
1248.00,50.728
1249.00,50.747
1250.00,50.742
1251.00,50.745
1252.00,50.750
1253.00,50.721
1254.00,50.756
1255.00,50.749
1256.00,50.731
1257.00,50.741
1258.00,50.764
1259.00,50.752
1260.00,50.770
1261.00,50.760
1262.00,50.753
1263.00,50.761
1264.00,50.755
1265.00,50.780
1266.00,50.772
1267.00,50.790
1268.00,50.808
1269.00,50.789
1270.00,50.811
1271.00,50.811
1272.00,50.807
1273.00,50.838
1274.00,50.833
1275.00,50.832
1276.00,50.831
1277.00,50.845
1278.00,50.841
1279.00,50.844
1280.00,50.838
1281.00,50.842
1282.00,50.864
1283.00,50.838
1284.00,50.857
1285.00,50.847
1286.00,50.850
1287.00,50.862
1288.00,50.861
1289.00,50.846
1290.00,50.902
1291.00,50.883
1292.00,50.882
1293.00,50.889
1294.00,50.901
1295.00,50.914
1296.00,50.908
1297.00,50.904
1298.00,50.946
1299.00,50.912
1300.00,50.935
1301.00,50.946
1302.00,50.947
1303.00,50.932
1304.00,50.926
1305.00,50.945
1306.00,50.961
1307.00,50.979
1308.00,50.956
1309.00,50.966
1310.00,50.966
1311.00,50.952
1312.00,50.978
1313.00,50.984
1314.00,50.998
1315.00,51.019
1316.00,50.999
1317.00,51.052
1318.00,51.035
1319.00,51.027
1320.00,51.050
1321.00,51.203
1322.00,51.191
1323.00,51.177
1324.00,51.161
1325.00,51.169
1326.00,51.180
1327.00,51.154
1328.00,51.174
1329.00,51.174
1330.00,51.175
1331.00,51.174
1332.00,51.156
1333.00,51.179
1334.00,51.205
1335.00,51.225
1336.00,51.243
1337.00,51.277
1338.00,51.326
1339.00,51.370
1340.00,51.427
1341.00,51.486
1342.00,51.553
1343.00,51.587
1344.00,51.649
1345.00,51.710
1346.00,51.740
1347.00,51.752
1348.00,51.791
1349.00,51.793
1350.00,51.822
1351.00,51.819
1352.00,51.804
1353.00,51.831
1354.00,51.848
1355.00,52.018
1356.00,51.858
1357.00,51.837
1358.00,51.875
1359.00,51.913
1360.00,51.916
1361.00,51.932
1362.00,51.788
1363.00,51.967
1364.00,51.987
1365.00,51.904
1366.00,51.952
1367.00,51.763
1368.00,51.704
1369.00,51.944
1370.00,51.855
1371.00,51.768
1372.00,51.846
1373.00,51.864
1374.00,51.865
1375.00,51.859
1376.00,51.845
1377.00,51.867
1378.00,51.874
1379.00,51.872
1380.00,51.875
1381.00,51.850
1382.00,51.911
1383.00,51.893
1384.00,51.841
1385.00,51.848
1386.00,51.874
1387.00,51.883
1388.00,51.809
1389.00,51.842
1390.00,51.901
1391.00,51.855
1392.00,51.872
1393.00,51.869
1394.00,51.918
1395.00,51.813
1396.00,51.777
1397.00,51.740
1398.00,51.904
1399.00,51.924
1400.00,51.810
1401.00,51.799
1402.00,51.926
1403.00,51.826
1404.00,51.838
1405.00,51.915
1406.00,51.890
1407.00,51.907
1408.00,51.942
1409.00,51.853
1410.00,51.937
1411.00,51.911
1412.00,51.978
1413.00,51.896
1414.00,51.901
1415.00,51.935
1416.00,51.971
1417.00,51.995
1418.00,51.945
1419.00,51.979
1420.00,52.000
1421.00,52.064
1422.00,52.035
1423.00,52.044
1424.00,52.070
1425.00,52.086
1426.00,52.063
1427.00,52.109
1428.00,52.090
1429.00,52.083
1430.00,52.116
1431.00,52.131
1432.00,52.139
1433.00,52.172
1434.00,52.135
1435.00,52.223
1436.00,52.231
1437.00,52.195
1438.00,52.239
1439.00,52.262
1440.00,52.269
1441.00,52.264
1442.00,52.255
1443.00,52.298
1444.00,52.351
1445.00,52.301
1446.00,52.366
1447.00,52.367
1448.00,52.402
1449.00,52.414
1450.00,52.409
1451.00,52.410
1452.00,52.439
1453.00,52.436
1454.00,52.476
1455.00,52.485
1456.00,52.498
1457.00,52.490
1458.00,52.523
1459.00,52.543
1460.00,52.557
1461.00,52.566
1462.00,52.612
1463.00,52.582
1464.00,52.582
1465.00,52.619
1466.00,52.617
1467.00,52.635
1468.00,52.726
1469.00,52.675
1470.00,52.680
1471.00,52.708
1472.00,52.719
1473.00,52.730
1474.00,52.768
1475.00,52.764
1476.00,52.787
1477.00,52.758
1478.00,52.779
1479.00,52.795
1480.00,52.805
1481.00,52.804
1482.00,52.851
1483.00,52.870
1484.00,52.878
1485.00,52.888
1486.00,52.877
1487.00,52.927
1488.00,52.953
1489.00,52.931
1490.00,52.963
1491.00,52.964
1492.00,52.976
1493.00,52.960
1494.00,52.993
1495.00,52.990
1496.00,53.008
1497.00,52.997
1498.00,53.013
1499.00,53.036
1500.00,53.044
1501.00, 
1502.00, 
1503.00, 
1504.00, 
1505.00, 
1506.00, 
1507.00, 
1508.00, 
1509.00, 
1510.00, 
1511.00, 
1512.00, 
1513.00, 
1514.00, 
1515.00, 
1516.00, 
1517.00, 
1518.00, 
1519.00, 
1520.00, 
1521.00, 
1522.00, 
1523.00, 
1524.00, 
1525.00, 
1526.00, 
1527.00, 
1528.00, 
1529.00, 
1530.00, 
1531.00, 
1532.00, 
1533.00, 
1534.00, 
1535.00, 
1536.00, 
1537.00, 
1538.00, 
1539.00, 
1540.00, 
1541.00, 
1542.00, 
1543.00, 
1544.00, 
1545.00, 
1546.00, 
1547.00, 
1548.00, 
1549.00, 
1550.00, 
1551.00, 
1552.00, 
1553.00, 
1554.00, 
1555.00, 
1556.00, 
1557.00, 
1558.00, 
1559.00, 
1560.00, 
1561.00, 
1562.00, 
1563.00, 
1564.00, 
1565.00, 
1566.00, 
1567.00, 
1568.00, 
1569.00, 
1570.00, 
1571.00, 
1572.00, 
1573.00, 
1574.00, 
1575.00, 
1576.00, 
1577.00, 
1578.00, 
1579.00, 
1580.00, 
1581.00, 
1582.00, 
1583.00, 
1584.00, 
1585.00, 
1586.00, 
1587.00, 
1588.00, 
1589.00, 
1590.00, 
1591.00, 
1592.00, 
1593.00, 
1594.00, 
1595.00, 
1596.00, 
1597.00, 
1598.00, 
1599.00, 
1600.00, 
1601.00, 
1602.00, 
1603.00, 
1604.00, 
1605.00, 
1606.00, 
1607.00, 
1608.00, 
1609.00, 
1610.00, 
1611.00, 
1612.00, 
1613.00, 
1614.00, 
1615.00, 
1616.00, 
1617.00, 
1618.00, 
1619.00, 
1620.00, 
1621.00, 
1622.00, 
1623.00, 
1624.00, 
1625.00, 
1626.00, 
1627.00, 
1628.00, 
1629.00, 
1630.00, 
1631.00, 
1632.00, 
1633.00, 
1634.00, 
1635.00, 
1636.00, 
1637.00, 
1638.00, 
1639.00, 
1640.00, 
1641.00, 
1642.00, 
1643.00, 
1644.00, 
1645.00, 
1646.00, 
1647.00, 
1648.00, 
1649.00, 
1650.00, 
1651.00, 
1652.00, 
1653.00, 
1654.00, 
1655.00, 
1656.00, 
1657.00, 
1658.00, 
1659.00, 
1660.00, 
1661.00, 
1662.00, 
1663.00, 
1664.00, 
1665.00, 
1666.00, 
1667.00, 
1668.00, 
1669.00, 
1670.00, 
1671.00, 
1672.00, 
1673.00, 
1674.00, 
1675.00, 
1676.00, 
1677.00, 
1678.00, 
1679.00, 
1680.00, 
1681.00, 
1682.00, 
1683.00, 
1684.00, 
1685.00, 
1686.00, 
1687.00, 
1688.00, 
1689.00, 
1690.00, 
1691.00, 
1692.00, 
1693.00, 
1694.00, 
1695.00, 
1696.00, 
1697.00, 
1698.00, 
1699.00, 
1700.00, 
1701.00, 
1702.00, 
1703.00, 
1704.00, 
1705.00, 
1706.00, 
1707.00, 
1708.00, 
1709.00, 
1710.00, 
1711.00, 
1712.00, 
1713.00, 
1714.00, 
1715.00, 
1716.00, 
1717.00, 
1718.00, 
1719.00, 
1720.00, 
1721.00, 
1722.00, 
1723.00, 
1724.00, 
1725.00, 
1726.00, 
1727.00, 
1728.00, 
1729.00, 
1730.00, 
1731.00, 
1732.00, 
1733.00, 
1734.00, 
1735.00, 
1736.00, 
1737.00, 
1738.00, 
1739.00, 
1740.00, 
1741.00, 
1742.00, 
1743.00, 
1744.00, 
1745.00, 
1746.00, 
1747.00, 
1748.00, 
1749.00, 
1750.00, 
1751.00, 
1752.00, 
1753.00, 
1754.00, 
1755.00, 
1756.00, 
1757.00, 
1758.00, 
1759.00, 
1760.00, 
1761.00, 
1762.00, 
1763.00, 
1764.00, 
1765.00, 
1766.00, 
1767.00, 
1768.00, 
1769.00, 
1770.00, 
1771.00, 
1772.00, 
1773.00, 
1774.00, 
1775.00, 
1776.00, 
1777.00, 
1778.00, 
1779.00, 
1780.00, 
1781.00, 
1782.00, 
1783.00, 
1784.00, 
1785.00, 
1786.00, 
1787.00, 
1788.00, 
1789.00, 
1790.00, 
1791.00, 
1792.00, 
1793.00, 
1794.00, 
1795.00, 
1796.00, 
1797.00, 
1798.00, 
1799.00, 
1800.00, 
1801.00, 
1802.00, 
1803.00, 
1804.00, 
1805.00, 
1806.00, 
1807.00, 
1808.00, 
1809.00, 
1810.00, 
1811.00, 
1812.00, 
1813.00, 
1814.00, 
1815.00, 
1816.00, 
1817.00, 
1818.00, 
1819.00, 
1820.00, 
1821.00, 
1822.00, 
1823.00, 
1824.00, 
1825.00, 
1826.00, 
1827.00, 
1828.00, 
1829.00, 
1830.00, 
1831.00, 
1832.00, 
1833.00, 
1834.00, 
1835.00, 
1836.00, 
1837.00, 
1838.00, 
1839.00, 
1840.00, 
1841.00, 
1842.00, 
1843.00, 
1844.00, 
1845.00, 
1846.00, 
1847.00, 
1848.00, 
1849.00, 
1850.00, 
1851.00, 
1852.00, 
1853.00, 
1854.00, 
1855.00, 
1856.00, 
1857.00, 
1858.00, 
1859.00, 
1860.00, 
1861.00, 
1862.00, 
1863.00, 
1864.00, 
1865.00, 
1866.00, 
1867.00, 
1868.00, 
1869.00, 
1870.00, 
1871.00, 
1872.00, 
1873.00, 
1874.00, 
1875.00, 
1876.00, 
1877.00, 
1878.00, 
1879.00, 
1880.00, 
1881.00, 
1882.00, 
1883.00, 
1884.00, 
1885.00, 
1886.00, 
1887.00, 
1888.00, 
1889.00, 
1890.00, 
1891.00, 
1892.00, 
1893.00, 
1894.00, 
1895.00, 
1896.00, 
1897.00, 
1898.00, 
1899.00, 
1900.00, 
1901.00, 
1902.00, 
1903.00, 
1904.00, 
1905.00, 
1906.00, 
1907.00, 
1908.00, 
1909.00, 
1910.00, 
1911.00, 
1912.00, 
1913.00, 
1914.00, 
1915.00, 
1916.00, 
1917.00, 
1918.00, 
1919.00, 
1920.00, 
1921.00, 
1922.00, 
1923.00, 
1924.00, 
1925.00, 
1926.00, 
1927.00, 
1928.00, 
1929.00, 
1930.00, 
1931.00, 
1932.00, 
1933.00, 
1934.00, 
1935.00, 
1936.00, 
1937.00, 
1938.00, 
1939.00, 
1940.00, 
1941.00, 
1942.00, 
1943.00, 
1944.00, 
1945.00, 
1946.00, 
1947.00, 
1948.00, 
1949.00, 
1950.00, 
1951.00, 
1952.00, 
1953.00, 
1954.00, 
1955.00, 
1956.00, 
1957.00, 
1958.00, 
1959.00, 
1960.00, 
1961.00, 
1962.00, 
1963.00, 
1964.00, 
1965.00, 
1966.00, 
1967.00, 
1968.00, 
1969.00, 
1970.00, 
1971.00, 
1972.00, 
1973.00, 
1974.00, 
1975.00, 
1976.00, 
1977.00, 
1978.00, 
1979.00, 
1980.00, 
1981.00, 
1982.00, 
1983.00, 
1984.00, 
1985.00, 
1986.00, 
1987.00, 
1988.00, 
1989.00, 
1990.00, 
1991.00, 
1992.00, 
1993.00, 
1994.00, 
1995.00, 
1996.00, 
1997.00, 
1998.00, 
1999.00, 
2000.00, 
2001.00, 
2002.00, 
2003.00, 
2004.00, 
2005.00, 
2006.00, 
2007.00, 
2008.00, 
2009.00, 
2010.00, 
2011.00, 
2012.00, 
2013.00, 
2014.00, 
2015.00, 
2016.00, 
2017.00, 
2018.00, 
2019.00, 
2020.00, 
2021.00, 
2022.00, 
2023.00, 
2024.00, 
2025.00, 
2026.00, 
2027.00, 
2028.00, 
2029.00, 
2030.00, 
2031.00, 
2032.00, 
2033.00, 
2034.00, 
2035.00, 
2036.00, 
2037.00, 
2038.00, 
2039.00, 
2040.00, 
2041.00, 
2042.00, 
2043.00, 
2044.00, 
2045.00, 
2046.00, 
2047.00, 
2048.00, 
2049.00, 
2050.00, 
2051.00, 
2052.00, 
2053.00, 
2054.00, 
2055.00, 
2056.00, 
2057.00, 
2058.00, 
2059.00, 
2060.00, 
2061.00, 
2062.00, 
2063.00, 
2064.00, 
2065.00, 
2066.00, 
2067.00, 
2068.00, 
2069.00, 
2070.00, 
2071.00, 
2072.00, 
2073.00, 
2074.00, 
2075.00, 
2076.00, 
2077.00, 
2078.00, 
2079.00, 
2080.00, 
2081.00, 
2082.00, 
2083.00, 
2084.00, 
2085.00, 
2086.00, 
2087.00, 
2088.00, 
2089.00, 
2090.00, 
2091.00, 
2092.00, 
2093.00, 
2094.00, 
2095.00, 
2096.00, 
2097.00, 
2098.00, 
2099.00, 
2100.00, 
2101.00, 
2102.00, 
2103.00, 
2104.00, 
2105.00, 
2106.00, 
2107.00, 
2108.00, 
2109.00, 
2110.00, 
2111.00, 
2112.00, 
2113.00, 
2114.00, 
2115.00, 
2116.00, 
2117.00, 
2118.00, 
2119.00, 
2120.00, 
2121.00, 
2122.00, 
2123.00, 
2124.00, 
2125.00, 
2126.00, 
2127.00, 
2128.00, 
2129.00, 
2130.00, 
2131.00, 
2132.00, 
2133.00, 
2134.00, 
2135.00, 
2136.00, 
2137.00, 
2138.00, 
2139.00, 
2140.00, 
2141.00, 
2142.00, 
2143.00, 
2144.00, 
2145.00, 
2146.00, 
2147.00, 
2148.00, 
2149.00, 
2150.00, 
2151.00, 
2152.00, 
2153.00, 
2154.00, 
2155.00, 
2156.00, 
2157.00, 
2158.00, 
2159.00, 
2160.00, 
2161.00, 
2162.00, 
2163.00, 
2164.00, 
2165.00, 
2166.00, 
2167.00, 
2168.00, 
2169.00, 
2170.00, 
2171.00, 
2172.00, 
2173.00, 
2174.00, 
2175.00, 
2176.00, 
2177.00, 
2178.00, 
2179.00, 
2180.00, 
2181.00, 
2182.00, 
2183.00, 
2184.00, 
2185.00, 
2186.00, 
2187.00, 
2188.00, 
2189.00, 
2190.00, 
2191.00, 
2192.00, 
2193.00, 
2194.00, 
2195.00, 
2196.00, 
2197.00, 
2198.00, 
2199.00, 
2200.00, 
2201.00, 
2202.00, 
2203.00, 
2204.00, 
2205.00, 
2206.00, 
2207.00, 
2208.00, 
2209.00, 
2210.00, 
2211.00, 
2212.00, 
2213.00, 
2214.00, 
2215.00, 
2216.00, 
2217.00, 
2218.00, 
2219.00, 
2220.00, 
2221.00, 
2222.00, 
2223.00, 
2224.00, 
2225.00, 
2226.00, 
2227.00, 
2228.00, 
2229.00, 
2230.00, 
2231.00, 
2232.00, 
2233.00, 
2234.00, 
2235.00, 
2236.00, 
2237.00, 
2238.00, 
2239.00, 
2240.00, 
2241.00, 
2242.00, 
2243.00, 
2244.00, 
2245.00, 
2246.00, 
2247.00, 
2248.00, 
2249.00, 
2250.00, 
2251.00, 
2252.00, 
2253.00, 
2254.00, 
2255.00, 
2256.00, 
2257.00, 
2258.00, 
2259.00, 
2260.00, 
2261.00, 
2262.00, 
2263.00, 
2264.00, 
2265.00, 
2266.00, 
2267.00, 
2268.00, 
2269.00, 
2270.00, 
2271.00, 
2272.00, 
2273.00, 
2274.00, 
2275.00, 
2276.00, 
2277.00, 
2278.00, 
2279.00, 
2280.00, 
2281.00, 
2282.00, 
2283.00, 
2284.00, 
2285.00, 
2286.00, 
2287.00, 
2288.00, 
2289.00, 
2290.00, 
2291.00, 
2292.00, 
2293.00, 
2294.00, 
2295.00, 
2296.00, 
2297.00, 
2298.00, 
2299.00, 
2300.00, 
2301.00, 
2302.00, 
2303.00, 
2304.00, 
2305.00, 
2306.00, 
2307.00, 
2308.00, 
2309.00, 
2310.00, 
2311.00, 
2312.00, 
2313.00, 
2314.00, 
2315.00, 
2316.00, 
2317.00, 
2318.00, 
2319.00, 
2320.00, 
2321.00, 
2322.00, 
2323.00, 
2324.00, 
2325.00, 
2326.00, 
2327.00, 
2328.00, 
2329.00, 
2330.00, 
2331.00, 
2332.00, 
2333.00, 
2334.00, 
2335.00, 
2336.00, 
2337.00, 
2338.00, 
2339.00, 
2340.00, 
2341.00, 
2342.00, 
2343.00, 
2344.00, 
2345.00, 
2346.00, 
2347.00, 
2348.00, 
2349.00, 
2350.00, 
2351.00, 
2352.00, 
2353.00, 
2354.00, 
2355.00, 
2356.00, 
2357.00, 
2358.00, 
2359.00, 
2360.00, 
2361.00, 
2362.00, 
2363.00, 
2364.00, 
2365.00, 
2366.00, 
2367.00, 
2368.00, 
2369.00, 
2370.00, 
2371.00, 
2372.00, 
2373.00, 
2374.00, 
2375.00, 
2376.00, 
2377.00, 
2378.00, 
2379.00, 
2380.00, 
2381.00, 
2382.00, 
2383.00, 
2384.00, 
2385.00, 
2386.00, 
2387.00, 
2388.00, 
2389.00, 
2390.00, 
2391.00, 
2392.00, 
2393.00, 
2394.00, 
2395.00, 
2396.00, 
2397.00, 
2398.00, 
2399.00, 
2400.00, 
2401.00, 
2402.00, 
2403.00, 
2404.00, 
2405.00, 
2406.00, 
2407.00, 
2408.00, 
2409.00, 
2410.00, 
2411.00, 
2412.00, 
2413.00, 
2414.00, 
2415.00, 
2416.00, 
2417.00, 
2418.00, 
2419.00, 
2420.00, 
2421.00, 
2422.00, 
2423.00, 
2424.00, 
2425.00, 
2426.00, 
2427.00, 
2428.00, 
2429.00, 
2430.00, 
2431.00, 
2432.00, 
2433.00, 
2434.00, 
2435.00, 
2436.00, 
2437.00, 
2438.00, 
2439.00, 
2440.00, 
2441.00, 
2442.00, 
2443.00, 
2444.00, 
2445.00, 
2446.00, 
2447.00, 
2448.00, 
2449.00, 
2450.00, 
2451.00, 
2452.00, 
2453.00, 
2454.00, 
2455.00, 
2456.00, 
2457.00, 
2458.00, 
2459.00, 
2460.00, 
2461.00, 
2462.00, 
2463.00, 
2464.00, 
2465.00, 
2466.00, 
2467.00, 
2468.00, 
2469.00, 
2470.00, 
2471.00, 
2472.00, 
2473.00, 
2474.00, 
2475.00, 
2476.00, 
2477.00, 
2478.00, 
2479.00, 
2480.00, 
2481.00, 
2482.00, 
2483.00, 
2484.00, 
2485.00, 
2486.00, 
2487.00, 
2488.00, 
2489.00, 
2490.00, 
2491.00, 
2492.00, 
2493.00, 
2494.00, 
2495.00, 
2496.00, 
2497.00, 
2498.00, 
2499.00, 
2500.00, 
2501.00, 
2502.00, 
2503.00, 
2504.00, 
2505.00, 
2506.00, 
2507.00, 
2508.00, 
2509.00, 
2510.00, 
2511.00, 
2512.00, 
2513.00, 
2514.00, 
2515.00, 
2516.00, 
2517.00, 
2518.00, 
2519.00, 
2520.00, 
2521.00, 
2522.00, 
2523.00, 
2524.00, 
2525.00, 
2526.00, 
2527.00, 
2528.00, 
2529.00, 
2530.00, 
2531.00, 
2532.00, 
2533.00, 
2534.00, 
2535.00, 
2536.00, 
2537.00, 
2538.00, 
2539.00, 
2540.00, 
2541.00, 
2542.00, 
2543.00, 
2544.00, 
2545.00, 
2546.00, 
2547.00, 
2548.00, 
2549.00, 
2550.00, 
2551.00, 
2552.00, 
2553.00, 
2554.00, 
2555.00, 
2556.00, 
2557.00, 
2558.00, 
2559.00, 
2560.00, 
2561.00, 
2562.00, 
2563.00, 
2564.00, 
2565.00, 
2566.00, 
2567.00, 
2568.00, 
2569.00, 
2570.00, 
2571.00, 
2572.00, 
2573.00, 
2574.00, 
2575.00, 
2576.00, 
2577.00, 
2578.00, 
2579.00, 
2580.00, 
2581.00, 
2582.00, 
2583.00, 
2584.00, 
2585.00, 
2586.00, 
2587.00, 
2588.00, 
2589.00, 
2590.00, 
2591.00, 
2592.00, 
2593.00, 
2594.00, 
2595.00, 
2596.00, 
2597.00, 
2598.00, 
2599.00, 
2600.00, 
