"2bP2 - RawData"
"Wavelength nm.","T%"
200.00,0.002
201.00,0.000
202.00,0.001
203.00,0.003
204.00,-0.000
205.00,-0.000
206.00,0.000
207.00,0.002
208.00,0.001
209.00,-0.000
210.00,-0.003
211.00,-0.001
212.00,0.002
213.00,0.002
214.00,-0.001
215.00,-0.001
216.00,0.002
217.00,0.002
218.00,0.000
219.00,-0.003
220.00,-0.000
221.00,0.000
222.00,0.002
223.00,0.000
224.00,-0.003
225.00,0.000
226.00,0.001
227.00,0.001
228.00,0.001
229.00,0.001
230.00,-0.001
231.00,0.000
232.00,-0.000
233.00,0.001
234.00,0.001
235.00,0.002
236.00,0.000
237.00,-0.001
238.00,0.000
239.00,-0.001
240.00,0.002
241.00,-0.000
242.00,0.001
243.00,0.000
244.00,-0.000
245.00,0.002
246.00,-0.000
247.00,0.001
248.00,0.001
249.00,-0.000
250.00,-0.000
251.00,0.001
252.00,0.001
253.00,-0.000
254.00,-0.000
255.00,-0.001
256.00,0.000
257.00,-0.000
258.00,0.001
259.00,-0.002
260.00,0.001
261.00,0.002
262.00,0.001
263.00,-0.000
264.00,0.000
265.00,0.001
266.00,0.001
267.00,0.001
268.00,0.001
269.00,0.001
270.00,0.001
271.00,0.001
272.00,0.001
273.00,0.000
274.00,-0.000
275.00,-0.001
276.00,0.000
277.00,-0.002
278.00,0.001
279.00,0.000
280.00,-0.000
281.00,0.001
282.00,0.000
283.00,0.000
284.00,0.001
285.00,0.001
286.00,-0.000
287.00,0.001
288.00,0.001
289.00,0.001
290.00,-0.001
291.00,-0.000
292.00,0.001
293.00,0.001
294.00,-0.001
295.00,-0.000
296.00,0.000
297.00,0.000
298.00,0.001
299.00,0.001
300.00,0.003
301.00,0.004
302.00,0.006
303.00,0.009
304.00,0.014
305.00,0.020
306.00,0.030
307.00,0.048
308.00,0.074
309.00,0.113
310.00,0.151
311.00,0.204
312.00,0.280
313.00,0.373
314.00,0.488
315.00,0.643
316.00,0.799
317.00,1.008
318.00,1.239
319.00,1.495
320.00,1.811
321.00,2.158
322.00,2.545
323.00,3.003
324.00,3.464
325.00,3.921
326.00,4.397
327.00,4.957
328.00,5.520
329.00,6.067
330.00,6.654
331.00,7.232
332.00,7.847
333.00,8.510
334.00,9.089
335.00,9.698
336.00,10.291
337.00,10.935
338.00,11.525
339.00,12.050
340.00,12.618
341.00,13.150
342.00,13.693
343.00,14.182
344.00,14.647
345.00,15.100
346.00,15.548
347.00,15.903
348.00,16.296
349.00,16.632
350.00,16.972
351.00,17.309
352.00,17.543
353.00,17.844
354.00,18.091
355.00,18.329
356.00,18.558
357.00,18.731
358.00,18.928
359.00,19.109
360.00,19.308
361.00,19.434
362.00,19.603
363.00,19.677
364.00,19.759
365.00,19.840
366.00,19.914
367.00,20.001
368.00,20.004
369.00,20.044
370.00,20.080
371.00,20.119
372.00,20.062
373.00,20.052
374.00,20.084
375.00,20.051
376.00,20.012
377.00,19.985
378.00,19.893
379.00,19.838
380.00,19.851
381.00,19.786
382.00,19.759
383.00,19.784
384.00,19.773
385.00,19.792
386.00,19.771
387.00,19.809
388.00,19.856
389.00,19.836
390.00,19.877
391.00,19.878
392.00,19.885
393.00,19.866
394.00,19.890
395.00,19.896
396.00,19.855
397.00,19.880
398.00,19.898
399.00,19.847
400.00,19.880
401.00,19.843
402.00,19.836
403.00,19.811
404.00,19.822
405.00,19.804
406.00,19.797
407.00,19.777
408.00,19.756
409.00,19.704
410.00,19.659
411.00,19.659
412.00,19.643
413.00,19.668
414.00,19.649
415.00,19.727
416.00,19.671
417.00,19.657
418.00,19.664
419.00,19.759
420.00,19.774
421.00,19.818
422.00,19.834
423.00,19.871
424.00,19.907
425.00,19.925
426.00,19.954
427.00,20.013
428.00,20.064
429.00,20.083
430.00,20.142
431.00,20.189
432.00,20.231
433.00,20.236
434.00,20.322
435.00,20.394
436.00,20.470
437.00,20.529
438.00,20.578
439.00,20.659
440.00,20.731
441.00,20.826
442.00,20.905
443.00,20.938
444.00,21.062
445.00,21.181
446.00,21.261
447.00,21.351
448.00,21.448
449.00,21.542
450.00,21.645
451.00,21.721
452.00,21.838
453.00,21.964
454.00,22.050
455.00,22.163
456.00,22.317
457.00,22.374
458.00,22.472
459.00,22.614
460.00,22.759
461.00,22.870
462.00,23.017
463.00,23.153
464.00,23.299
465.00,23.383
466.00,23.549
467.00,23.667
468.00,23.781
469.00,23.913
470.00,24.000
471.00,24.125
472.00,24.241
473.00,24.305
474.00,24.483
475.00,24.581
476.00,24.704
477.00,24.828
478.00,24.964
479.00,25.135
480.00,25.263
481.00,25.391
482.00,25.556
483.00,25.678
484.00,25.878
485.00,25.999
486.00,26.155
487.00,26.307
488.00,26.445
489.00,26.652
490.00,26.775
491.00,26.901
492.00,27.141
493.00,27.293
494.00,27.291
495.00,27.487
496.00,27.572
497.00,27.732
498.00,27.880
499.00,28.014
500.00,28.125
501.00,28.251
502.00,28.410
503.00,28.555
504.00,28.619
505.00,28.779
506.00,28.906
507.00,29.055
508.00,29.132
509.00,29.275
510.00,29.438
511.00,29.555
512.00,29.645
513.00,29.799
514.00,29.933
515.00,30.023
516.00,30.195
517.00,30.298
518.00,30.487
519.00,30.489
520.00,30.607
521.00,30.702
522.00,30.778
523.00,30.840
524.00,30.912
525.00,31.087
526.00,31.141
527.00,31.250
528.00,31.320
529.00,31.483
530.00,31.639
531.00,31.772
532.00,31.852
533.00,31.947
534.00,32.032
535.00,32.138
536.00,32.221
537.00,32.322
538.00,32.358
539.00,32.432
540.00,32.511
541.00,32.557
542.00,32.620
543.00,32.702
544.00,32.787
545.00,32.873
546.00,32.885
547.00,33.037
548.00,33.159
549.00,33.170
550.00,33.260
551.00,33.394
552.00,33.448
553.00,33.462
554.00,33.566
555.00,33.603
556.00,33.662
557.00,33.707
558.00,33.820
559.00,33.862
560.00,33.928
561.00,34.029
562.00,34.109
563.00,34.120
564.00,34.186
565.00,34.204
566.00,34.238
567.00,34.255
568.00,34.318
569.00,34.378
570.00,34.459
571.00,34.485
572.00,34.513
573.00,34.536
574.00,34.516
575.00,34.545
576.00,34.548
577.00,34.658
578.00,34.676
579.00,34.794
580.00,34.833
581.00,35.044
582.00,35.085
583.00,35.101
584.00,35.214
585.00,35.253
586.00,35.315
587.00,35.403
588.00,35.420
589.00,35.400
590.00,35.428
591.00,35.563
592.00,35.521
593.00,35.555
594.00,35.693
595.00,35.736
596.00,35.759
597.00,35.821
598.00,35.911
599.00,35.910
600.00,35.965
601.00,36.026
602.00,36.063
603.00,36.092
604.00,36.144
605.00,36.247
606.00,36.186
607.00,36.223
608.00,36.438
609.00,36.511
610.00,36.394
611.00,36.457
612.00,36.474
613.00,36.558
614.00,36.622
615.00,36.683
616.00,36.829
617.00,36.803
618.00,36.764
619.00,36.846
620.00,36.986
621.00,37.063
622.00,37.165
623.00,37.215
624.00,37.251
625.00,37.373
626.00,37.381
627.00,37.482
628.00,37.467
629.00,37.524
630.00,37.565
631.00,37.681
632.00,37.785
633.00,37.855
634.00,38.029
635.00,38.099
636.00,38.143
637.00,38.197
638.00,38.260
639.00,38.370
640.00,38.403
641.00,38.436
642.00,38.550
643.00,38.608
644.00,38.691
645.00,38.789
646.00,38.904
647.00,39.024
648.00,39.104
649.00,39.110
650.00,39.091
651.00,39.378
652.00,39.467
653.00,39.471
654.00,39.551
655.00,39.717
656.00,40.008
657.00,39.955
658.00,40.034
659.00,40.251
660.00,40.179
661.00,40.236
662.00,40.288
663.00,40.476
664.00,40.656
665.00,40.849
666.00,40.828
667.00,40.934
668.00,40.818
669.00,41.171
670.00,41.440
671.00,41.382
672.00,41.441
673.00,41.571
674.00,41.667
675.00,41.850
676.00,42.119
677.00,42.123
678.00,41.899
679.00,42.156
680.00,42.290
681.00,42.460
682.00,42.464
683.00,42.558
684.00,42.789
685.00,42.781
686.00,42.659
687.00,42.992
688.00,43.012
689.00,43.062
690.00,43.371
691.00,43.460
692.00,43.524
693.00,43.533
694.00,43.640
695.00,43.817
696.00,44.088
697.00,44.057
698.00,44.121
699.00,44.386
700.00,44.240
701.00,44.319
702.00,44.523
703.00,44.801
704.00,44.792
705.00,44.694
706.00,44.864
707.00,44.819
708.00,45.002
709.00,45.570
710.00,45.333
711.00,45.146
712.00,45.286
713.00,45.510
714.00,45.590
715.00,45.619
716.00,45.584
717.00,45.812
718.00,45.772
719.00,45.987
720.00,46.196
721.00,50.489
722.00,50.544
723.00,50.558
724.00,50.569
725.00,50.593
726.00,50.684
727.00,50.720
728.00,50.772
729.00,50.798
730.00,50.906
731.00,50.877
732.00,50.938
733.00,50.972
734.00,51.002
735.00,51.097
736.00,51.086
737.00,51.188
738.00,51.266
739.00,51.217
740.00,51.261
741.00,51.356
742.00,51.366
743.00,51.478
744.00,51.386
745.00,51.463
746.00,51.462
747.00,51.566
748.00,51.499
749.00,51.584
750.00,51.529
751.00,51.554
752.00,51.575
753.00,51.599
754.00,51.609
755.00,51.761
756.00,51.736
757.00,51.746
758.00,51.719
759.00,51.809
760.00,51.822
761.00,51.801
762.00,51.774
763.00,51.880
764.00,51.884
765.00,51.920
766.00,51.886
767.00,52.000
768.00,51.988
769.00,51.958
770.00,52.069
771.00,52.090
772.00,52.109
773.00,52.035
774.00,52.133
775.00,52.090
776.00,52.093
777.00,52.150
778.00,52.126
779.00,52.260
780.00,52.141
781.00,52.209
782.00,52.180
783.00,52.174
784.00,52.246
785.00,52.184
786.00,52.268
787.00,52.246
788.00,52.201
789.00,52.155
790.00,52.138
791.00,52.261
792.00,52.214
793.00,52.179
794.00,52.200
795.00,52.240
796.00,52.239
797.00,52.118
798.00,52.232
799.00,52.207
800.00,52.203
801.00,52.177
802.00,52.205
803.00,52.185
804.00,52.133
805.00,52.202
806.00,52.110
807.00,52.140
808.00,52.088
809.00,52.087
810.00,52.103
811.00,52.192
812.00,52.110
813.00,52.030
814.00,52.098
815.00,52.063
816.00,52.125
817.00,52.039
818.00,52.014
819.00,52.019
820.00,51.963
821.00,52.055
822.00,52.070
823.00,51.958
824.00,51.975
825.00,52.152
826.00,52.017
827.00,52.039
828.00,52.013
829.00,51.931
830.00,52.200
831.00,54.390
832.00,54.371
833.00,54.389
834.00,54.374
835.00,54.321
836.00,54.346
837.00,54.277
838.00,54.241
839.00,54.273
840.00,54.215
841.00,54.199
842.00,54.193
843.00,54.243
844.00,54.167
845.00,54.167
846.00,54.172
847.00,54.130
848.00,54.150
849.00,54.066
850.00,54.058
851.00,53.941
852.00,54.147
853.00,53.968
854.00,53.942
855.00,53.887
856.00,53.905
857.00,53.904
858.00,53.874
859.00,53.828
860.00,53.843
861.00,53.846
862.00,53.807
863.00,53.822
864.00,53.782
865.00,53.812
866.00,53.710
867.00,53.744
868.00,53.741
869.00,53.768
870.00,53.751
871.00,53.730
872.00,53.726
873.00,53.702
874.00,53.726
875.00,53.675
876.00,53.712
877.00,53.676
878.00,53.633
879.00,53.630
880.00,53.658
881.00,53.632
882.00,53.617
883.00,53.790
884.00,53.575
885.00,53.573
886.00,53.550
887.00,53.567
888.00,53.548
889.00,53.487
890.00,53.531
891.00,53.492
892.00,53.522
893.00,53.353
894.00,53.480
895.00,53.427
896.00,53.420
897.00,53.396
898.00,53.358
899.00,53.345
900.00,53.341
901.00,53.333
902.00,53.337
903.00,53.304
904.00,53.312
905.00,53.274
906.00,53.298
907.00,53.264
908.00,53.241
909.00,53.224
910.00,53.116
911.00,53.258
912.00,53.167
913.00,53.128
914.00,53.094
915.00,53.052
916.00,53.135
917.00,52.976
918.00,53.074
919.00,53.050
920.00,52.983
921.00,52.966
922.00,53.080
923.00,52.922
924.00,52.916
925.00,52.918
926.00,52.929
927.00,52.903
928.00,52.852
929.00,52.880
930.00,52.855
931.00,52.837
932.00,52.789
933.00,52.796
934.00,52.784
935.00,52.773
936.00,52.741
937.00,52.722
938.00,52.704
939.00,52.711
940.00,52.663
941.00,52.662
942.00,52.611
943.00,52.618
944.00,52.584
945.00,52.573
946.00,52.543
947.00,52.526
948.00,52.510
949.00,52.509
950.00,52.517
951.00,52.464
952.00,52.460
953.00,52.505
954.00,52.400
955.00,52.359
956.00,52.343
957.00,52.322
958.00,52.314
959.00,52.231
960.00,52.258
961.00,52.259
962.00,52.272
963.00,52.200
964.00,52.193
965.00,52.203
966.00,52.197
967.00,52.177
968.00,52.202
969.00,52.212
970.00,52.184
971.00,52.203
972.00,52.156
973.00,52.195
974.00,52.225
975.00,52.178
976.00,52.193
977.00,52.197
978.00,52.218
979.00,52.149
980.00,52.183
981.00,52.257
982.00,52.125
983.00,52.164
984.00,52.138
985.00,52.182
986.00,52.109
987.00,52.144
988.00,52.111
989.00,52.102
990.00,52.101
991.00,52.089
992.00,52.116
993.00,52.092
994.00,52.068
995.00,52.046
996.00,52.034
997.00,52.009
998.00,51.985
999.00,52.011
1000.00,51.954
1001.00,51.969
1002.00,51.963
1003.00,51.948
1004.00,51.934
1005.00,51.898
1006.00,51.940
1007.00,51.898
1008.00,51.886
1009.00,51.859
1010.00,51.864
1011.00,51.847
1012.00,51.826
1013.00,51.859
1014.00,51.858
1015.00,51.804
1016.00,51.764
1017.00,51.760
1018.00,51.761
1019.00,51.728
1020.00,51.731
1021.00,51.714
1022.00,51.699
1023.00,51.666
1024.00,51.662
1025.00,51.643
1026.00,51.640
1027.00,51.594
1028.00,51.594
1029.00,51.628
1030.00,51.548
1031.00,51.575
1032.00,51.547
1033.00,51.533
1034.00,51.506
1035.00,51.472
1036.00,51.444
1037.00,51.422
1038.00,51.395
1039.00,51.372
1040.00,51.367
1041.00,51.336
1042.00,51.326
1043.00,51.309
1044.00,51.340
1045.00,51.325
1046.00,51.318
1047.00,51.349
1048.00,51.356
1049.00,51.371
1050.00,51.371
1051.00,51.410
1052.00,51.407
1053.00,51.411
1054.00,51.409
1055.00,51.427
1056.00,51.442
1057.00,51.424
1058.00,51.410
1059.00,51.425
1060.00,51.408
1061.00,51.395
1062.00,51.399
1063.00,51.393
1064.00,51.390
1065.00,51.390
1066.00,51.366
1067.00,51.351
1068.00,51.378
1069.00,51.336
1070.00,51.313
1071.00,51.303
1072.00,51.332
1073.00,51.308
1074.00,51.311
1075.00,51.314
1076.00,51.271
1077.00,51.266
1078.00,51.247
1079.00,51.255
1080.00,51.250
1081.00,51.241
1082.00,51.232
1083.00,51.220
1084.00,51.219
1085.00,51.208
1086.00,51.210
1087.00,51.216
1088.00,51.214
1089.00,51.194
1090.00,51.159
1091.00,51.172
1092.00,51.168
1093.00,51.154
1094.00,51.130
1095.00,51.133
1096.00,51.107
1097.00,51.105
1098.00,51.103
1099.00,51.076
1100.00,51.063
1101.00,51.047
1102.00,51.045
1103.00,51.054
1104.00,51.042
1105.00,51.041
1106.00,51.023
1107.00,51.008
1108.00,51.007
1109.00,51.006
1110.00,50.981
1111.00,50.968
1112.00,50.963
1113.00,50.955
1114.00,50.933
1115.00,50.930
1116.00,50.917
1117.00,50.898
1118.00,50.891
1119.00,50.901
1120.00,50.892
1121.00,50.881
1122.00,50.875
1123.00,50.877
1124.00,50.879
1125.00,50.873
1126.00,50.858
1127.00,50.860
1128.00,50.843
1129.00,50.824
1130.00,50.812
1131.00,50.814
1132.00,50.793
1133.00,50.801
1134.00,50.788
1135.00,50.786
1136.00,50.826
1137.00,50.794
1138.00,50.802
1139.00,50.809
1140.00,50.785
1141.00,50.786
1142.00,50.771
1143.00,50.773
1144.00,50.744
1145.00,50.748
1146.00,50.759
1147.00,50.741
1148.00,50.726
1149.00,50.747
1150.00,50.736
1151.00,50.735
1152.00,50.730
1153.00,50.732
1154.00,50.704
1155.00,50.712
1156.00,50.707
1157.00,50.727
1158.00,50.720
1159.00,50.712
1160.00,50.709
1161.00,50.713
1162.00,50.686
1163.00,50.687
1164.00,50.695
1165.00,50.680
1166.00,50.691
1167.00,50.677
1168.00,50.697
1169.00,50.682
1170.00,50.675
1171.00,50.666
1172.00,50.678
1173.00,50.660
1174.00,50.673
1175.00,50.665
1176.00,50.664
1177.00,50.646
1178.00,50.655
1179.00,50.661
1180.00,50.640
1181.00,50.668
1182.00,50.652
1183.00,50.635
1184.00,50.627
1185.00,50.649
1186.00,50.631
1187.00,50.622
1188.00,50.632
1189.00,50.637
1190.00,50.634
1191.00,50.617
1192.00,50.633
1193.00,50.631
1194.00,50.634
1195.00,50.608
1196.00,50.657
1197.00,50.645
1198.00,50.604
1199.00,50.607
1200.00,50.610
1201.00,50.637
1202.00,50.627
1203.00,50.623
1204.00,50.614
1205.00,50.622
1206.00,50.607
1207.00,50.616
1208.00,50.611
1209.00,50.606
1210.00,50.620
1211.00,50.613
1212.00,50.629
1213.00,50.587
1214.00,50.613
1215.00,50.596
1216.00,50.598
1217.00,50.602
1218.00,50.594
1219.00,50.627
1220.00,50.594
1221.00,50.603
1222.00,50.585
1223.00,50.607
1224.00,50.597
1225.00,50.582
1226.00,50.585
1227.00,50.596
1228.00,50.607
1229.00,50.603
1230.00,50.637
1231.00,50.615
1232.00,50.633
1233.00,50.638
1234.00,50.642
1235.00,50.639
1236.00,50.633
1237.00,50.648
1238.00,50.653
1239.00,50.653
1240.00,50.629
1241.00,50.658
1242.00,50.647
1243.00,50.657
1244.00,50.641
1245.00,50.670
1246.00,50.674
1247.00,50.656
1248.00,50.656
1249.00,50.657
1250.00,50.654
1251.00,50.650
1252.00,50.669
1253.00,50.640
1254.00,50.671
1255.00,50.674
1256.00,50.647
1257.00,50.640
1258.00,50.682
1259.00,50.668
1260.00,50.700
1261.00,50.696
1262.00,50.688
1263.00,50.695
1264.00,50.693
1265.00,50.703
1266.00,50.690
1267.00,50.711
1268.00,50.712
1269.00,50.698
1270.00,50.723
1271.00,50.737
1272.00,50.734
1273.00,50.752
1274.00,50.766
1275.00,50.764
1276.00,50.761
1277.00,50.753
1278.00,50.765
1279.00,50.766
1280.00,50.751
1281.00,50.772
1282.00,50.775
1283.00,50.762
1284.00,50.769
1285.00,50.763
1286.00,50.783
1287.00,50.772
1288.00,50.780
1289.00,50.777
1290.00,50.809
1291.00,50.798
1292.00,50.805
1293.00,50.811
1294.00,50.820
1295.00,50.824
1296.00,50.824
1297.00,50.834
1298.00,50.869
1299.00,50.838
1300.00,50.835
1301.00,50.852
1302.00,50.867
1303.00,50.892
1304.00,50.866
1305.00,50.876
1306.00,50.891
1307.00,50.907
1308.00,50.894
1309.00,50.915
1310.00,50.929
1311.00,50.897
1312.00,50.916
1313.00,50.926
1314.00,50.928
1315.00,50.922
1316.00,50.895
1317.00,50.931
1318.00,50.928
1319.00,50.917
1320.00,50.929
1321.00,51.097
1322.00,51.111
1323.00,51.099
1324.00,51.069
1325.00,51.063
1326.00,51.073
1327.00,51.066
1328.00,51.061
1329.00,51.074
1330.00,51.065
1331.00,51.086
1332.00,51.078
1333.00,51.081
1334.00,51.090
1335.00,51.107
1336.00,51.131
1337.00,51.172
1338.00,51.223
1339.00,51.267
1340.00,51.313
1341.00,51.395
1342.00,51.462
1343.00,51.501
1344.00,51.558
1345.00,51.619
1346.00,51.650
1347.00,51.725
1348.00,51.697
1349.00,51.713
1350.00,51.731
1351.00,51.740
1352.00,51.761
1353.00,51.779
1354.00,51.774
1355.00,51.736
1356.00,51.781
1357.00,51.762
1358.00,51.806
1359.00,51.808
1360.00,51.779
1361.00,51.771
1362.00,51.771
1363.00,51.865
1364.00,51.841
1365.00,51.795
1366.00,51.832
1367.00,51.799
1368.00,51.768
1369.00,51.766
1370.00,51.773
1371.00,51.739
1372.00,51.756
1373.00,51.758
1374.00,51.758
1375.00,51.768
1376.00,51.740
1377.00,51.800
1378.00,51.849
1379.00,51.776
1380.00,51.768
1381.00,51.772
1382.00,51.764
1383.00,51.758
1384.00,51.717
1385.00,51.729
1386.00,51.766
1387.00,51.733
1388.00,51.694
1389.00,51.723
1390.00,51.758
1391.00,51.774
1392.00,51.733
1393.00,51.814
1394.00,51.747
1395.00,51.749
1396.00,51.683
1397.00,51.731
1398.00,51.809
1399.00,51.759
1400.00,51.689
1401.00,51.703
1402.00,51.809
1403.00,51.755
1404.00,51.748
1405.00,51.803
1406.00,51.783
1407.00,51.732
1408.00,51.781
1409.00,51.765
1410.00,51.811
1411.00,51.815
1412.00,51.844
1413.00,51.734
1414.00,51.811
1415.00,51.827
1416.00,51.848
1417.00,51.848
1418.00,51.848
1419.00,51.855
1420.00,51.884
1421.00,51.905
1422.00,51.907
1423.00,51.932
1424.00,51.911
1425.00,51.922
1426.00,51.932
1427.00,51.958
1428.00,51.949
1429.00,51.965
1430.00,51.969
1431.00,51.985
1432.00,52.009
1433.00,52.016
1434.00,52.007
1435.00,52.064
1436.00,52.080
1437.00,52.072
1438.00,52.090
1439.00,52.130
1440.00,52.132
1441.00,52.138
1442.00,52.146
1443.00,52.178
1444.00,52.217
1445.00,52.155
1446.00,52.208
1447.00,52.251
1448.00,52.274
1449.00,52.268
1450.00,52.264
1451.00,52.290
1452.00,52.323
1453.00,52.321
1454.00,52.336
1455.00,52.359
1456.00,52.367
1457.00,52.366
1458.00,52.395
1459.00,52.415
1460.00,52.437
1461.00,52.433
1462.00,52.476
1463.00,52.474
1464.00,52.487
1465.00,52.497
1466.00,52.489
1467.00,52.517
1468.00,52.558
1469.00,52.544
1470.00,52.549
1471.00,52.575
1472.00,52.577
1473.00,52.590
1474.00,52.640
1475.00,52.622
1476.00,52.642
1477.00,52.631
1478.00,52.657
1479.00,52.675
1480.00,52.662
1481.00,52.662
1482.00,52.699
1483.00,52.688
1484.00,52.708
1485.00,52.720
1486.00,52.739
1487.00,52.751
1488.00,52.776
1489.00,52.750
1490.00,52.781
1491.00,52.792
1492.00,52.812
1493.00,52.803
1494.00,52.822
1495.00,52.818
1496.00,52.831
1497.00,52.822
1498.00,52.854
1499.00,52.848
1500.00,52.860
1501.00, 
1502.00, 
1503.00, 
1504.00, 
1505.00, 
1506.00, 
1507.00, 
1508.00, 
1509.00, 
1510.00, 
1511.00, 
1512.00, 
1513.00, 
1514.00, 
1515.00, 
1516.00, 
1517.00, 
1518.00, 
1519.00, 
1520.00, 
1521.00, 
1522.00, 
1523.00, 
1524.00, 
1525.00, 
1526.00, 
1527.00, 
1528.00, 
1529.00, 
1530.00, 
1531.00, 
1532.00, 
1533.00, 
1534.00, 
1535.00, 
1536.00, 
1537.00, 
1538.00, 
1539.00, 
1540.00, 
1541.00, 
1542.00, 
1543.00, 
1544.00, 
1545.00, 
1546.00, 
1547.00, 
1548.00, 
1549.00, 
1550.00, 
1551.00, 
1552.00, 
1553.00, 
1554.00, 
1555.00, 
1556.00, 
1557.00, 
1558.00, 
1559.00, 
1560.00, 
1561.00, 
1562.00, 
1563.00, 
1564.00, 
1565.00, 
1566.00, 
1567.00, 
1568.00, 
1569.00, 
1570.00, 
1571.00, 
1572.00, 
1573.00, 
1574.00, 
1575.00, 
1576.00, 
1577.00, 
1578.00, 
1579.00, 
1580.00, 
1581.00, 
1582.00, 
1583.00, 
1584.00, 
1585.00, 
1586.00, 
1587.00, 
1588.00, 
1589.00, 
1590.00, 
1591.00, 
1592.00, 
1593.00, 
1594.00, 
1595.00, 
1596.00, 
1597.00, 
1598.00, 
1599.00, 
1600.00, 
1601.00, 
1602.00, 
1603.00, 
1604.00, 
1605.00, 
1606.00, 
1607.00, 
1608.00, 
1609.00, 
1610.00, 
1611.00, 
1612.00, 
1613.00, 
1614.00, 
1615.00, 
1616.00, 
1617.00, 
1618.00, 
1619.00, 
1620.00, 
1621.00, 
1622.00, 
1623.00, 
1624.00, 
1625.00, 
1626.00, 
1627.00, 
1628.00, 
1629.00, 
1630.00, 
1631.00, 
1632.00, 
1633.00, 
1634.00, 
1635.00, 
1636.00, 
1637.00, 
1638.00, 
1639.00, 
1640.00, 
1641.00, 
1642.00, 
1643.00, 
1644.00, 
1645.00, 
1646.00, 
1647.00, 
1648.00, 
1649.00, 
1650.00, 
1651.00, 
1652.00, 
1653.00, 
1654.00, 
1655.00, 
1656.00, 
1657.00, 
1658.00, 
1659.00, 
1660.00, 
1661.00, 
1662.00, 
1663.00, 
1664.00, 
1665.00, 
1666.00, 
1667.00, 
1668.00, 
1669.00, 
1670.00, 
1671.00, 
1672.00, 
1673.00, 
1674.00, 
1675.00, 
1676.00, 
1677.00, 
1678.00, 
1679.00, 
1680.00, 
1681.00, 
1682.00, 
1683.00, 
1684.00, 
1685.00, 
1686.00, 
1687.00, 
1688.00, 
1689.00, 
1690.00, 
1691.00, 
1692.00, 
1693.00, 
1694.00, 
1695.00, 
1696.00, 
1697.00, 
1698.00, 
1699.00, 
1700.00, 
1701.00, 
1702.00, 
1703.00, 
1704.00, 
1705.00, 
1706.00, 
1707.00, 
1708.00, 
1709.00, 
1710.00, 
1711.00, 
1712.00, 
1713.00, 
1714.00, 
1715.00, 
1716.00, 
1717.00, 
1718.00, 
1719.00, 
1720.00, 
1721.00, 
1722.00, 
1723.00, 
1724.00, 
1725.00, 
1726.00, 
1727.00, 
1728.00, 
1729.00, 
1730.00, 
1731.00, 
1732.00, 
1733.00, 
1734.00, 
1735.00, 
1736.00, 
1737.00, 
1738.00, 
1739.00, 
1740.00, 
1741.00, 
1742.00, 
1743.00, 
1744.00, 
1745.00, 
1746.00, 
1747.00, 
1748.00, 
1749.00, 
1750.00, 
1751.00, 
1752.00, 
1753.00, 
1754.00, 
1755.00, 
1756.00, 
1757.00, 
1758.00, 
1759.00, 
1760.00, 
1761.00, 
1762.00, 
1763.00, 
1764.00, 
1765.00, 
1766.00, 
1767.00, 
1768.00, 
1769.00, 
1770.00, 
1771.00, 
1772.00, 
1773.00, 
1774.00, 
1775.00, 
1776.00, 
1777.00, 
1778.00, 
1779.00, 
1780.00, 
1781.00, 
1782.00, 
1783.00, 
1784.00, 
1785.00, 
1786.00, 
1787.00, 
1788.00, 
1789.00, 
1790.00, 
1791.00, 
1792.00, 
1793.00, 
1794.00, 
1795.00, 
1796.00, 
1797.00, 
1798.00, 
1799.00, 
1800.00, 
1801.00, 
1802.00, 
1803.00, 
1804.00, 
1805.00, 
1806.00, 
1807.00, 
1808.00, 
1809.00, 
1810.00, 
1811.00, 
1812.00, 
1813.00, 
1814.00, 
1815.00, 
1816.00, 
1817.00, 
1818.00, 
1819.00, 
1820.00, 
1821.00, 
1822.00, 
1823.00, 
1824.00, 
1825.00, 
1826.00, 
1827.00, 
1828.00, 
1829.00, 
1830.00, 
1831.00, 
1832.00, 
1833.00, 
1834.00, 
1835.00, 
1836.00, 
1837.00, 
1838.00, 
1839.00, 
1840.00, 
1841.00, 
1842.00, 
1843.00, 
1844.00, 
1845.00, 
1846.00, 
1847.00, 
1848.00, 
1849.00, 
1850.00, 
1851.00, 
1852.00, 
1853.00, 
1854.00, 
1855.00, 
1856.00, 
1857.00, 
1858.00, 
1859.00, 
1860.00, 
1861.00, 
1862.00, 
1863.00, 
1864.00, 
1865.00, 
1866.00, 
1867.00, 
1868.00, 
1869.00, 
1870.00, 
1871.00, 
1872.00, 
1873.00, 
1874.00, 
1875.00, 
1876.00, 
1877.00, 
1878.00, 
1879.00, 
1880.00, 
1881.00, 
1882.00, 
1883.00, 
1884.00, 
1885.00, 
1886.00, 
1887.00, 
1888.00, 
1889.00, 
1890.00, 
1891.00, 
1892.00, 
1893.00, 
1894.00, 
1895.00, 
1896.00, 
1897.00, 
1898.00, 
1899.00, 
1900.00, 
1901.00, 
1902.00, 
1903.00, 
1904.00, 
1905.00, 
1906.00, 
1907.00, 
1908.00, 
1909.00, 
1910.00, 
1911.00, 
1912.00, 
1913.00, 
1914.00, 
1915.00, 
1916.00, 
1917.00, 
1918.00, 
1919.00, 
1920.00, 
1921.00, 
1922.00, 
1923.00, 
1924.00, 
1925.00, 
1926.00, 
1927.00, 
1928.00, 
1929.00, 
1930.00, 
1931.00, 
1932.00, 
1933.00, 
1934.00, 
1935.00, 
1936.00, 
1937.00, 
1938.00, 
1939.00, 
1940.00, 
1941.00, 
1942.00, 
1943.00, 
1944.00, 
1945.00, 
1946.00, 
1947.00, 
1948.00, 
1949.00, 
1950.00, 
1951.00, 
1952.00, 
1953.00, 
1954.00, 
1955.00, 
1956.00, 
1957.00, 
1958.00, 
1959.00, 
1960.00, 
1961.00, 
1962.00, 
1963.00, 
1964.00, 
1965.00, 
1966.00, 
1967.00, 
1968.00, 
1969.00, 
1970.00, 
1971.00, 
1972.00, 
1973.00, 
1974.00, 
1975.00, 
1976.00, 
1977.00, 
1978.00, 
1979.00, 
1980.00, 
1981.00, 
1982.00, 
1983.00, 
1984.00, 
1985.00, 
1986.00, 
1987.00, 
1988.00, 
1989.00, 
1990.00, 
1991.00, 
1992.00, 
1993.00, 
1994.00, 
1995.00, 
1996.00, 
1997.00, 
1998.00, 
1999.00, 
2000.00, 
2001.00, 
2002.00, 
2003.00, 
2004.00, 
2005.00, 
2006.00, 
2007.00, 
2008.00, 
2009.00, 
2010.00, 
2011.00, 
2012.00, 
2013.00, 
2014.00, 
2015.00, 
2016.00, 
2017.00, 
2018.00, 
2019.00, 
2020.00, 
2021.00, 
2022.00, 
2023.00, 
2024.00, 
2025.00, 
2026.00, 
2027.00, 
2028.00, 
2029.00, 
2030.00, 
2031.00, 
2032.00, 
2033.00, 
2034.00, 
2035.00, 
2036.00, 
2037.00, 
2038.00, 
2039.00, 
2040.00, 
2041.00, 
2042.00, 
2043.00, 
2044.00, 
2045.00, 
2046.00, 
2047.00, 
2048.00, 
2049.00, 
2050.00, 
2051.00, 
2052.00, 
2053.00, 
2054.00, 
2055.00, 
2056.00, 
2057.00, 
2058.00, 
2059.00, 
2060.00, 
2061.00, 
2062.00, 
2063.00, 
2064.00, 
2065.00, 
2066.00, 
2067.00, 
2068.00, 
2069.00, 
2070.00, 
2071.00, 
2072.00, 
2073.00, 
2074.00, 
2075.00, 
2076.00, 
2077.00, 
2078.00, 
2079.00, 
2080.00, 
2081.00, 
2082.00, 
2083.00, 
2084.00, 
2085.00, 
2086.00, 
2087.00, 
2088.00, 
2089.00, 
2090.00, 
2091.00, 
2092.00, 
2093.00, 
2094.00, 
2095.00, 
2096.00, 
2097.00, 
2098.00, 
2099.00, 
2100.00, 
2101.00, 
2102.00, 
2103.00, 
2104.00, 
2105.00, 
2106.00, 
2107.00, 
2108.00, 
2109.00, 
2110.00, 
2111.00, 
2112.00, 
2113.00, 
2114.00, 
2115.00, 
2116.00, 
2117.00, 
2118.00, 
2119.00, 
2120.00, 
2121.00, 
2122.00, 
2123.00, 
2124.00, 
2125.00, 
2126.00, 
2127.00, 
2128.00, 
2129.00, 
2130.00, 
2131.00, 
2132.00, 
2133.00, 
2134.00, 
2135.00, 
2136.00, 
2137.00, 
2138.00, 
2139.00, 
2140.00, 
2141.00, 
2142.00, 
2143.00, 
2144.00, 
2145.00, 
2146.00, 
2147.00, 
2148.00, 
2149.00, 
2150.00, 
2151.00, 
2152.00, 
2153.00, 
2154.00, 
2155.00, 
2156.00, 
2157.00, 
2158.00, 
2159.00, 
2160.00, 
2161.00, 
2162.00, 
2163.00, 
2164.00, 
2165.00, 
2166.00, 
2167.00, 
2168.00, 
2169.00, 
2170.00, 
2171.00, 
2172.00, 
2173.00, 
2174.00, 
2175.00, 
2176.00, 
2177.00, 
2178.00, 
2179.00, 
2180.00, 
2181.00, 
2182.00, 
2183.00, 
2184.00, 
2185.00, 
2186.00, 
2187.00, 
2188.00, 
2189.00, 
2190.00, 
2191.00, 
2192.00, 
2193.00, 
2194.00, 
2195.00, 
2196.00, 
2197.00, 
2198.00, 
2199.00, 
2200.00, 
2201.00, 
2202.00, 
2203.00, 
2204.00, 
2205.00, 
2206.00, 
2207.00, 
2208.00, 
2209.00, 
2210.00, 
2211.00, 
2212.00, 
2213.00, 
2214.00, 
2215.00, 
2216.00, 
2217.00, 
2218.00, 
2219.00, 
2220.00, 
2221.00, 
2222.00, 
2223.00, 
2224.00, 
2225.00, 
2226.00, 
2227.00, 
2228.00, 
2229.00, 
2230.00, 
2231.00, 
2232.00, 
2233.00, 
2234.00, 
2235.00, 
2236.00, 
2237.00, 
2238.00, 
2239.00, 
2240.00, 
2241.00, 
2242.00, 
2243.00, 
2244.00, 
2245.00, 
2246.00, 
2247.00, 
2248.00, 
2249.00, 
2250.00, 
2251.00, 
2252.00, 
2253.00, 
2254.00, 
2255.00, 
2256.00, 
2257.00, 
2258.00, 
2259.00, 
2260.00, 
2261.00, 
2262.00, 
2263.00, 
2264.00, 
2265.00, 
2266.00, 
2267.00, 
2268.00, 
2269.00, 
2270.00, 
2271.00, 
2272.00, 
2273.00, 
2274.00, 
2275.00, 
2276.00, 
2277.00, 
2278.00, 
2279.00, 
2280.00, 
2281.00, 
2282.00, 
2283.00, 
2284.00, 
2285.00, 
2286.00, 
2287.00, 
2288.00, 
2289.00, 
2290.00, 
2291.00, 
2292.00, 
2293.00, 
2294.00, 
2295.00, 
2296.00, 
2297.00, 
2298.00, 
2299.00, 
2300.00, 
2301.00, 
2302.00, 
2303.00, 
2304.00, 
2305.00, 
2306.00, 
2307.00, 
2308.00, 
2309.00, 
2310.00, 
2311.00, 
2312.00, 
2313.00, 
2314.00, 
2315.00, 
2316.00, 
2317.00, 
2318.00, 
2319.00, 
2320.00, 
2321.00, 
2322.00, 
2323.00, 
2324.00, 
2325.00, 
2326.00, 
2327.00, 
2328.00, 
2329.00, 
2330.00, 
2331.00, 
2332.00, 
2333.00, 
2334.00, 
2335.00, 
2336.00, 
2337.00, 
2338.00, 
2339.00, 
2340.00, 
2341.00, 
2342.00, 
2343.00, 
2344.00, 
2345.00, 
2346.00, 
2347.00, 
2348.00, 
2349.00, 
2350.00, 
2351.00, 
2352.00, 
2353.00, 
2354.00, 
2355.00, 
2356.00, 
2357.00, 
2358.00, 
2359.00, 
2360.00, 
2361.00, 
2362.00, 
2363.00, 
2364.00, 
2365.00, 
2366.00, 
2367.00, 
2368.00, 
2369.00, 
2370.00, 
2371.00, 
2372.00, 
2373.00, 
2374.00, 
2375.00, 
2376.00, 
2377.00, 
2378.00, 
2379.00, 
2380.00, 
2381.00, 
2382.00, 
2383.00, 
2384.00, 
2385.00, 
2386.00, 
2387.00, 
2388.00, 
2389.00, 
2390.00, 
2391.00, 
2392.00, 
2393.00, 
2394.00, 
2395.00, 
2396.00, 
2397.00, 
2398.00, 
2399.00, 
2400.00, 
2401.00, 
2402.00, 
2403.00, 
2404.00, 
2405.00, 
2406.00, 
2407.00, 
2408.00, 
2409.00, 
2410.00, 
2411.00, 
2412.00, 
2413.00, 
2414.00, 
2415.00, 
2416.00, 
2417.00, 
2418.00, 
2419.00, 
2420.00, 
2421.00, 
2422.00, 
2423.00, 
2424.00, 
2425.00, 
2426.00, 
2427.00, 
2428.00, 
2429.00, 
2430.00, 
2431.00, 
2432.00, 
2433.00, 
2434.00, 
2435.00, 
2436.00, 
2437.00, 
2438.00, 
2439.00, 
2440.00, 
2441.00, 
2442.00, 
2443.00, 
2444.00, 
2445.00, 
2446.00, 
2447.00, 
2448.00, 
2449.00, 
2450.00, 
2451.00, 
2452.00, 
2453.00, 
2454.00, 
2455.00, 
2456.00, 
2457.00, 
2458.00, 
2459.00, 
2460.00, 
2461.00, 
2462.00, 
2463.00, 
2464.00, 
2465.00, 
2466.00, 
2467.00, 
2468.00, 
2469.00, 
2470.00, 
2471.00, 
2472.00, 
2473.00, 
2474.00, 
2475.00, 
2476.00, 
2477.00, 
2478.00, 
2479.00, 
2480.00, 
2481.00, 
2482.00, 
2483.00, 
2484.00, 
2485.00, 
2486.00, 
2487.00, 
2488.00, 
2489.00, 
2490.00, 
2491.00, 
2492.00, 
2493.00, 
2494.00, 
2495.00, 
2496.00, 
2497.00, 
2498.00, 
2499.00, 
2500.00, 
2501.00, 
2502.00, 
2503.00, 
2504.00, 
2505.00, 
2506.00, 
2507.00, 
2508.00, 
2509.00, 
2510.00, 
2511.00, 
2512.00, 
2513.00, 
2514.00, 
2515.00, 
2516.00, 
2517.00, 
2518.00, 
2519.00, 
2520.00, 
2521.00, 
2522.00, 
2523.00, 
2524.00, 
2525.00, 
2526.00, 
2527.00, 
2528.00, 
2529.00, 
2530.00, 
2531.00, 
2532.00, 
2533.00, 
2534.00, 
2535.00, 
2536.00, 
2537.00, 
2538.00, 
2539.00, 
2540.00, 
2541.00, 
2542.00, 
2543.00, 
2544.00, 
2545.00, 
2546.00, 
2547.00, 
2548.00, 
2549.00, 
2550.00, 
2551.00, 
2552.00, 
2553.00, 
2554.00, 
2555.00, 
2556.00, 
2557.00, 
2558.00, 
2559.00, 
2560.00, 
2561.00, 
2562.00, 
2563.00, 
2564.00, 
2565.00, 
2566.00, 
2567.00, 
2568.00, 
2569.00, 
2570.00, 
2571.00, 
2572.00, 
2573.00, 
2574.00, 
2575.00, 
2576.00, 
2577.00, 
2578.00, 
2579.00, 
2580.00, 
2581.00, 
2582.00, 
2583.00, 
2584.00, 
2585.00, 
2586.00, 
2587.00, 
2588.00, 
2589.00, 
2590.00, 
2591.00, 
2592.00, 
2593.00, 
2594.00, 
2595.00, 
2596.00, 
2597.00, 
2598.00, 
2599.00, 
2600.00, 
