"2cP3 - RawData"
"Wavelength nm.","T%"
200.00,-0.001
201.00,0.001
202.00,-0.000
203.00,0.002
204.00,0.003
205.00,0.001
206.00,0.001
207.00,-0.001
208.00,0.004
209.00,0.002
210.00,-0.000
211.00,-0.000
212.00,-0.000
213.00,0.000
214.00,0.001
215.00,0.001
216.00,0.003
217.00,0.003
218.00,0.002
219.00,0.001
220.00,0.001
221.00,-0.002
222.00,-0.001
223.00,0.002
224.00,0.001
225.00,0.000
226.00,0.000
227.00,-0.001
228.00,-0.000
229.00,-0.002
230.00,0.003
231.00,0.000
232.00,0.001
233.00,0.001
234.00,-0.000
235.00,0.000
236.00,-0.001
237.00,-0.000
238.00,0.002
239.00,0.003
240.00,0.000
241.00,0.001
242.00,0.002
243.00,-0.000
244.00,0.001
245.00,0.002
246.00,0.000
247.00,0.003
248.00,0.001
249.00,-0.001
250.00,-0.000
251.00,-0.001
252.00,-0.000
253.00,-0.000
254.00,0.001
255.00,0.002
256.00,0.000
257.00,0.001
258.00,-0.000
259.00,0.001
260.00,0.001
261.00,-0.001
262.00,0.001
263.00,0.000
264.00,0.002
265.00,0.001
266.00,0.003
267.00,-0.001
268.00,0.000
269.00,0.000
270.00,0.001
271.00,-0.000
272.00,0.000
273.00,-0.000
274.00,0.000
275.00,0.001
276.00,0.002
277.00,0.001
278.00,0.001
279.00,0.000
280.00,-0.000
281.00,0.000
282.00,0.001
283.00,0.000
284.00,0.001
285.00,-0.000
286.00,-0.001
287.00,-0.001
288.00,-0.001
289.00,-0.000
290.00,0.000
291.00,-0.001
292.00,0.000
293.00,0.002
294.00,0.001
295.00,-0.001
296.00,-0.000
297.00,0.001
298.00,0.001
299.00,0.001
300.00,0.002
301.00,0.003
302.00,0.005
303.00,0.008
304.00,0.011
305.00,0.020
306.00,0.029
307.00,0.044
308.00,0.069
309.00,0.108
310.00,0.149
311.00,0.204
312.00,0.282
313.00,0.377
314.00,0.493
315.00,0.643
316.00,0.824
317.00,1.040
318.00,1.287
319.00,1.586
320.00,1.931
321.00,2.301
322.00,2.730
323.00,3.228
324.00,3.722
325.00,4.233
326.00,4.811
327.00,5.451
328.00,6.088
329.00,6.713
330.00,7.433
331.00,8.109
332.00,8.806
333.00,9.533
334.00,10.216
335.00,11.003
336.00,11.720
337.00,12.435
338.00,13.129
339.00,13.795
340.00,14.531
341.00,15.163
342.00,15.793
343.00,16.424
344.00,16.967
345.00,17.532
346.00,18.031
347.00,18.537
348.00,19.054
349.00,19.482
350.00,19.898
351.00,20.282
352.00,20.665
353.00,21.015
354.00,21.323
355.00,21.668
356.00,21.981
357.00,22.278
358.00,22.523
359.00,22.737
360.00,22.967
361.00,23.146
362.00,23.350
363.00,23.545
364.00,23.648
365.00,23.867
366.00,23.967
367.00,24.091
368.00,24.189
369.00,24.256
370.00,24.370
371.00,24.362
372.00,24.408
373.00,24.412
374.00,24.429
375.00,24.395
376.00,24.399
377.00,24.384
378.00,24.336
379.00,24.327
380.00,24.288
381.00,24.268
382.00,24.293
383.00,24.321
384.00,24.364
385.00,24.412
386.00,24.454
387.00,24.523
388.00,24.540
389.00,24.591
390.00,24.638
391.00,24.695
392.00,24.709
393.00,24.733
394.00,24.769
395.00,24.773
396.00,24.739
397.00,24.807
398.00,24.846
399.00,24.809
400.00,24.873
401.00,24.856
402.00,24.846
403.00,24.837
404.00,24.869
405.00,24.814
406.00,24.835
407.00,24.824
408.00,24.810
409.00,24.718
410.00,24.691
411.00,24.683
412.00,24.692
413.00,24.664
414.00,24.681
415.00,24.743
416.00,24.724
417.00,24.743
418.00,24.760
419.00,24.811
420.00,24.803
421.00,24.873
422.00,24.938
423.00,24.956
424.00,24.948
425.00,24.982
426.00,25.035
427.00,25.099
428.00,25.115
429.00,25.101
430.00,25.162
431.00,25.216
432.00,25.258
433.00,25.332
434.00,25.334
435.00,25.421
436.00,25.465
437.00,25.535
438.00,25.570
439.00,25.659
440.00,25.713
441.00,25.776
442.00,25.861
443.00,25.897
444.00,26.016
445.00,26.105
446.00,26.162
447.00,26.239
448.00,26.331
449.00,26.408
450.00,26.528
451.00,26.567
452.00,26.678
453.00,26.792
454.00,26.874
455.00,26.984
456.00,27.094
457.00,27.169
458.00,27.239
459.00,27.343
460.00,27.497
461.00,27.557
462.00,27.700
463.00,27.817
464.00,27.925
465.00,28.050
466.00,28.122
467.00,28.252
468.00,28.321
469.00,28.467
470.00,28.510
471.00,28.636
472.00,28.761
473.00,28.812
474.00,28.916
475.00,29.033
476.00,29.093
477.00,29.239
478.00,29.337
479.00,29.489
480.00,29.612
481.00,29.725
482.00,29.866
483.00,29.989
484.00,30.117
485.00,30.282
486.00,30.396
487.00,30.567
488.00,30.683
489.00,30.853
490.00,30.959
491.00,31.093
492.00,31.277
493.00,31.377
494.00,31.399
495.00,31.513
496.00,31.628
497.00,31.729
498.00,31.897
499.00,32.007
500.00,32.077
501.00,32.225
502.00,32.344
503.00,32.456
504.00,32.571
505.00,32.630
506.00,32.795
507.00,32.962
508.00,32.983
509.00,33.096
510.00,33.222
511.00,33.289
512.00,33.437
513.00,33.568
514.00,33.690
515.00,33.742
516.00,33.898
517.00,34.008
518.00,34.087
519.00,34.152
520.00,34.271
521.00,34.275
522.00,34.415
523.00,34.518
524.00,34.570
525.00,34.715
526.00,34.799
527.00,34.861
528.00,34.966
529.00,35.091
530.00,35.190
531.00,35.289
532.00,35.389
533.00,35.458
534.00,35.550
535.00,35.637
536.00,35.739
537.00,35.807
538.00,35.900
539.00,35.962
540.00,36.002
541.00,36.089
542.00,36.155
543.00,36.238
544.00,36.291
545.00,36.363
546.00,36.444
547.00,36.479
548.00,36.598
549.00,36.632
550.00,36.753
551.00,36.825
552.00,36.863
553.00,36.983
554.00,37.087
555.00,37.102
556.00,37.144
557.00,37.235
558.00,37.264
559.00,37.356
560.00,37.431
561.00,37.470
562.00,37.561
563.00,37.577
564.00,37.619
565.00,37.644
566.00,37.659
567.00,37.725
568.00,37.779
569.00,37.829
570.00,37.847
571.00,37.915
572.00,37.950
573.00,38.019
574.00,38.091
575.00,38.059
576.00,38.114
577.00,38.201
578.00,38.239
579.00,38.314
580.00,38.406
581.00,38.494
582.00,38.595
583.00,38.652
584.00,38.768
585.00,38.773
586.00,38.782
587.00,38.913
588.00,38.959
589.00,38.968
590.00,39.011
591.00,39.061
592.00,39.084
593.00,39.085
594.00,39.149
595.00,39.195
596.00,39.220
597.00,39.285
598.00,39.396
599.00,39.415
600.00,39.462
601.00,39.554
602.00,39.594
603.00,39.632
604.00,39.696
605.00,39.759
606.00,39.812
607.00,39.821
608.00,39.932
609.00,39.926
610.00,39.864
611.00,39.881
612.00,39.919
613.00,39.983
614.00,39.979
615.00,40.009
616.00,40.150
617.00,40.100
618.00,40.263
619.00,40.355
620.00,40.309
621.00,40.314
622.00,40.469
623.00,40.541
624.00,40.528
625.00,40.675
626.00,40.687
627.00,40.761
628.00,40.739
629.00,40.814
630.00,40.876
631.00,40.827
632.00,40.895
633.00,40.986
634.00,40.946
635.00,41.006
636.00,41.144
637.00,41.350
638.00,41.441
639.00,41.527
640.00,41.535
641.00,41.500
642.00,41.589
643.00,41.660
644.00,41.712
645.00,41.817
646.00,41.858
647.00,41.789
648.00,41.985
649.00,42.110
650.00,42.095
651.00,42.202
652.00,42.282
653.00,42.359
654.00,42.433
655.00,42.452
656.00,42.552
657.00,42.744
658.00,42.694
659.00,42.888
660.00,42.918
661.00,42.921
662.00,43.095
663.00,43.094
664.00,43.181
665.00,43.263
666.00,43.300
667.00,43.451
668.00,43.441
669.00,43.442
670.00,43.648
671.00,43.702
672.00,43.714
673.00,43.857
674.00,43.956
675.00,43.996
676.00,44.169
677.00,44.057
678.00,44.007
679.00,44.146
680.00,44.246
681.00,44.285
682.00,44.352
683.00,44.523
684.00,44.640
685.00,44.653
686.00,44.601
687.00,44.812
688.00,44.840
689.00,44.796
690.00,44.947
691.00,45.032
692.00,44.902
693.00,44.963
694.00,45.160
695.00,45.230
696.00,45.337
697.00,45.526
698.00,45.558
699.00,45.727
700.00,45.656
701.00,45.706
702.00,45.860
703.00,45.914
704.00,45.883
705.00,45.994
706.00,46.077
707.00,46.024
708.00,46.035
709.00,46.304
710.00,46.284
711.00,46.153
712.00,46.211
713.00,46.307
714.00,46.423
715.00,46.450
716.00,46.508
717.00,46.615
718.00,46.531
719.00,46.660
720.00,46.688
721.00,51.043
722.00,51.166
723.00,51.073
724.00,51.007
725.00,50.947
726.00,51.065
727.00,51.048
728.00,51.061
729.00,51.074
730.00,51.099
731.00,51.100
732.00,51.124
733.00,51.100
734.00,51.132
735.00,51.106
736.00,51.232
737.00,51.294
738.00,51.227
739.00,51.232
740.00,51.224
741.00,51.314
742.00,51.242
743.00,51.316
744.00,51.235
745.00,51.275
746.00,51.247
747.00,51.277
748.00,51.217
749.00,51.213
750.00,51.250
751.00,51.175
752.00,51.140
753.00,51.192
754.00,51.175
755.00,51.202
756.00,51.196
757.00,51.176
758.00,51.185
759.00,51.192
760.00,51.245
761.00,51.188
762.00,51.197
763.00,51.202
764.00,51.210
765.00,51.197
766.00,51.205
767.00,51.291
768.00,51.218
769.00,51.194
770.00,51.316
771.00,51.202
772.00,51.272
773.00,51.220
774.00,51.237
775.00,51.226
776.00,51.233
777.00,51.257
778.00,51.272
779.00,51.244
780.00,51.244
781.00,51.212
782.00,51.202
783.00,51.162
784.00,51.213
785.00,51.170
786.00,51.157
787.00,51.217
788.00,51.138
789.00,51.150
790.00,51.053
791.00,51.157
792.00,51.066
793.00,51.003
794.00,51.077
795.00,51.016
796.00,51.010
797.00,50.956
798.00,51.009
799.00,50.981
800.00,50.994
801.00,50.917
802.00,50.932
803.00,50.881
804.00,50.885
805.00,50.930
806.00,50.813
807.00,50.817
808.00,50.764
809.00,50.776
810.00,50.804
811.00,50.770
812.00,50.786
813.00,50.707
814.00,50.724
815.00,50.767
816.00,50.752
817.00,50.699
818.00,50.607
819.00,50.576
820.00,50.576
821.00,50.627
822.00,50.663
823.00,50.530
824.00,50.482
825.00,50.672
826.00,50.606
827.00,50.644
828.00,50.402
829.00,50.384
830.00,50.523
831.00,53.032
832.00,53.007
833.00,53.003
834.00,52.980
835.00,52.927
836.00,52.930
837.00,52.860
838.00,52.861
839.00,52.855
840.00,52.791
841.00,52.767
842.00,52.877
843.00,52.800
844.00,52.762
845.00,52.711
846.00,52.729
847.00,52.710
848.00,52.671
849.00,52.608
850.00,52.555
851.00,52.525
852.00,52.522
853.00,52.630
854.00,52.461
855.00,52.402
856.00,52.409
857.00,52.381
858.00,52.376
859.00,52.307
860.00,52.318
861.00,52.289
862.00,52.250
863.00,52.270
864.00,52.241
865.00,52.263
866.00,52.208
867.00,52.209
868.00,52.202
869.00,52.190
870.00,52.150
871.00,52.145
872.00,52.125
873.00,52.101
874.00,52.100
875.00,52.120
876.00,52.090
877.00,52.109
878.00,52.039
879.00,52.060
880.00,52.052
881.00,52.018
882.00,51.980
883.00,52.110
884.00,51.946
885.00,51.933
886.00,51.909
887.00,51.918
888.00,51.906
889.00,51.862
890.00,51.864
891.00,51.826
892.00,51.852
893.00,51.660
894.00,51.778
895.00,51.737
896.00,51.733
897.00,51.700
898.00,51.680
899.00,51.691
900.00,51.670
901.00,51.676
902.00,51.641
903.00,51.619
904.00,51.610
905.00,51.577
906.00,51.600
907.00,51.563
908.00,51.442
909.00,51.572
910.00,51.469
911.00,51.465
912.00,51.462
913.00,51.427
914.00,51.388
915.00,51.350
916.00,51.428
917.00,51.248
918.00,51.334
919.00,51.301
920.00,51.264
921.00,51.247
922.00,51.254
923.00,51.207
924.00,51.186
925.00,51.164
926.00,51.176
927.00,51.149
928.00,51.127
929.00,51.113
930.00,51.092
931.00,51.059
932.00,51.041
933.00,51.016
934.00,51.023
935.00,50.988
936.00,50.980
937.00,50.928
938.00,50.984
939.00,50.919
940.00,50.893
941.00,50.899
942.00,50.844
943.00,50.850
944.00,50.824
945.00,50.785
946.00,50.802
947.00,50.766
948.00,50.732
949.00,50.728
950.00,50.705
951.00,50.696
952.00,50.663
953.00,50.625
954.00,50.664
955.00,50.573
956.00,50.559
957.00,50.523
958.00,50.520
959.00,50.470
960.00,50.481
961.00,50.451
962.00,50.478
963.00,50.426
964.00,50.400
965.00,50.396
966.00,50.391
967.00,50.382
968.00,50.359
969.00,50.386
970.00,50.360
971.00,50.374
972.00,50.344
973.00,50.364
974.00,50.393
975.00,50.337
976.00,50.382
977.00,50.360
978.00,50.388
979.00,50.337
980.00,50.365
981.00,50.369
982.00,50.347
983.00,50.342
984.00,50.325
985.00,50.367
986.00,50.301
987.00,50.330
988.00,50.302
989.00,50.288
990.00,50.301
991.00,50.267
992.00,50.262
993.00,50.288
994.00,50.229
995.00,50.219
996.00,50.222
997.00,50.192
998.00,50.149
999.00,50.185
1000.00,50.127
1001.00,50.157
1002.00,50.143
1003.00,50.125
1004.00,50.113
1005.00,50.076
1006.00,50.097
1007.00,50.060
1008.00,50.044
1009.00,50.031
1010.00,50.020
1011.00,49.997
1012.00,49.993
1013.00,50.014
1014.00,50.003
1015.00,49.958
1016.00,49.922
1017.00,49.926
1018.00,49.924
1019.00,49.886
1020.00,49.883
1021.00,49.862
1022.00,49.841
1023.00,49.809
1024.00,49.799
1025.00,49.789
1026.00,49.789
1027.00,49.754
1028.00,49.759
1029.00,49.754
1030.00,49.708
1031.00,49.720
1032.00,49.676
1033.00,49.669
1034.00,49.642
1035.00,49.615
1036.00,49.582
1037.00,49.574
1038.00,49.555
1039.00,49.527
1040.00,49.532
1041.00,49.467
1042.00,49.482
1043.00,49.442
1044.00,49.462
1045.00,49.455
1046.00,49.445
1047.00,49.456
1048.00,49.469
1049.00,49.481
1050.00,49.495
1051.00,49.524
1052.00,49.532
1053.00,49.540
1054.00,49.536
1055.00,49.553
1056.00,49.571
1057.00,49.564
1058.00,49.555
1059.00,49.560
1060.00,49.546
1061.00,49.547
1062.00,49.531
1063.00,49.527
1064.00,49.511
1065.00,49.506
1066.00,49.495
1067.00,49.492
1068.00,49.510
1069.00,49.465
1070.00,49.450
1071.00,49.426
1072.00,49.447
1073.00,49.427
1074.00,49.401
1075.00,49.398
1076.00,49.391
1077.00,49.374
1078.00,49.363
1079.00,49.356
1080.00,49.357
1081.00,49.335
1082.00,49.348
1083.00,49.333
1084.00,49.330
1085.00,49.308
1086.00,49.317
1087.00,49.316
1088.00,49.281
1089.00,49.265
1090.00,49.277
1091.00,49.277
1092.00,49.276
1093.00,49.242
1094.00,49.237
1095.00,49.223
1096.00,49.195
1097.00,49.187
1098.00,49.191
1099.00,49.162
1100.00,49.158
1101.00,49.149
1102.00,49.135
1103.00,49.150
1104.00,49.139
1105.00,49.120
1106.00,49.117
1107.00,49.097
1108.00,49.105
1109.00,49.084
1110.00,49.075
1111.00,49.076
1112.00,49.073
1113.00,49.054
1114.00,49.061
1115.00,49.063
1116.00,49.043
1117.00,49.035
1118.00,49.029
1119.00,49.022
1120.00,49.019
1121.00,49.000
1122.00,49.007
1123.00,48.985
1124.00,48.983
1125.00,48.976
1126.00,48.958
1127.00,48.955
1128.00,48.948
1129.00,48.912
1130.00,48.921
1131.00,48.916
1132.00,48.897
1133.00,48.897
1134.00,48.899
1135.00,48.875
1136.00,48.893
1137.00,48.877
1138.00,48.889
1139.00,48.894
1140.00,48.863
1141.00,48.860
1142.00,48.850
1143.00,48.847
1144.00,48.831
1145.00,48.835
1146.00,48.831
1147.00,48.810
1148.00,48.812
1149.00,48.822
1150.00,48.822
1151.00,48.808
1152.00,48.803
1153.00,48.795
1154.00,48.773
1155.00,48.792
1156.00,48.777
1157.00,48.788
1158.00,48.772
1159.00,48.758
1160.00,48.757
1161.00,48.776
1162.00,48.751
1163.00,48.758
1164.00,48.762
1165.00,48.745
1166.00,48.765
1167.00,48.746
1168.00,48.748
1169.00,48.757
1170.00,48.749
1171.00,48.731
1172.00,48.747
1173.00,48.719
1174.00,48.741
1175.00,48.741
1176.00,48.735
1177.00,48.734
1178.00,48.723
1179.00,48.722
1180.00,48.723
1181.00,48.739
1182.00,48.725
1183.00,48.723
1184.00,48.700
1185.00,48.729
1186.00,48.699
1187.00,48.694
1188.00,48.692
1189.00,48.689
1190.00,48.687
1191.00,48.684
1192.00,48.694
1193.00,48.680
1194.00,48.704
1195.00,48.671
1196.00,48.705
1197.00,48.697
1198.00,48.668
1199.00,48.678
1200.00,48.670
1201.00,48.680
1202.00,48.667
1203.00,48.672
1204.00,48.665
1205.00,48.691
1206.00,48.666
1207.00,48.680
1208.00,48.667
1209.00,48.647
1210.00,48.667
1211.00,48.661
1212.00,48.679
1213.00,48.669
1214.00,48.668
1215.00,48.655
1216.00,48.661
1217.00,48.655
1218.00,48.657
1219.00,48.674
1220.00,48.634
1221.00,48.654
1222.00,48.639
1223.00,48.661
1224.00,48.664
1225.00,48.642
1226.00,48.651
1227.00,48.652
1228.00,48.656
1229.00,48.653
1230.00,48.707
1231.00,48.681
1232.00,48.708
1233.00,48.694
1234.00,48.703
1235.00,48.698
1236.00,48.695
1237.00,48.700
1238.00,48.701
1239.00,48.691
1240.00,48.687
1241.00,48.701
1242.00,48.686
1243.00,48.705
1244.00,48.685
1245.00,48.703
1246.00,48.729
1247.00,48.712
1248.00,48.708
1249.00,48.720
1250.00,48.707
1251.00,48.712
1252.00,48.721
1253.00,48.690
1254.00,48.719
1255.00,48.707
1256.00,48.684
1257.00,48.688
1258.00,48.740
1259.00,48.756
1260.00,48.772
1261.00,48.763
1262.00,48.755
1263.00,48.750
1264.00,48.741
1265.00,48.753
1266.00,48.750
1267.00,48.754
1268.00,48.778
1269.00,48.749
1270.00,48.772
1271.00,48.786
1272.00,48.774
1273.00,48.780
1274.00,48.789
1275.00,48.776
1276.00,48.789
1277.00,48.794
1278.00,48.805
1279.00,48.803
1280.00,48.803
1281.00,48.819
1282.00,48.839
1283.00,48.804
1284.00,48.831
1285.00,48.811
1286.00,48.818
1287.00,48.804
1288.00,48.816
1289.00,48.817
1290.00,48.841
1291.00,48.833
1292.00,48.848
1293.00,48.852
1294.00,48.852
1295.00,48.860
1296.00,48.857
1297.00,48.849
1298.00,48.875
1299.00,48.850
1300.00,48.863
1301.00,48.884
1302.00,48.876
1303.00,48.909
1304.00,48.897
1305.00,48.903
1306.00,48.908
1307.00,48.924
1308.00,48.909
1309.00,48.914
1310.00,48.910
1311.00,48.902
1312.00,48.904
1313.00,48.898
1314.00,48.929
1315.00,48.945
1316.00,48.925
1317.00,48.949
1318.00,48.934
1319.00,48.940
1320.00,48.972
1321.00,49.128
1322.00,49.154
1323.00,49.140
1324.00,49.122
1325.00,49.104
1326.00,49.130
1327.00,49.134
1328.00,49.123
1329.00,49.132
1330.00,49.120
1331.00,49.139
1332.00,49.134
1333.00,49.128
1334.00,49.157
1335.00,49.150
1336.00,49.188
1337.00,49.221
1338.00,49.276
1339.00,49.330
1340.00,49.380
1341.00,49.448
1342.00,49.514
1343.00,49.570
1344.00,49.599
1345.00,49.669
1346.00,49.705
1347.00,49.732
1348.00,49.753
1349.00,49.771
1350.00,49.792
1351.00,49.793
1352.00,49.803
1353.00,49.825
1354.00,49.818
1355.00,49.792
1356.00,49.834
1357.00,49.818
1358.00,49.825
1359.00,49.865
1360.00,49.812
1361.00,49.841
1362.00,49.807
1363.00,49.897
1364.00,49.937
1365.00,49.829
1366.00,49.883
1367.00,49.841
1368.00,49.780
1369.00,49.805
1370.00,49.809
1371.00,49.775
1372.00,49.789
1373.00,49.794
1374.00,49.830
1375.00,49.795
1376.00,49.785
1377.00,49.770
1378.00,49.996
1379.00,49.745
1380.00,49.790
1381.00,49.781
1382.00,49.730
1383.00,49.782
1384.00,49.750
1385.00,49.718
1386.00,49.785
1387.00,49.711
1388.00,49.722
1389.00,49.762
1390.00,49.763
1391.00,49.702
1392.00,49.742
1393.00,49.800
1394.00,49.732
1395.00,49.724
1396.00,49.716
1397.00,49.751
1398.00,49.771
1399.00,49.777
1400.00,49.727
1401.00,49.734
1402.00,49.822
1403.00,49.779
1404.00,49.773
1405.00,49.799
1406.00,49.798
1407.00,49.801
1408.00,49.788
1409.00,49.793
1410.00,49.839
1411.00,49.835
1412.00,49.860
1413.00,49.781
1414.00,49.845
1415.00,49.858
1416.00,49.873
1417.00,49.897
1418.00,49.895
1419.00,49.886
1420.00,49.928
1421.00,49.936
1422.00,49.969
1423.00,49.943
1424.00,49.958
1425.00,49.999
1426.00,49.985
1427.00,50.008
1428.00,50.001
1429.00,50.023
1430.00,50.028
1431.00,50.031
1432.00,50.049
1433.00,50.091
1434.00,50.073
1435.00,50.124
1436.00,50.136
1437.00,50.128
1438.00,50.134
1439.00,50.173
1440.00,50.201
1441.00,50.199
1442.00,50.189
1443.00,50.220
1444.00,50.253
1445.00,50.214
1446.00,50.237
1447.00,50.288
1448.00,50.297
1449.00,50.301
1450.00,50.295
1451.00,50.320
1452.00,50.333
1453.00,50.343
1454.00,50.345
1455.00,50.378
1456.00,50.380
1457.00,50.376
1458.00,50.424
1459.00,50.426
1460.00,50.446
1461.00,50.456
1462.00,50.476
1463.00,50.493
1464.00,50.497
1465.00,50.506
1466.00,50.517
1467.00,50.537
1468.00,50.564
1469.00,50.579
1470.00,50.599
1471.00,50.622
1472.00,50.614
1473.00,50.609
1474.00,50.659
1475.00,50.639
1476.00,50.647
1477.00,50.652
1478.00,50.666
1479.00,50.679
1480.00,50.684
1481.00,50.681
1482.00,50.718
1483.00,50.728
1484.00,50.741
1485.00,50.769
1486.00,50.755
1487.00,50.769
1488.00,50.803
1489.00,50.780
1490.00,50.799
1491.00,50.819
1492.00,50.830
1493.00,50.833
1494.00,50.854
1495.00,50.860
1496.00,50.862
1497.00,50.860
1498.00,50.878
1499.00,50.896
1500.00,50.896
1501.00, 
1502.00, 
1503.00, 
1504.00, 
1505.00, 
1506.00, 
1507.00, 
1508.00, 
1509.00, 
1510.00, 
1511.00, 
1512.00, 
1513.00, 
1514.00, 
1515.00, 
1516.00, 
1517.00, 
1518.00, 
1519.00, 
1520.00, 
1521.00, 
1522.00, 
1523.00, 
1524.00, 
1525.00, 
1526.00, 
1527.00, 
1528.00, 
1529.00, 
1530.00, 
1531.00, 
1532.00, 
1533.00, 
1534.00, 
1535.00, 
1536.00, 
1537.00, 
1538.00, 
1539.00, 
1540.00, 
1541.00, 
1542.00, 
1543.00, 
1544.00, 
1545.00, 
1546.00, 
1547.00, 
1548.00, 
1549.00, 
1550.00, 
1551.00, 
1552.00, 
1553.00, 
1554.00, 
1555.00, 
1556.00, 
1557.00, 
1558.00, 
1559.00, 
1560.00, 
1561.00, 
1562.00, 
1563.00, 
1564.00, 
1565.00, 
1566.00, 
1567.00, 
1568.00, 
1569.00, 
1570.00, 
1571.00, 
1572.00, 
1573.00, 
1574.00, 
1575.00, 
1576.00, 
1577.00, 
1578.00, 
1579.00, 
1580.00, 
1581.00, 
1582.00, 
1583.00, 
1584.00, 
1585.00, 
1586.00, 
1587.00, 
1588.00, 
1589.00, 
1590.00, 
1591.00, 
1592.00, 
1593.00, 
1594.00, 
1595.00, 
1596.00, 
1597.00, 
1598.00, 
1599.00, 
1600.00, 
1601.00, 
1602.00, 
1603.00, 
1604.00, 
1605.00, 
1606.00, 
1607.00, 
1608.00, 
1609.00, 
1610.00, 
1611.00, 
1612.00, 
1613.00, 
1614.00, 
1615.00, 
1616.00, 
1617.00, 
1618.00, 
1619.00, 
1620.00, 
1621.00, 
1622.00, 
1623.00, 
1624.00, 
1625.00, 
1626.00, 
1627.00, 
1628.00, 
1629.00, 
1630.00, 
1631.00, 
1632.00, 
1633.00, 
1634.00, 
1635.00, 
1636.00, 
1637.00, 
1638.00, 
1639.00, 
1640.00, 
1641.00, 
1642.00, 
1643.00, 
1644.00, 
1645.00, 
1646.00, 
1647.00, 
1648.00, 
1649.00, 
1650.00, 
1651.00, 
1652.00, 
1653.00, 
1654.00, 
1655.00, 
1656.00, 
1657.00, 
1658.00, 
1659.00, 
1660.00, 
1661.00, 
1662.00, 
1663.00, 
1664.00, 
1665.00, 
1666.00, 
1667.00, 
1668.00, 
1669.00, 
1670.00, 
1671.00, 
1672.00, 
1673.00, 
1674.00, 
1675.00, 
1676.00, 
1677.00, 
1678.00, 
1679.00, 
1680.00, 
1681.00, 
1682.00, 
1683.00, 
1684.00, 
1685.00, 
1686.00, 
1687.00, 
1688.00, 
1689.00, 
1690.00, 
1691.00, 
1692.00, 
1693.00, 
1694.00, 
1695.00, 
1696.00, 
1697.00, 
1698.00, 
1699.00, 
1700.00, 
1701.00, 
1702.00, 
1703.00, 
1704.00, 
1705.00, 
1706.00, 
1707.00, 
1708.00, 
1709.00, 
1710.00, 
1711.00, 
1712.00, 
1713.00, 
1714.00, 
1715.00, 
1716.00, 
1717.00, 
1718.00, 
1719.00, 
1720.00, 
1721.00, 
1722.00, 
1723.00, 
1724.00, 
1725.00, 
1726.00, 
1727.00, 
1728.00, 
1729.00, 
1730.00, 
1731.00, 
1732.00, 
1733.00, 
1734.00, 
1735.00, 
1736.00, 
1737.00, 
1738.00, 
1739.00, 
1740.00, 
1741.00, 
1742.00, 
1743.00, 
1744.00, 
1745.00, 
1746.00, 
1747.00, 
1748.00, 
1749.00, 
1750.00, 
1751.00, 
1752.00, 
1753.00, 
1754.00, 
1755.00, 
1756.00, 
1757.00, 
1758.00, 
1759.00, 
1760.00, 
1761.00, 
1762.00, 
1763.00, 
1764.00, 
1765.00, 
1766.00, 
1767.00, 
1768.00, 
1769.00, 
1770.00, 
1771.00, 
1772.00, 
1773.00, 
1774.00, 
1775.00, 
1776.00, 
1777.00, 
1778.00, 
1779.00, 
1780.00, 
1781.00, 
1782.00, 
1783.00, 
1784.00, 
1785.00, 
1786.00, 
1787.00, 
1788.00, 
1789.00, 
1790.00, 
1791.00, 
1792.00, 
1793.00, 
1794.00, 
1795.00, 
1796.00, 
1797.00, 
1798.00, 
1799.00, 
1800.00, 
1801.00, 
1802.00, 
1803.00, 
1804.00, 
1805.00, 
1806.00, 
1807.00, 
1808.00, 
1809.00, 
1810.00, 
1811.00, 
1812.00, 
1813.00, 
1814.00, 
1815.00, 
1816.00, 
1817.00, 
1818.00, 
1819.00, 
1820.00, 
1821.00, 
1822.00, 
1823.00, 
1824.00, 
1825.00, 
1826.00, 
1827.00, 
1828.00, 
1829.00, 
1830.00, 
1831.00, 
1832.00, 
1833.00, 
1834.00, 
1835.00, 
1836.00, 
1837.00, 
1838.00, 
1839.00, 
1840.00, 
1841.00, 
1842.00, 
1843.00, 
1844.00, 
1845.00, 
1846.00, 
1847.00, 
1848.00, 
1849.00, 
1850.00, 
1851.00, 
1852.00, 
1853.00, 
1854.00, 
1855.00, 
1856.00, 
1857.00, 
1858.00, 
1859.00, 
1860.00, 
1861.00, 
1862.00, 
1863.00, 
1864.00, 
1865.00, 
1866.00, 
1867.00, 
1868.00, 
1869.00, 
1870.00, 
1871.00, 
1872.00, 
1873.00, 
1874.00, 
1875.00, 
1876.00, 
1877.00, 
1878.00, 
1879.00, 
1880.00, 
1881.00, 
1882.00, 
1883.00, 
1884.00, 
1885.00, 
1886.00, 
1887.00, 
1888.00, 
1889.00, 
1890.00, 
1891.00, 
1892.00, 
1893.00, 
1894.00, 
1895.00, 
1896.00, 
1897.00, 
1898.00, 
1899.00, 
1900.00, 
1901.00, 
1902.00, 
1903.00, 
1904.00, 
1905.00, 
1906.00, 
1907.00, 
1908.00, 
1909.00, 
1910.00, 
1911.00, 
1912.00, 
1913.00, 
1914.00, 
1915.00, 
1916.00, 
1917.00, 
1918.00, 
1919.00, 
1920.00, 
1921.00, 
1922.00, 
1923.00, 
1924.00, 
1925.00, 
1926.00, 
1927.00, 
1928.00, 
1929.00, 
1930.00, 
1931.00, 
1932.00, 
1933.00, 
1934.00, 
1935.00, 
1936.00, 
1937.00, 
1938.00, 
1939.00, 
1940.00, 
1941.00, 
1942.00, 
1943.00, 
1944.00, 
1945.00, 
1946.00, 
1947.00, 
1948.00, 
1949.00, 
1950.00, 
1951.00, 
1952.00, 
1953.00, 
1954.00, 
1955.00, 
1956.00, 
1957.00, 
1958.00, 
1959.00, 
1960.00, 
1961.00, 
1962.00, 
1963.00, 
1964.00, 
1965.00, 
1966.00, 
1967.00, 
1968.00, 
1969.00, 
1970.00, 
1971.00, 
1972.00, 
1973.00, 
1974.00, 
1975.00, 
1976.00, 
1977.00, 
1978.00, 
1979.00, 
1980.00, 
1981.00, 
1982.00, 
1983.00, 
1984.00, 
1985.00, 
1986.00, 
1987.00, 
1988.00, 
1989.00, 
1990.00, 
1991.00, 
1992.00, 
1993.00, 
1994.00, 
1995.00, 
1996.00, 
1997.00, 
1998.00, 
1999.00, 
2000.00, 
2001.00, 
2002.00, 
2003.00, 
2004.00, 
2005.00, 
2006.00, 
2007.00, 
2008.00, 
2009.00, 
2010.00, 
2011.00, 
2012.00, 
2013.00, 
2014.00, 
2015.00, 
2016.00, 
2017.00, 
2018.00, 
2019.00, 
2020.00, 
2021.00, 
2022.00, 
2023.00, 
2024.00, 
2025.00, 
2026.00, 
2027.00, 
2028.00, 
2029.00, 
2030.00, 
2031.00, 
2032.00, 
2033.00, 
2034.00, 
2035.00, 
2036.00, 
2037.00, 
2038.00, 
2039.00, 
2040.00, 
2041.00, 
2042.00, 
2043.00, 
2044.00, 
2045.00, 
2046.00, 
2047.00, 
2048.00, 
2049.00, 
2050.00, 
2051.00, 
2052.00, 
2053.00, 
2054.00, 
2055.00, 
2056.00, 
2057.00, 
2058.00, 
2059.00, 
2060.00, 
2061.00, 
2062.00, 
2063.00, 
2064.00, 
2065.00, 
2066.00, 
2067.00, 
2068.00, 
2069.00, 
2070.00, 
2071.00, 
2072.00, 
2073.00, 
2074.00, 
2075.00, 
2076.00, 
2077.00, 
2078.00, 
2079.00, 
2080.00, 
2081.00, 
2082.00, 
2083.00, 
2084.00, 
2085.00, 
2086.00, 
2087.00, 
2088.00, 
2089.00, 
2090.00, 
2091.00, 
2092.00, 
2093.00, 
2094.00, 
2095.00, 
2096.00, 
2097.00, 
2098.00, 
2099.00, 
2100.00, 
2101.00, 
2102.00, 
2103.00, 
2104.00, 
2105.00, 
2106.00, 
2107.00, 
2108.00, 
2109.00, 
2110.00, 
2111.00, 
2112.00, 
2113.00, 
2114.00, 
2115.00, 
2116.00, 
2117.00, 
2118.00, 
2119.00, 
2120.00, 
2121.00, 
2122.00, 
2123.00, 
2124.00, 
2125.00, 
2126.00, 
2127.00, 
2128.00, 
2129.00, 
2130.00, 
2131.00, 
2132.00, 
2133.00, 
2134.00, 
2135.00, 
2136.00, 
2137.00, 
2138.00, 
2139.00, 
2140.00, 
2141.00, 
2142.00, 
2143.00, 
2144.00, 
2145.00, 
2146.00, 
2147.00, 
2148.00, 
2149.00, 
2150.00, 
2151.00, 
2152.00, 
2153.00, 
2154.00, 
2155.00, 
2156.00, 
2157.00, 
2158.00, 
2159.00, 
2160.00, 
2161.00, 
2162.00, 
2163.00, 
2164.00, 
2165.00, 
2166.00, 
2167.00, 
2168.00, 
2169.00, 
2170.00, 
2171.00, 
2172.00, 
2173.00, 
2174.00, 
2175.00, 
2176.00, 
2177.00, 
2178.00, 
2179.00, 
2180.00, 
2181.00, 
2182.00, 
2183.00, 
2184.00, 
2185.00, 
2186.00, 
2187.00, 
2188.00, 
2189.00, 
2190.00, 
2191.00, 
2192.00, 
2193.00, 
2194.00, 
2195.00, 
2196.00, 
2197.00, 
2198.00, 
2199.00, 
2200.00, 
2201.00, 
2202.00, 
2203.00, 
2204.00, 
2205.00, 
2206.00, 
2207.00, 
2208.00, 
2209.00, 
2210.00, 
2211.00, 
2212.00, 
2213.00, 
2214.00, 
2215.00, 
2216.00, 
2217.00, 
2218.00, 
2219.00, 
2220.00, 
2221.00, 
2222.00, 
2223.00, 
2224.00, 
2225.00, 
2226.00, 
2227.00, 
2228.00, 
2229.00, 
2230.00, 
2231.00, 
2232.00, 
2233.00, 
2234.00, 
2235.00, 
2236.00, 
2237.00, 
2238.00, 
2239.00, 
2240.00, 
2241.00, 
2242.00, 
2243.00, 
2244.00, 
2245.00, 
2246.00, 
2247.00, 
2248.00, 
2249.00, 
2250.00, 
2251.00, 
2252.00, 
2253.00, 
2254.00, 
2255.00, 
2256.00, 
2257.00, 
2258.00, 
2259.00, 
2260.00, 
2261.00, 
2262.00, 
2263.00, 
2264.00, 
2265.00, 
2266.00, 
2267.00, 
2268.00, 
2269.00, 
2270.00, 
2271.00, 
2272.00, 
2273.00, 
2274.00, 
2275.00, 
2276.00, 
2277.00, 
2278.00, 
2279.00, 
2280.00, 
2281.00, 
2282.00, 
2283.00, 
2284.00, 
2285.00, 
2286.00, 
2287.00, 
2288.00, 
2289.00, 
2290.00, 
2291.00, 
2292.00, 
2293.00, 
2294.00, 
2295.00, 
2296.00, 
2297.00, 
2298.00, 
2299.00, 
2300.00, 
2301.00, 
2302.00, 
2303.00, 
2304.00, 
2305.00, 
2306.00, 
2307.00, 
2308.00, 
2309.00, 
2310.00, 
2311.00, 
2312.00, 
2313.00, 
2314.00, 
2315.00, 
2316.00, 
2317.00, 
2318.00, 
2319.00, 
2320.00, 
2321.00, 
2322.00, 
2323.00, 
2324.00, 
2325.00, 
2326.00, 
2327.00, 
2328.00, 
2329.00, 
2330.00, 
2331.00, 
2332.00, 
2333.00, 
2334.00, 
2335.00, 
2336.00, 
2337.00, 
2338.00, 
2339.00, 
2340.00, 
2341.00, 
2342.00, 
2343.00, 
2344.00, 
2345.00, 
2346.00, 
2347.00, 
2348.00, 
2349.00, 
2350.00, 
2351.00, 
2352.00, 
2353.00, 
2354.00, 
2355.00, 
2356.00, 
2357.00, 
2358.00, 
2359.00, 
2360.00, 
2361.00, 
2362.00, 
2363.00, 
2364.00, 
2365.00, 
2366.00, 
2367.00, 
2368.00, 
2369.00, 
2370.00, 
2371.00, 
2372.00, 
2373.00, 
2374.00, 
2375.00, 
2376.00, 
2377.00, 
2378.00, 
2379.00, 
2380.00, 
2381.00, 
2382.00, 
2383.00, 
2384.00, 
2385.00, 
2386.00, 
2387.00, 
2388.00, 
2389.00, 
2390.00, 
2391.00, 
2392.00, 
2393.00, 
2394.00, 
2395.00, 
2396.00, 
2397.00, 
2398.00, 
2399.00, 
2400.00, 
2401.00, 
2402.00, 
2403.00, 
2404.00, 
2405.00, 
2406.00, 
2407.00, 
2408.00, 
2409.00, 
2410.00, 
2411.00, 
2412.00, 
2413.00, 
2414.00, 
2415.00, 
2416.00, 
2417.00, 
2418.00, 
2419.00, 
2420.00, 
2421.00, 
2422.00, 
2423.00, 
2424.00, 
2425.00, 
2426.00, 
2427.00, 
2428.00, 
2429.00, 
2430.00, 
2431.00, 
2432.00, 
2433.00, 
2434.00, 
2435.00, 
2436.00, 
2437.00, 
2438.00, 
2439.00, 
2440.00, 
2441.00, 
2442.00, 
2443.00, 
2444.00, 
2445.00, 
2446.00, 
2447.00, 
2448.00, 
2449.00, 
2450.00, 
2451.00, 
2452.00, 
2453.00, 
2454.00, 
2455.00, 
2456.00, 
2457.00, 
2458.00, 
2459.00, 
2460.00, 
2461.00, 
2462.00, 
2463.00, 
2464.00, 
2465.00, 
2466.00, 
2467.00, 
2468.00, 
2469.00, 
2470.00, 
2471.00, 
2472.00, 
2473.00, 
2474.00, 
2475.00, 
2476.00, 
2477.00, 
2478.00, 
2479.00, 
2480.00, 
2481.00, 
2482.00, 
2483.00, 
2484.00, 
2485.00, 
2486.00, 
2487.00, 
2488.00, 
2489.00, 
2490.00, 
2491.00, 
2492.00, 
2493.00, 
2494.00, 
2495.00, 
2496.00, 
2497.00, 
2498.00, 
2499.00, 
2500.00, 
2501.00, 
2502.00, 
2503.00, 
2504.00, 
2505.00, 
2506.00, 
2507.00, 
2508.00, 
2509.00, 
2510.00, 
2511.00, 
2512.00, 
2513.00, 
2514.00, 
2515.00, 
2516.00, 
2517.00, 
2518.00, 
2519.00, 
2520.00, 
2521.00, 
2522.00, 
2523.00, 
2524.00, 
2525.00, 
2526.00, 
2527.00, 
2528.00, 
2529.00, 
2530.00, 
2531.00, 
2532.00, 
2533.00, 
2534.00, 
2535.00, 
2536.00, 
2537.00, 
2538.00, 
2539.00, 
2540.00, 
2541.00, 
2542.00, 
2543.00, 
2544.00, 
2545.00, 
2546.00, 
2547.00, 
2548.00, 
2549.00, 
2550.00, 
2551.00, 
2552.00, 
2553.00, 
2554.00, 
2555.00, 
2556.00, 
2557.00, 
2558.00, 
2559.00, 
2560.00, 
2561.00, 
2562.00, 
2563.00, 
2564.00, 
2565.00, 
2566.00, 
2567.00, 
2568.00, 
2569.00, 
2570.00, 
2571.00, 
2572.00, 
2573.00, 
2574.00, 
2575.00, 
2576.00, 
2577.00, 
2578.00, 
2579.00, 
2580.00, 
2581.00, 
2582.00, 
2583.00, 
2584.00, 
2585.00, 
2586.00, 
2587.00, 
2588.00, 
2589.00, 
2590.00, 
2591.00, 
2592.00, 
2593.00, 
2594.00, 
2595.00, 
2596.00, 
2597.00, 
2598.00, 
2599.00, 
2600.00, 
