"1bP2 - RawData"
"Wavelength nm.","T%"
200.00,0.003
201.00,0.003
202.00,0.004
203.00,0.002
204.00,0.000
205.00,0.001
206.00,0.002
207.00,0.001
208.00,0.000
209.00,0.001
210.00,-0.001
211.00,-0.001
212.00,0.001
213.00,-0.001
214.00,0.000
215.00,0.001
216.00,-0.000
217.00,-0.000
218.00,-0.002
219.00,0.001
220.00,0.002
221.00,-0.001
222.00,0.001
223.00,-0.000
224.00,0.002
225.00,0.000
226.00,0.001
227.00,0.001
228.00,0.002
229.00,0.001
230.00,-0.000
231.00,0.000
232.00,0.002
233.00,0.002
234.00,-0.001
235.00,-0.000
236.00,0.002
237.00,0.002
238.00,-0.001
239.00,0.001
240.00,0.000
241.00,0.001
242.00,0.002
243.00,0.002
244.00,0.001
245.00,0.002
246.00,0.003
247.00,0.001
248.00,-0.002
249.00,0.000
250.00,-0.000
251.00,0.001
252.00,0.001
253.00,-0.001
254.00,0.000
255.00,-0.001
256.00,0.001
257.00,0.002
258.00,0.002
259.00,0.001
260.00,-0.001
261.00,-0.002
262.00,-0.001
263.00,-0.000
264.00,-0.001
265.00,-0.000
266.00,-0.000
267.00,0.000
268.00,0.001
269.00,0.001
270.00,0.000
271.00,-0.001
272.00,0.000
273.00,0.001
274.00,0.001
275.00,-0.000
276.00,-0.002
277.00,0.000
278.00,0.001
279.00,-0.001
280.00,-0.001
281.00,0.001
282.00,0.000
283.00,0.001
284.00,0.002
285.00,-0.000
286.00,0.001
287.00,-0.000
288.00,-0.000
289.00,0.001
290.00,-0.001
291.00,-0.001
292.00,0.001
293.00,-0.002
294.00,0.001
295.00,0.000
296.00,-0.000
297.00,0.000
298.00,0.001
299.00,0.002
300.00,0.003
301.00,0.004
302.00,0.008
303.00,0.011
304.00,0.022
305.00,0.036
306.00,0.054
307.00,0.080
308.00,0.124
309.00,0.193
310.00,0.257
311.00,0.348
312.00,0.477
313.00,0.649
314.00,0.848
315.00,1.084
316.00,1.395
317.00,1.680
318.00,2.110
319.00,2.555
320.00,3.091
321.00,3.667
322.00,4.289
323.00,5.037
324.00,5.786
325.00,6.515
326.00,7.276
327.00,8.178
328.00,9.019
329.00,9.925
330.00,10.884
331.00,11.756
332.00,12.731
333.00,13.722
334.00,14.636
335.00,15.594
336.00,16.476
337.00,17.413
338.00,18.188
339.00,19.085
340.00,19.991
341.00,20.816
342.00,21.495
343.00,22.263
344.00,22.805
345.00,23.660
346.00,24.290
347.00,24.856
348.00,25.397
349.00,25.901
350.00,26.363
351.00,26.851
352.00,27.248
353.00,27.582
354.00,27.983
355.00,28.266
356.00,28.645
357.00,28.869
358.00,29.185
359.00,29.521
360.00,29.807
361.00,29.915
362.00,30.170
363.00,30.332
364.00,30.434
365.00,30.570
366.00,30.773
367.00,30.802
368.00,30.862
369.00,30.925
370.00,31.047
371.00,31.024
372.00,30.997
373.00,31.054
374.00,31.069
375.00,31.052
376.00,31.003
377.00,30.950
378.00,30.794
379.00,30.795
380.00,30.676
381.00,30.739
382.00,30.730
383.00,30.740
384.00,30.847
385.00,30.872
386.00,30.869
387.00,31.008
388.00,31.055
389.00,31.083
390.00,31.117
391.00,31.102
392.00,31.102
393.00,31.111
394.00,31.235
395.00,31.302
396.00,31.249
397.00,31.259
398.00,31.318
399.00,31.252
400.00,31.340
401.00,31.281
402.00,31.316
403.00,31.317
404.00,31.442
405.00,31.320
406.00,31.293
407.00,31.184
408.00,31.272
409.00,31.186
410.00,31.093
411.00,31.087
412.00,31.030
413.00,31.088
414.00,31.071
415.00,31.045
416.00,31.083
417.00,31.091
418.00,31.100
419.00,31.213
420.00,31.240
421.00,31.240
422.00,31.295
423.00,31.270
424.00,31.364
425.00,31.383
426.00,31.367
427.00,31.476
428.00,31.471
429.00,31.495
430.00,31.544
431.00,31.625
432.00,31.634
433.00,31.667
434.00,31.714
435.00,31.789
436.00,31.851
437.00,31.896
438.00,31.979
439.00,31.936
440.00,32.117
441.00,32.148
442.00,32.229
443.00,32.295
444.00,32.390
445.00,32.428
446.00,32.536
447.00,32.620
448.00,32.704
449.00,32.794
450.00,32.916
451.00,33.002
452.00,33.089
453.00,33.190
454.00,33.269
455.00,33.383
456.00,33.463
457.00,33.570
458.00,33.587
459.00,33.767
460.00,33.917
461.00,34.028
462.00,34.114
463.00,34.176
464.00,34.381
465.00,34.464
466.00,34.553
467.00,34.712
468.00,34.815
469.00,34.858
470.00,34.964
471.00,35.055
472.00,35.140
473.00,35.161
474.00,35.278
475.00,35.382
476.00,35.461
477.00,35.569
478.00,35.704
479.00,35.876
480.00,36.011
481.00,36.004
482.00,36.136
483.00,36.268
484.00,36.407
485.00,36.556
486.00,36.702
487.00,36.815
488.00,36.929
489.00,37.077
490.00,37.173
491.00,37.291
492.00,37.514
493.00,37.624
494.00,37.492
495.00,37.715
496.00,37.747
497.00,37.933
498.00,38.032
499.00,38.186
500.00,38.295
501.00,38.357
502.00,38.543
503.00,38.618
504.00,38.655
505.00,38.765
506.00,38.842
507.00,38.885
508.00,39.014
509.00,39.154
510.00,39.238
511.00,39.335
512.00,39.482
513.00,39.631
514.00,39.677
515.00,39.828
516.00,39.904
517.00,39.980
518.00,40.136
519.00,40.116
520.00,40.132
521.00,40.191
522.00,40.337
523.00,40.283
524.00,40.336
525.00,40.454
526.00,40.547
527.00,40.592
528.00,40.641
529.00,40.812
530.00,40.918
531.00,41.061
532.00,41.095
533.00,41.174
534.00,41.249
535.00,41.307
536.00,41.384
537.00,41.413
538.00,41.442
539.00,41.472
540.00,41.564
541.00,41.589
542.00,41.620
543.00,41.612
544.00,41.704
545.00,41.780
546.00,41.795
547.00,41.928
548.00,41.955
549.00,42.002
550.00,42.074
551.00,42.209
552.00,42.252
553.00,42.231
554.00,42.288
555.00,42.322
556.00,42.341
557.00,42.412
558.00,42.470
559.00,42.577
560.00,42.543
561.00,42.677
562.00,42.700
563.00,42.674
564.00,42.754
565.00,42.768
566.00,42.792
567.00,42.763
568.00,42.789
569.00,42.889
570.00,42.861
571.00,42.864
572.00,42.875
573.00,42.872
574.00,42.883
575.00,42.911
576.00,42.878
577.00,42.933
578.00,42.955
579.00,43.017
580.00,43.032
581.00,43.307
582.00,43.306
583.00,43.255
584.00,43.370
585.00,43.473
586.00,43.512
587.00,43.601
588.00,43.527
589.00,43.480
590.00,43.546
591.00,43.587
592.00,43.545
593.00,43.614
594.00,43.745
595.00,43.799
596.00,43.841
597.00,43.878
598.00,43.927
599.00,43.943
600.00,44.098
601.00,44.054
602.00,43.975
603.00,43.988
604.00,44.017
605.00,44.028
606.00,43.976
607.00,44.094
608.00,44.280
609.00,44.278
610.00,44.155
611.00,44.183
612.00,44.226
613.00,44.235
614.00,44.272
615.00,44.311
616.00,44.453
617.00,44.477
618.00,44.329
619.00,44.453
620.00,44.473
621.00,44.426
622.00,44.611
623.00,44.696
624.00,44.626
625.00,44.659
626.00,44.790
627.00,44.878
628.00,44.787
629.00,44.811
630.00,44.842
631.00,44.880
632.00,44.955
633.00,45.113
634.00,45.058
635.00,45.149
636.00,45.249
637.00,45.156
638.00,45.167
639.00,45.338
640.00,45.318
641.00,45.268
642.00,45.427
643.00,45.536
644.00,45.543
645.00,45.580
646.00,45.669
647.00,45.702
648.00,45.785
649.00,45.737
650.00,45.766
651.00,45.884
652.00,45.914
653.00,45.878
654.00,45.974
655.00,46.071
656.00,46.310
657.00,46.434
658.00,46.328
659.00,46.352
660.00,46.239
661.00,46.352
662.00,46.412
663.00,46.426
664.00,46.673
665.00,46.847
666.00,46.676
667.00,46.835
668.00,46.823
669.00,46.902
670.00,47.144
671.00,46.893
672.00,47.050
673.00,47.069
674.00,47.176
675.00,47.152
676.00,47.242
677.00,47.534
678.00,47.221
679.00,47.194
680.00,47.434
681.00,47.675
682.00,47.662
683.00,47.561
684.00,47.678
685.00,47.608
686.00,47.511
687.00,47.780
688.00,47.885
689.00,47.806
690.00,48.052
691.00,48.218
692.00,47.847
693.00,47.694
694.00,47.886
695.00,48.051
696.00,48.488
697.00,48.301
698.00,48.343
699.00,48.515
700.00,48.409
701.00,48.480
702.00,48.592
703.00,48.682
704.00,48.648
705.00,48.628
706.00,48.642
707.00,48.677
708.00,48.544
709.00,48.896
710.00,49.309
711.00,48.800
712.00,48.886
713.00,48.952
714.00,49.011
715.00,49.049
716.00,48.894
717.00,49.025
718.00,49.293
719.00,49.274
720.00,49.195
721.00,53.902
722.00,53.874
723.00,53.872
724.00,53.849
725.00,53.893
726.00,53.806
727.00,53.826
728.00,53.850
729.00,53.839
730.00,53.806
731.00,53.882
732.00,53.829
733.00,53.863
734.00,53.846
735.00,53.868
736.00,53.909
737.00,53.860
738.00,53.927
739.00,53.922
740.00,53.826
741.00,53.805
742.00,53.834
743.00,53.868
744.00,53.768
745.00,53.781
746.00,53.807
747.00,53.720
748.00,53.749
749.00,53.717
750.00,53.661
751.00,53.662
752.00,53.667
753.00,53.696
754.00,53.656
755.00,53.671
756.00,53.709
757.00,53.581
758.00,53.611
759.00,53.587
760.00,53.597
761.00,53.590
762.00,53.560
763.00,53.626
764.00,53.580
765.00,53.514
766.00,53.620
767.00,53.596
768.00,53.527
769.00,53.512
770.00,53.594
771.00,53.542
772.00,53.560
773.00,53.518
774.00,53.530
775.00,53.559
776.00,53.503
777.00,53.541
778.00,53.452
779.00,53.528
780.00,53.452
781.00,53.450
782.00,53.482
783.00,53.399
784.00,53.447
785.00,53.348
786.00,53.447
787.00,53.359
788.00,53.316
789.00,53.335
790.00,53.270
791.00,53.338
792.00,53.144
793.00,53.236
794.00,53.220
795.00,53.263
796.00,53.169
797.00,53.103
798.00,53.112
799.00,53.120
800.00,53.110
801.00,53.047
802.00,52.995
803.00,53.051
804.00,52.959
805.00,52.979
806.00,52.904
807.00,52.956
808.00,52.934
809.00,52.885
810.00,52.886
811.00,52.884
812.00,52.914
813.00,52.856
814.00,52.880
815.00,52.824
816.00,52.762
817.00,52.722
818.00,52.637
819.00,52.722
820.00,52.656
821.00,52.732
822.00,52.608
823.00,52.637
824.00,52.644
825.00,52.637
826.00,52.559
827.00,52.701
828.00,52.614
829.00,52.631
830.00,52.701
831.00,55.101
832.00,55.115
833.00,55.053
834.00,55.057
835.00,55.019
836.00,55.046
837.00,54.977
838.00,54.989
839.00,54.962
840.00,54.905
841.00,54.941
842.00,54.905
843.00,54.916
844.00,54.867
845.00,54.792
846.00,54.928
847.00,54.821
848.00,54.784
849.00,54.735
850.00,54.703
851.00,54.610
852.00,54.637
853.00,54.579
854.00,54.587
855.00,54.527
856.00,54.517
857.00,54.501
858.00,54.435
859.00,54.423
860.00,54.400
861.00,54.361
862.00,54.387
863.00,54.382
864.00,54.349
865.00,54.365
866.00,54.341
867.00,54.359
868.00,54.302
869.00,54.343
870.00,54.315
871.00,54.219
872.00,54.278
873.00,54.381
874.00,54.217
875.00,54.204
876.00,54.224
877.00,54.225
878.00,54.204
879.00,54.193
880.00,54.177
881.00,54.162
882.00,54.226
883.00,54.154
884.00,54.128
885.00,54.071
886.00,54.061
887.00,54.039
888.00,54.027
889.00,54.032
890.00,53.996
891.00,53.958
892.00,53.976
893.00,53.931
894.00,53.930
895.00,53.915
896.00,53.904
897.00,53.881
898.00,53.847
899.00,53.869
900.00,53.841
901.00,53.964
902.00,53.820
903.00,53.778
904.00,53.769
905.00,53.802
906.00,53.692
907.00,53.723
908.00,53.693
909.00,53.691
910.00,53.631
911.00,53.634
912.00,53.643
913.00,53.578
914.00,53.587
915.00,53.547
916.00,53.551
917.00,53.553
918.00,53.524
919.00,53.494
920.00,53.470
921.00,53.461
922.00,53.459
923.00,53.408
924.00,53.395
925.00,53.387
926.00,53.368
927.00,53.348
928.00,53.331
929.00,53.337
930.00,53.292
931.00,53.310
932.00,53.248
933.00,53.257
934.00,53.253
935.00,53.270
936.00,53.163
937.00,53.185
938.00,53.179
939.00,53.183
940.00,53.153
941.00,53.139
942.00,53.063
943.00,53.093
944.00,53.038
945.00,53.080
946.00,53.042
947.00,53.026
948.00,53.010
949.00,52.995
950.00,52.988
951.00,52.936
952.00,52.923
953.00,52.891
954.00,52.855
955.00,52.801
956.00,52.787
957.00,52.741
958.00,52.783
959.00,52.707
960.00,52.729
961.00,52.729
962.00,52.719
963.00,52.663
964.00,52.679
965.00,52.684
966.00,52.658
967.00,52.677
968.00,52.643
969.00,52.664
970.00,52.628
971.00,52.652
972.00,52.609
973.00,52.642
974.00,52.655
975.00,52.644
976.00,52.664
977.00,52.627
978.00,52.697
979.00,52.634
980.00,52.689
981.00,52.651
982.00,52.636
983.00,52.655
984.00,52.631
985.00,52.651
986.00,52.621
987.00,52.636
988.00,52.597
989.00,52.591
990.00,52.590
991.00,52.556
992.00,52.576
993.00,52.537
994.00,52.537
995.00,52.522
996.00,52.507
997.00,52.503
998.00,52.481
999.00,52.490
1000.00,52.445
1001.00,52.466
1002.00,52.447
1003.00,52.449
1004.00,52.415
1005.00,52.381
1006.00,52.407
1007.00,52.357
1008.00,52.359
1009.00,52.335
1010.00,52.327
1011.00,52.348
1012.00,52.325
1013.00,52.324
1014.00,52.274
1015.00,52.306
1016.00,52.275
1017.00,52.243
1018.00,52.231
1019.00,52.218
1020.00,52.225
1021.00,52.195
1022.00,52.198
1023.00,52.151
1024.00,52.155
1025.00,52.143
1026.00,52.122
1027.00,52.126
1028.00,52.103
1029.00,52.088
1030.00,52.076
1031.00,52.086
1032.00,52.029
1033.00,52.043
1034.00,52.033
1035.00,51.994
1036.00,51.943
1037.00,51.928
1038.00,51.921
1039.00,51.877
1040.00,51.885
1041.00,51.850
1042.00,51.856
1043.00,51.838
1044.00,51.883
1045.00,51.863
1046.00,51.834
1047.00,51.842
1048.00,51.843
1049.00,51.853
1050.00,51.845
1051.00,51.908
1052.00,51.923
1053.00,51.926
1054.00,51.916
1055.00,51.941
1056.00,51.949
1057.00,51.961
1058.00,51.942
1059.00,51.936
1060.00,51.956
1061.00,51.930
1062.00,51.924
1063.00,51.938
1064.00,51.941
1065.00,51.939
1066.00,51.919
1067.00,51.914
1068.00,51.927
1069.00,51.889
1070.00,51.885
1071.00,51.854
1072.00,51.882
1073.00,51.852
1074.00,51.858
1075.00,51.830
1076.00,51.839
1077.00,51.840
1078.00,51.806
1079.00,51.812
1080.00,51.825
1081.00,51.799
1082.00,51.786
1083.00,51.769
1084.00,51.782
1085.00,51.782
1086.00,51.790
1087.00,51.775
1088.00,51.784
1089.00,51.769
1090.00,51.775
1091.00,51.771
1092.00,51.760
1093.00,51.787
1094.00,51.718
1095.00,51.715
1096.00,51.701
1097.00,51.696
1098.00,51.685
1099.00,51.674
1100.00,51.677
1101.00,51.668
1102.00,51.659
1103.00,51.664
1104.00,51.657
1105.00,51.628
1106.00,51.608
1107.00,51.619
1108.00,51.601
1109.00,51.593
1110.00,51.603
1111.00,51.593
1112.00,51.567
1113.00,51.558
1114.00,51.555
1115.00,51.561
1116.00,51.536
1117.00,51.527
1118.00,51.527
1119.00,51.523
1120.00,51.508
1121.00,51.520
1122.00,51.505
1123.00,51.487
1124.00,51.484
1125.00,51.487
1126.00,51.485
1127.00,51.469
1128.00,51.456
1129.00,51.450
1130.00,51.440
1131.00,51.439
1132.00,51.437
1133.00,51.438
1134.00,51.410
1135.00,51.399
1136.00,51.413
1137.00,51.426
1138.00,51.426
1139.00,51.424
1140.00,51.425
1141.00,51.428
1142.00,51.388
1143.00,51.411
1144.00,51.389
1145.00,51.387
1146.00,51.387
1147.00,51.370
1148.00,51.368
1149.00,51.390
1150.00,51.401
1151.00,51.407
1152.00,51.390
1153.00,51.390
1154.00,51.392
1155.00,51.394
1156.00,51.374
1157.00,51.374
1158.00,51.374
1159.00,51.388
1160.00,51.369
1161.00,51.384
1162.00,51.384
1163.00,51.370
1164.00,51.365
1165.00,51.374
1166.00,51.372
1167.00,51.353
1168.00,51.378
1169.00,51.358
1170.00,51.364
1171.00,51.340
1172.00,51.345
1173.00,51.355
1174.00,51.364
1175.00,51.345
1176.00,51.359
1177.00,51.352
1178.00,51.341
1179.00,51.362
1180.00,51.339
1181.00,51.366
1182.00,51.361
1183.00,51.339
1184.00,51.353
1185.00,51.354
1186.00,51.326
1187.00,51.358
1188.00,51.331
1189.00,51.331
1190.00,51.312
1191.00,51.318
1192.00,51.358
1193.00,51.321
1194.00,51.329
1195.00,51.318
1196.00,51.359
1197.00,51.342
1198.00,51.328
1199.00,51.325
1200.00,51.327
1201.00,51.353
1202.00,51.330
1203.00,51.350
1204.00,51.327
1205.00,51.339
1206.00,51.345
1207.00,51.336
1208.00,51.308
1209.00,51.331
1210.00,51.342
1211.00,51.332
1212.00,51.348
1213.00,51.309
1214.00,51.342
1215.00,51.320
1216.00,51.330
1217.00,51.342
1218.00,51.330
1219.00,51.348
1220.00,51.347
1221.00,51.366
1222.00,51.344
1223.00,51.353
1224.00,51.343
1225.00,51.344
1226.00,51.340
1227.00,51.342
1228.00,51.370
1229.00,51.370
1230.00,51.383
1231.00,51.385
1232.00,51.405
1233.00,51.399
1234.00,51.394
1235.00,51.384
1236.00,51.379
1237.00,51.382
1238.00,51.383
1239.00,51.405
1240.00,51.392
1241.00,51.392
1242.00,51.393
1243.00,51.420
1244.00,51.393
1245.00,51.417
1246.00,51.429
1247.00,51.414
1248.00,51.402
1249.00,51.404
1250.00,51.426
1251.00,51.403
1252.00,51.413
1253.00,51.416
1254.00,51.442
1255.00,51.429
1256.00,51.423
1257.00,51.406
1258.00,51.445
1259.00,51.434
1260.00,51.461
1261.00,51.460
1262.00,51.446
1263.00,51.456
1264.00,51.493
1265.00,51.475
1266.00,51.466
1267.00,51.488
1268.00,51.495
1269.00,51.493
1270.00,51.499
1271.00,51.496
1272.00,51.500
1273.00,51.512
1274.00,51.509
1275.00,51.527
1276.00,51.520
1277.00,51.544
1278.00,51.580
1279.00,51.564
1280.00,51.540
1281.00,51.551
1282.00,51.556
1283.00,51.559
1284.00,51.573
1285.00,51.546
1286.00,51.572
1287.00,51.570
1288.00,51.572
1289.00,51.556
1290.00,51.602
1291.00,51.607
1292.00,51.605
1293.00,51.605
1294.00,51.620
1295.00,51.628
1296.00,51.624
1297.00,51.635
1298.00,51.678
1299.00,51.636
1300.00,51.655
1301.00,51.638
1302.00,51.677
1303.00,51.662
1304.00,51.646
1305.00,51.684
1306.00,51.686
1307.00,51.667
1308.00,51.681
1309.00,51.695
1310.00,51.700
1311.00,51.691
1312.00,51.705
1313.00,51.729
1314.00,51.734
1315.00,51.742
1316.00,51.749
1317.00,51.759
1318.00,51.748
1319.00,51.764
1320.00,51.767
1321.00,51.936
1322.00,51.921
1323.00,51.910
1324.00,51.912
1325.00,51.898
1326.00,51.909
1327.00,51.893
1328.00,51.910
1329.00,51.886
1330.00,51.905
1331.00,51.889
1332.00,51.893
1333.00,51.908
1334.00,51.923
1335.00,51.954
1336.00,51.987
1337.00,51.993
1338.00,52.068
1339.00,52.106
1340.00,52.153
1341.00,52.220
1342.00,52.275
1343.00,52.315
1344.00,52.381
1345.00,52.431
1346.00,52.456
1347.00,52.474
1348.00,52.513
1349.00,52.535
1350.00,52.515
1351.00,52.562
1352.00,52.605
1353.00,52.265
1354.00,52.602
1355.00,52.559
1356.00,52.587
1357.00,52.598
1358.00,52.642
1359.00,52.596
1360.00,52.590
1361.00,52.679
1362.00,52.573
1363.00,52.669
1364.00,52.725
1365.00,52.618
1366.00,52.662
1367.00,52.543
1368.00,52.547
1369.00,52.668
1370.00,52.608
1371.00,52.587
1372.00,52.587
1373.00,52.596
1374.00,52.619
1375.00,52.587
1376.00,52.595
1377.00,52.593
1378.00,52.638
1379.00,52.610
1380.00,52.594
1381.00,52.543
1382.00,52.674
1383.00,52.599
1384.00,52.566
1385.00,52.660
1386.00,52.595
1387.00,52.503
1388.00,52.591
1389.00,52.876
1390.00,52.616
1391.00,52.537
1392.00,52.575
1393.00,52.660
1394.00,52.534
1395.00,52.499
1396.00,52.504
1397.00,52.648
1398.00,52.725
1399.00,52.540
1400.00,52.430
1401.00,52.575
1402.00,52.805
1403.00,52.479
1404.00,52.577
1405.00,52.594
1406.00,52.634
1407.00,52.614
1408.00,52.572
1409.00,52.573
1410.00,52.635
1411.00,52.739
1412.00,52.769
1413.00,52.438
1414.00,52.563
1415.00,52.681
1416.00,52.692
1417.00,52.726
1418.00,52.626
1419.00,52.641
1420.00,52.720
1421.00,52.772
1422.00,52.707
1423.00,52.719
1424.00,52.735
1425.00,52.737
1426.00,52.794
1427.00,52.783
1428.00,52.769
1429.00,52.850
1430.00,52.809
1431.00,52.801
1432.00,52.840
1433.00,52.857
1434.00,52.856
1435.00,52.913
1436.00,52.892
1437.00,52.888
1438.00,52.892
1439.00,52.904
1440.00,52.929
1441.00,52.929
1442.00,52.936
1443.00,53.012
1444.00,53.086
1445.00,53.049
1446.00,53.024
1447.00,53.065
1448.00,53.119
1449.00,53.096
1450.00,53.092
1451.00,53.112
1452.00,53.127
1453.00,53.141
1454.00,53.158
1455.00,53.167
1456.00,53.187
1457.00,53.191
1458.00,53.198
1459.00,53.213
1460.00,53.234
1461.00,53.226
1462.00,53.275
1463.00,53.267
1464.00,53.284
1465.00,53.301
1466.00,53.286
1467.00,53.313
1468.00,53.389
1469.00,53.317
1470.00,53.362
1471.00,53.376
1472.00,53.376
1473.00,53.394
1474.00,53.415
1475.00,53.421
1476.00,53.460
1477.00,53.431
1478.00,53.476
1479.00,53.470
1480.00,53.472
1481.00,53.492
1482.00,53.502
1483.00,53.499
1484.00,53.520
1485.00,53.511
1486.00,53.537
1487.00,53.567
1488.00,53.575
1489.00,53.568
1490.00,53.598
1491.00,53.593
1492.00,53.631
1493.00,53.595
1494.00,53.613
1495.00,53.617
1496.00,53.636
1497.00,53.631
1498.00,53.659
1499.00,53.651
1500.00,53.688
1501.00, 
1502.00, 
1503.00, 
1504.00, 
1505.00, 
1506.00, 
1507.00, 
1508.00, 
1509.00, 
1510.00, 
1511.00, 
1512.00, 
1513.00, 
1514.00, 
1515.00, 
1516.00, 
1517.00, 
1518.00, 
1519.00, 
1520.00, 
1521.00, 
1522.00, 
1523.00, 
1524.00, 
1525.00, 
1526.00, 
1527.00, 
1528.00, 
1529.00, 
1530.00, 
1531.00, 
1532.00, 
1533.00, 
1534.00, 
1535.00, 
1536.00, 
1537.00, 
1538.00, 
1539.00, 
1540.00, 
1541.00, 
1542.00, 
1543.00, 
1544.00, 
1545.00, 
1546.00, 
1547.00, 
1548.00, 
1549.00, 
1550.00, 
1551.00, 
1552.00, 
1553.00, 
1554.00, 
1555.00, 
1556.00, 
1557.00, 
1558.00, 
1559.00, 
1560.00, 
1561.00, 
1562.00, 
1563.00, 
1564.00, 
1565.00, 
1566.00, 
1567.00, 
1568.00, 
1569.00, 
1570.00, 
1571.00, 
1572.00, 
1573.00, 
1574.00, 
1575.00, 
1576.00, 
1577.00, 
1578.00, 
1579.00, 
1580.00, 
1581.00, 
1582.00, 
1583.00, 
1584.00, 
1585.00, 
1586.00, 
1587.00, 
1588.00, 
1589.00, 
1590.00, 
1591.00, 
1592.00, 
1593.00, 
1594.00, 
1595.00, 
1596.00, 
1597.00, 
1598.00, 
1599.00, 
1600.00, 
1601.00, 
1602.00, 
1603.00, 
1604.00, 
1605.00, 
1606.00, 
1607.00, 
1608.00, 
1609.00, 
1610.00, 
1611.00, 
1612.00, 
1613.00, 
1614.00, 
1615.00, 
1616.00, 
1617.00, 
1618.00, 
1619.00, 
1620.00, 
1621.00, 
1622.00, 
1623.00, 
1624.00, 
1625.00, 
1626.00, 
1627.00, 
1628.00, 
1629.00, 
1630.00, 
1631.00, 
1632.00, 
1633.00, 
1634.00, 
1635.00, 
1636.00, 
1637.00, 
1638.00, 
1639.00, 
1640.00, 
1641.00, 
1642.00, 
1643.00, 
1644.00, 
1645.00, 
1646.00, 
1647.00, 
1648.00, 
1649.00, 
1650.00, 
1651.00, 
1652.00, 
1653.00, 
1654.00, 
1655.00, 
1656.00, 
1657.00, 
1658.00, 
1659.00, 
1660.00, 
1661.00, 
1662.00, 
1663.00, 
1664.00, 
1665.00, 
1666.00, 
1667.00, 
1668.00, 
1669.00, 
1670.00, 
1671.00, 
1672.00, 
1673.00, 
1674.00, 
1675.00, 
1676.00, 
1677.00, 
1678.00, 
1679.00, 
1680.00, 
1681.00, 
1682.00, 
1683.00, 
1684.00, 
1685.00, 
1686.00, 
1687.00, 
1688.00, 
1689.00, 
1690.00, 
1691.00, 
1692.00, 
1693.00, 
1694.00, 
1695.00, 
1696.00, 
1697.00, 
1698.00, 
1699.00, 
1700.00, 
1701.00, 
1702.00, 
1703.00, 
1704.00, 
1705.00, 
1706.00, 
1707.00, 
1708.00, 
1709.00, 
1710.00, 
1711.00, 
1712.00, 
1713.00, 
1714.00, 
1715.00, 
1716.00, 
1717.00, 
1718.00, 
1719.00, 
1720.00, 
1721.00, 
1722.00, 
1723.00, 
1724.00, 
1725.00, 
1726.00, 
1727.00, 
1728.00, 
1729.00, 
1730.00, 
1731.00, 
1732.00, 
1733.00, 
1734.00, 
1735.00, 
1736.00, 
1737.00, 
1738.00, 
1739.00, 
1740.00, 
1741.00, 
1742.00, 
1743.00, 
1744.00, 
1745.00, 
1746.00, 
1747.00, 
1748.00, 
1749.00, 
1750.00, 
1751.00, 
1752.00, 
1753.00, 
1754.00, 
1755.00, 
1756.00, 
1757.00, 
1758.00, 
1759.00, 
1760.00, 
1761.00, 
1762.00, 
1763.00, 
1764.00, 
1765.00, 
1766.00, 
1767.00, 
1768.00, 
1769.00, 
1770.00, 
1771.00, 
1772.00, 
1773.00, 
1774.00, 
1775.00, 
1776.00, 
1777.00, 
1778.00, 
1779.00, 
1780.00, 
1781.00, 
1782.00, 
1783.00, 
1784.00, 
1785.00, 
1786.00, 
1787.00, 
1788.00, 
1789.00, 
1790.00, 
1791.00, 
1792.00, 
1793.00, 
1794.00, 
1795.00, 
1796.00, 
1797.00, 
1798.00, 
1799.00, 
1800.00, 
1801.00, 
1802.00, 
1803.00, 
1804.00, 
1805.00, 
1806.00, 
1807.00, 
1808.00, 
1809.00, 
1810.00, 
1811.00, 
1812.00, 
1813.00, 
1814.00, 
1815.00, 
1816.00, 
1817.00, 
1818.00, 
1819.00, 
1820.00, 
1821.00, 
1822.00, 
1823.00, 
1824.00, 
1825.00, 
1826.00, 
1827.00, 
1828.00, 
1829.00, 
1830.00, 
1831.00, 
1832.00, 
1833.00, 
1834.00, 
1835.00, 
1836.00, 
1837.00, 
1838.00, 
1839.00, 
1840.00, 
1841.00, 
1842.00, 
1843.00, 
1844.00, 
1845.00, 
1846.00, 
1847.00, 
1848.00, 
1849.00, 
1850.00, 
1851.00, 
1852.00, 
1853.00, 
1854.00, 
1855.00, 
1856.00, 
1857.00, 
1858.00, 
1859.00, 
1860.00, 
1861.00, 
1862.00, 
1863.00, 
1864.00, 
1865.00, 
1866.00, 
1867.00, 
1868.00, 
1869.00, 
1870.00, 
1871.00, 
1872.00, 
1873.00, 
1874.00, 
1875.00, 
1876.00, 
1877.00, 
1878.00, 
1879.00, 
1880.00, 
1881.00, 
1882.00, 
1883.00, 
1884.00, 
1885.00, 
1886.00, 
1887.00, 
1888.00, 
1889.00, 
1890.00, 
1891.00, 
1892.00, 
1893.00, 
1894.00, 
1895.00, 
1896.00, 
1897.00, 
1898.00, 
1899.00, 
1900.00, 
1901.00, 
1902.00, 
1903.00, 
1904.00, 
1905.00, 
1906.00, 
1907.00, 
1908.00, 
1909.00, 
1910.00, 
1911.00, 
1912.00, 
1913.00, 
1914.00, 
1915.00, 
1916.00, 
1917.00, 
1918.00, 
1919.00, 
1920.00, 
1921.00, 
1922.00, 
1923.00, 
1924.00, 
1925.00, 
1926.00, 
1927.00, 
1928.00, 
1929.00, 
1930.00, 
1931.00, 
1932.00, 
1933.00, 
1934.00, 
1935.00, 
1936.00, 
1937.00, 
1938.00, 
1939.00, 
1940.00, 
1941.00, 
1942.00, 
1943.00, 
1944.00, 
1945.00, 
1946.00, 
1947.00, 
1948.00, 
1949.00, 
1950.00, 
1951.00, 
1952.00, 
1953.00, 
1954.00, 
1955.00, 
1956.00, 
1957.00, 
1958.00, 
1959.00, 
1960.00, 
1961.00, 
1962.00, 
1963.00, 
1964.00, 
1965.00, 
1966.00, 
1967.00, 
1968.00, 
1969.00, 
1970.00, 
1971.00, 
1972.00, 
1973.00, 
1974.00, 
1975.00, 
1976.00, 
1977.00, 
1978.00, 
1979.00, 
1980.00, 
1981.00, 
1982.00, 
1983.00, 
1984.00, 
1985.00, 
1986.00, 
1987.00, 
1988.00, 
1989.00, 
1990.00, 
1991.00, 
1992.00, 
1993.00, 
1994.00, 
1995.00, 
1996.00, 
1997.00, 
1998.00, 
1999.00, 
2000.00, 
2001.00, 
2002.00, 
2003.00, 
2004.00, 
2005.00, 
2006.00, 
2007.00, 
2008.00, 
2009.00, 
2010.00, 
2011.00, 
2012.00, 
2013.00, 
2014.00, 
2015.00, 
2016.00, 
2017.00, 
2018.00, 
2019.00, 
2020.00, 
2021.00, 
2022.00, 
2023.00, 
2024.00, 
2025.00, 
2026.00, 
2027.00, 
2028.00, 
2029.00, 
2030.00, 
2031.00, 
2032.00, 
2033.00, 
2034.00, 
2035.00, 
2036.00, 
2037.00, 
2038.00, 
2039.00, 
2040.00, 
2041.00, 
2042.00, 
2043.00, 
2044.00, 
2045.00, 
2046.00, 
2047.00, 
2048.00, 
2049.00, 
2050.00, 
2051.00, 
2052.00, 
2053.00, 
2054.00, 
2055.00, 
2056.00, 
2057.00, 
2058.00, 
2059.00, 
2060.00, 
2061.00, 
2062.00, 
2063.00, 
2064.00, 
2065.00, 
2066.00, 
2067.00, 
2068.00, 
2069.00, 
2070.00, 
2071.00, 
2072.00, 
2073.00, 
2074.00, 
2075.00, 
2076.00, 
2077.00, 
2078.00, 
2079.00, 
2080.00, 
2081.00, 
2082.00, 
2083.00, 
2084.00, 
2085.00, 
2086.00, 
2087.00, 
2088.00, 
2089.00, 
2090.00, 
2091.00, 
2092.00, 
2093.00, 
2094.00, 
2095.00, 
2096.00, 
2097.00, 
2098.00, 
2099.00, 
2100.00, 
2101.00, 
2102.00, 
2103.00, 
2104.00, 
2105.00, 
2106.00, 
2107.00, 
2108.00, 
2109.00, 
2110.00, 
2111.00, 
2112.00, 
2113.00, 
2114.00, 
2115.00, 
2116.00, 
2117.00, 
2118.00, 
2119.00, 
2120.00, 
2121.00, 
2122.00, 
2123.00, 
2124.00, 
2125.00, 
2126.00, 
2127.00, 
2128.00, 
2129.00, 
2130.00, 
2131.00, 
2132.00, 
2133.00, 
2134.00, 
2135.00, 
2136.00, 
2137.00, 
2138.00, 
2139.00, 
2140.00, 
2141.00, 
2142.00, 
2143.00, 
2144.00, 
2145.00, 
2146.00, 
2147.00, 
2148.00, 
2149.00, 
2150.00, 
2151.00, 
2152.00, 
2153.00, 
2154.00, 
2155.00, 
2156.00, 
2157.00, 
2158.00, 
2159.00, 
2160.00, 
2161.00, 
2162.00, 
2163.00, 
2164.00, 
2165.00, 
2166.00, 
2167.00, 
2168.00, 
2169.00, 
2170.00, 
2171.00, 
2172.00, 
2173.00, 
2174.00, 
2175.00, 
2176.00, 
2177.00, 
2178.00, 
2179.00, 
2180.00, 
2181.00, 
2182.00, 
2183.00, 
2184.00, 
2185.00, 
2186.00, 
2187.00, 
2188.00, 
2189.00, 
2190.00, 
2191.00, 
2192.00, 
2193.00, 
2194.00, 
2195.00, 
2196.00, 
2197.00, 
2198.00, 
2199.00, 
2200.00, 
2201.00, 
2202.00, 
2203.00, 
2204.00, 
2205.00, 
2206.00, 
2207.00, 
2208.00, 
2209.00, 
2210.00, 
2211.00, 
2212.00, 
2213.00, 
2214.00, 
2215.00, 
2216.00, 
2217.00, 
2218.00, 
2219.00, 
2220.00, 
2221.00, 
2222.00, 
2223.00, 
2224.00, 
2225.00, 
2226.00, 
2227.00, 
2228.00, 
2229.00, 
2230.00, 
2231.00, 
2232.00, 
2233.00, 
2234.00, 
2235.00, 
2236.00, 
2237.00, 
2238.00, 
2239.00, 
2240.00, 
2241.00, 
2242.00, 
2243.00, 
2244.00, 
2245.00, 
2246.00, 
2247.00, 
2248.00, 
2249.00, 
2250.00, 
2251.00, 
2252.00, 
2253.00, 
2254.00, 
2255.00, 
2256.00, 
2257.00, 
2258.00, 
2259.00, 
2260.00, 
2261.00, 
2262.00, 
2263.00, 
2264.00, 
2265.00, 
2266.00, 
2267.00, 
2268.00, 
2269.00, 
2270.00, 
2271.00, 
2272.00, 
2273.00, 
2274.00, 
2275.00, 
2276.00, 
2277.00, 
2278.00, 
2279.00, 
2280.00, 
2281.00, 
2282.00, 
2283.00, 
2284.00, 
2285.00, 
2286.00, 
2287.00, 
2288.00, 
2289.00, 
2290.00, 
2291.00, 
2292.00, 
2293.00, 
2294.00, 
2295.00, 
2296.00, 
2297.00, 
2298.00, 
2299.00, 
2300.00, 
2301.00, 
2302.00, 
2303.00, 
2304.00, 
2305.00, 
2306.00, 
2307.00, 
2308.00, 
2309.00, 
2310.00, 
2311.00, 
2312.00, 
2313.00, 
2314.00, 
2315.00, 
2316.00, 
2317.00, 
2318.00, 
2319.00, 
2320.00, 
2321.00, 
2322.00, 
2323.00, 
2324.00, 
2325.00, 
2326.00, 
2327.00, 
2328.00, 
2329.00, 
2330.00, 
2331.00, 
2332.00, 
2333.00, 
2334.00, 
2335.00, 
2336.00, 
2337.00, 
2338.00, 
2339.00, 
2340.00, 
2341.00, 
2342.00, 
2343.00, 
2344.00, 
2345.00, 
2346.00, 
2347.00, 
2348.00, 
2349.00, 
2350.00, 
2351.00, 
2352.00, 
2353.00, 
2354.00, 
2355.00, 
2356.00, 
2357.00, 
2358.00, 
2359.00, 
2360.00, 
2361.00, 
2362.00, 
2363.00, 
2364.00, 
2365.00, 
2366.00, 
2367.00, 
2368.00, 
2369.00, 
2370.00, 
2371.00, 
2372.00, 
2373.00, 
2374.00, 
2375.00, 
2376.00, 
2377.00, 
2378.00, 
2379.00, 
2380.00, 
2381.00, 
2382.00, 
2383.00, 
2384.00, 
2385.00, 
2386.00, 
2387.00, 
2388.00, 
2389.00, 
2390.00, 
2391.00, 
2392.00, 
2393.00, 
2394.00, 
2395.00, 
2396.00, 
2397.00, 
2398.00, 
2399.00, 
2400.00, 
2401.00, 
2402.00, 
2403.00, 
2404.00, 
2405.00, 
2406.00, 
2407.00, 
2408.00, 
2409.00, 
2410.00, 
2411.00, 
2412.00, 
2413.00, 
2414.00, 
2415.00, 
2416.00, 
2417.00, 
2418.00, 
2419.00, 
2420.00, 
2421.00, 
2422.00, 
2423.00, 
2424.00, 
2425.00, 
2426.00, 
2427.00, 
2428.00, 
2429.00, 
2430.00, 
2431.00, 
2432.00, 
2433.00, 
2434.00, 
2435.00, 
2436.00, 
2437.00, 
2438.00, 
2439.00, 
2440.00, 
2441.00, 
2442.00, 
2443.00, 
2444.00, 
2445.00, 
2446.00, 
2447.00, 
2448.00, 
2449.00, 
2450.00, 
2451.00, 
2452.00, 
2453.00, 
2454.00, 
2455.00, 
2456.00, 
2457.00, 
2458.00, 
2459.00, 
2460.00, 
2461.00, 
2462.00, 
2463.00, 
2464.00, 
2465.00, 
2466.00, 
2467.00, 
2468.00, 
2469.00, 
2470.00, 
2471.00, 
2472.00, 
2473.00, 
2474.00, 
2475.00, 
2476.00, 
2477.00, 
2478.00, 
2479.00, 
2480.00, 
2481.00, 
2482.00, 
2483.00, 
2484.00, 
2485.00, 
2486.00, 
2487.00, 
2488.00, 
2489.00, 
2490.00, 
2491.00, 
2492.00, 
2493.00, 
2494.00, 
2495.00, 
2496.00, 
2497.00, 
2498.00, 
2499.00, 
2500.00, 
2501.00, 
2502.00, 
2503.00, 
2504.00, 
2505.00, 
2506.00, 
2507.00, 
2508.00, 
2509.00, 
2510.00, 
2511.00, 
2512.00, 
2513.00, 
2514.00, 
2515.00, 
2516.00, 
2517.00, 
2518.00, 
2519.00, 
2520.00, 
2521.00, 
2522.00, 
2523.00, 
2524.00, 
2525.00, 
2526.00, 
2527.00, 
2528.00, 
2529.00, 
2530.00, 
2531.00, 
2532.00, 
2533.00, 
2534.00, 
2535.00, 
2536.00, 
2537.00, 
2538.00, 
2539.00, 
2540.00, 
2541.00, 
2542.00, 
2543.00, 
2544.00, 
2545.00, 
2546.00, 
2547.00, 
2548.00, 
2549.00, 
2550.00, 
2551.00, 
2552.00, 
2553.00, 
2554.00, 
2555.00, 
2556.00, 
2557.00, 
2558.00, 
2559.00, 
2560.00, 
2561.00, 
2562.00, 
2563.00, 
2564.00, 
2565.00, 
2566.00, 
2567.00, 
2568.00, 
2569.00, 
2570.00, 
2571.00, 
2572.00, 
2573.00, 
2574.00, 
2575.00, 
2576.00, 
2577.00, 
2578.00, 
2579.00, 
2580.00, 
2581.00, 
2582.00, 
2583.00, 
2584.00, 
2585.00, 
2586.00, 
2587.00, 
2588.00, 
2589.00, 
2590.00, 
2591.00, 
2592.00, 
2593.00, 
2594.00, 
2595.00, 
2596.00, 
2597.00, 
2598.00, 
2599.00, 
2600.00, 
