"1cP2 - RawData"
"Wavelength nm.","T%"
200.00,0.001
201.00,0.006
202.00,0.005
203.00,0.001
204.00,0.001
205.00,0.001
206.00,0.002
207.00,0.003
208.00,0.001
209.00,0.001
210.00,0.002
211.00,0.001
212.00,-0.002
213.00,-0.000
214.00,0.001
215.00,0.002
216.00,0.004
217.00,0.003
218.00,0.000
219.00,0.001
220.00,-0.001
221.00,-0.001
222.00,0.002
223.00,0.002
224.00,0.003
225.00,0.002
226.00,0.001
227.00,-0.001
228.00,0.000
229.00,-0.002
230.00,0.001
231.00,0.001
232.00,-0.001
233.00,0.001
234.00,-0.002
235.00,0.001
236.00,-0.000
237.00,0.001
238.00,0.000
239.00,-0.001
240.00,0.000
241.00,0.001
242.00,0.002
243.00,-0.000
244.00,-0.000
245.00,0.001
246.00,0.000
247.00,0.002
248.00,-0.000
249.00,0.001
250.00,0.002
251.00,-0.000
252.00,-0.000
253.00,0.000
254.00,0.001
255.00,0.001
256.00,0.001
257.00,-0.001
258.00,-0.001
259.00,0.000
260.00,0.001
261.00,-0.002
262.00,-0.000
263.00,-0.000
264.00,-0.001
265.00,-0.001
266.00,-0.001
267.00,-0.000
268.00,0.002
269.00,0.000
270.00,0.000
271.00,-0.000
272.00,-0.000
273.00,-0.001
274.00,0.001
275.00,0.001
276.00,0.000
277.00,0.000
278.00,0.000
279.00,0.001
280.00,0.001
281.00,-0.001
282.00,-0.001
283.00,-0.000
284.00,-0.000
285.00,-0.000
286.00,0.002
287.00,0.002
288.00,0.001
289.00,0.001
290.00,0.000
291.00,0.000
292.00,0.001
293.00,0.002
294.00,0.001
295.00,0.001
296.00,0.000
297.00,0.002
298.00,-0.000
299.00,0.000
300.00,0.001
301.00,-0.000
302.00,0.000
303.00,0.003
304.00,0.002
305.00,0.004
306.00,0.004
307.00,0.006
308.00,0.010
309.00,0.022
310.00,0.031
311.00,0.045
312.00,0.070
313.00,0.111
314.00,0.161
315.00,0.239
316.00,0.355
317.00,0.498
318.00,0.676
319.00,0.911
320.00,1.213
321.00,1.585
322.00,2.024
323.00,2.543
324.00,3.188
325.00,3.840
326.00,4.529
327.00,5.391
328.00,6.330
329.00,7.296
330.00,8.375
331.00,9.466
332.00,10.616
333.00,11.962
334.00,13.168
335.00,14.527
336.00,15.837
337.00,17.275
338.00,18.588
339.00,19.835
340.00,21.225
341.00,22.504
342.00,23.766
343.00,25.014
344.00,26.191
345.00,27.404
346.00,28.471
347.00,29.523
348.00,30.531
349.00,31.519
350.00,32.395
351.00,33.293
352.00,34.017
353.00,34.824
354.00,35.543
355.00,36.248
356.00,36.982
357.00,37.496
358.00,38.115
359.00,38.781
360.00,39.374
361.00,39.708
362.00,40.228
363.00,40.609
364.00,40.855
365.00,41.221
366.00,41.537
367.00,41.810
368.00,42.023
369.00,42.237
370.00,42.434
371.00,42.567
372.00,42.566
373.00,42.580
374.00,42.739
375.00,42.757
376.00,42.645
377.00,42.620
378.00,42.507
379.00,42.407
380.00,42.488
381.00,42.492
382.00,42.510
383.00,42.740
384.00,42.804
385.00,43.106
386.00,43.278
387.00,43.585
388.00,43.834
389.00,43.988
390.00,44.133
391.00,44.324
392.00,44.409
393.00,44.581
394.00,44.702
395.00,44.914
396.00,44.890
397.00,44.995
398.00,45.070
399.00,45.148
400.00,45.255
401.00,45.215
402.00,45.226
403.00,45.329
404.00,45.468
405.00,45.327
406.00,45.358
407.00,45.287
408.00,45.335
409.00,45.234
410.00,45.133
411.00,45.151
412.00,45.080
413.00,45.089
414.00,45.057
415.00,45.034
416.00,45.055
417.00,45.022
418.00,45.118
419.00,45.211
420.00,45.235
421.00,45.211
422.00,45.245
423.00,45.338
424.00,45.362
425.00,45.314
426.00,45.233
427.00,45.365
428.00,45.408
429.00,45.389
430.00,45.416
431.00,45.469
432.00,45.439
433.00,45.480
434.00,45.465
435.00,45.517
436.00,45.536
437.00,45.600
438.00,45.606
439.00,45.653
440.00,45.685
441.00,45.672
442.00,45.709
443.00,45.780
444.00,45.817
445.00,45.824
446.00,45.952
447.00,45.976
448.00,46.049
449.00,46.124
450.00,46.186
451.00,46.207
452.00,46.248
453.00,46.337
454.00,46.354
455.00,46.427
456.00,46.481
457.00,46.542
458.00,46.553
459.00,46.637
460.00,46.769
461.00,46.821
462.00,46.913
463.00,46.916
464.00,46.993
465.00,47.020
466.00,47.111
467.00,47.131
468.00,47.175
469.00,47.242
470.00,47.141
471.00,47.163
472.00,47.294
473.00,47.201
474.00,47.300
475.00,47.332
476.00,47.355
477.00,47.359
478.00,47.470
479.00,47.599
480.00,47.688
481.00,47.598
482.00,47.664
483.00,47.771
484.00,47.867
485.00,47.878
486.00,47.948
487.00,48.024
488.00,48.152
489.00,48.252
490.00,48.273
491.00,48.299
492.00,48.537
493.00,48.584
494.00,48.414
495.00,48.575
496.00,48.553
497.00,48.531
498.00,48.678
499.00,48.663
500.00,48.816
501.00,48.826
502.00,48.936
503.00,48.963
504.00,48.937
505.00,49.040
506.00,49.043
507.00,49.012
508.00,49.090
509.00,49.214
510.00,49.271
511.00,49.304
512.00,49.418
513.00,49.483
514.00,49.548
515.00,49.635
516.00,49.662
517.00,49.648
518.00,49.755
519.00,49.767
520.00,49.670
521.00,49.756
522.00,49.780
523.00,49.703
524.00,49.757
525.00,49.773
526.00,49.847
527.00,49.869
528.00,49.848
529.00,50.023
530.00,50.098
531.00,50.296
532.00,50.263
533.00,50.287
534.00,50.330
535.00,50.304
536.00,50.405
537.00,50.420
538.00,50.414
539.00,50.416
540.00,50.420
541.00,50.451
542.00,50.450
543.00,50.388
544.00,50.524
545.00,50.551
546.00,50.532
547.00,50.654
548.00,50.725
549.00,50.710
550.00,50.793
551.00,50.855
552.00,50.889
553.00,50.866
554.00,50.969
555.00,50.982
556.00,50.961
557.00,51.043
558.00,50.961
559.00,51.071
560.00,51.079
561.00,51.114
562.00,51.135
563.00,51.132
564.00,51.134
565.00,51.141
566.00,51.127
567.00,51.098
568.00,51.116
569.00,51.176
570.00,51.131
571.00,51.203
572.00,51.151
573.00,51.098
574.00,51.138
575.00,51.090
576.00,51.012
577.00,51.037
578.00,51.156
579.00,51.199
580.00,51.164
581.00,51.386
582.00,51.395
583.00,51.381
584.00,51.402
585.00,51.553
586.00,51.444
587.00,51.476
588.00,51.427
589.00,51.305
590.00,51.542
591.00,51.477
592.00,51.335
593.00,51.436
594.00,51.558
595.00,51.581
596.00,51.660
597.00,51.693
598.00,51.691
599.00,51.599
600.00,51.678
601.00,51.630
602.00,51.521
603.00,51.569
604.00,51.682
605.00,51.685
606.00,51.604
607.00,51.658
608.00,51.819
609.00,51.813
610.00,51.591
611.00,51.673
612.00,51.659
613.00,51.659
614.00,51.685
615.00,51.712
616.00,51.844
617.00,51.737
618.00,51.595
619.00,51.674
620.00,51.619
621.00,51.684
622.00,51.719
623.00,51.737
624.00,51.750
625.00,51.768
626.00,51.772
627.00,51.759
628.00,51.708
629.00,51.702
630.00,51.670
631.00,51.661
632.00,51.632
633.00,51.738
634.00,51.743
635.00,51.827
636.00,51.873
637.00,51.733
638.00,51.659
639.00,51.785
640.00,51.688
641.00,51.773
642.00,51.738
643.00,51.743
644.00,51.712
645.00,51.792
646.00,51.849
647.00,51.821
648.00,51.826
649.00,51.729
650.00,51.713
651.00,51.861
652.00,51.809
653.00,51.714
654.00,51.678
655.00,51.877
656.00,52.069
657.00,51.990
658.00,51.814
659.00,51.899
660.00,51.769
661.00,51.693
662.00,51.725
663.00,51.706
664.00,51.863
665.00,52.147
666.00,51.619
667.00,51.531
668.00,51.680
669.00,52.467
670.00,52.129
671.00,51.852
672.00,51.975
673.00,51.884
674.00,51.884
675.00,51.947
676.00,52.010
677.00,52.137
678.00,51.801
679.00,51.916
680.00,51.912
681.00,51.936
682.00,51.912
683.00,51.820
684.00,51.888
685.00,51.845
686.00,51.710
687.00,51.729
688.00,51.711
689.00,51.676
690.00,51.939
691.00,52.032
692.00,51.660
693.00,51.578
694.00,51.693
695.00,51.814
696.00,51.872
697.00,51.577
698.00,51.721
699.00,51.897
700.00,51.716
701.00,51.648
702.00,51.687
703.00,51.692
704.00,51.700
705.00,51.663
706.00,51.557
707.00,51.574
708.00,51.370
709.00,51.760
710.00,52.129
711.00,51.415
712.00,51.492
713.00,51.577
714.00,51.589
715.00,51.549
716.00,51.349
717.00,51.420
718.00,51.595
719.00,51.536
720.00,51.423
721.00,56.185
722.00,56.188
723.00,56.135
724.00,56.030
725.00,56.057
726.00,55.944
727.00,55.957
728.00,55.855
729.00,55.794
730.00,55.642
731.00,55.675
732.00,55.628
733.00,55.551
734.00,55.539
735.00,55.494
736.00,55.483
737.00,55.431
738.00,55.357
739.00,55.362
740.00,55.265
741.00,55.191
742.00,55.163
743.00,55.074
744.00,55.064
745.00,55.031
746.00,54.968
747.00,54.843
748.00,54.863
749.00,54.810
750.00,54.688
751.00,54.615
752.00,54.588
753.00,54.559
754.00,54.519
755.00,54.488
756.00,54.500
757.00,54.328
758.00,54.290
759.00,54.242
760.00,54.266
761.00,54.200
762.00,54.078
763.00,54.174
764.00,54.089
765.00,54.004
766.00,54.034
767.00,54.002
768.00,53.929
769.00,53.835
770.00,53.971
771.00,53.764
772.00,53.890
773.00,53.795
774.00,53.753
775.00,53.822
776.00,53.601
777.00,53.628
778.00,53.538
779.00,53.623
780.00,53.535
781.00,53.442
782.00,53.458
783.00,53.395
784.00,53.408
785.00,53.313
786.00,53.327
787.00,53.304
788.00,53.235
789.00,53.207
790.00,53.033
791.00,53.129
792.00,53.031
793.00,53.025
794.00,52.972
795.00,52.952
796.00,52.905
797.00,52.765
798.00,52.839
799.00,52.799
800.00,52.713
801.00,52.647
802.00,52.650
803.00,52.585
804.00,52.516
805.00,52.554
806.00,52.479
807.00,52.402
808.00,52.457
809.00,52.390
810.00,52.319
811.00,52.266
812.00,52.250
813.00,52.197
814.00,52.164
815.00,52.203
816.00,52.163
817.00,52.091
818.00,51.982
819.00,52.068
820.00,51.963
821.00,52.005
822.00,51.995
823.00,51.894
824.00,51.887
825.00,51.798
826.00,51.791
827.00,51.909
828.00,51.843
829.00,51.708
830.00,51.859
831.00,54.047
832.00,54.069
833.00,54.011
834.00,53.976
835.00,53.941
836.00,53.966
837.00,53.867
838.00,53.872
839.00,53.824
840.00,53.758
841.00,53.757
842.00,53.720
843.00,53.705
844.00,53.635
845.00,53.575
846.00,53.579
847.00,53.578
848.00,53.551
849.00,53.471
850.00,53.455
851.00,53.384
852.00,53.375
853.00,53.272
854.00,53.257
855.00,53.196
856.00,53.188
857.00,53.149
858.00,53.132
859.00,53.067
860.00,53.039
861.00,53.028
862.00,53.011
863.00,52.996
864.00,52.962
865.00,52.984
866.00,52.908
867.00,52.926
868.00,52.899
869.00,52.878
870.00,52.808
871.00,52.879
872.00,52.814
873.00,52.762
874.00,52.815
875.00,52.736
876.00,52.741
877.00,52.737
878.00,52.708
879.00,52.674
880.00,52.657
881.00,52.620
882.00,52.648
883.00,52.588
884.00,52.556
885.00,52.490
886.00,52.511
887.00,52.450
888.00,52.446
889.00,52.427
890.00,52.391
891.00,52.341
892.00,52.331
893.00,52.302
894.00,52.292
895.00,52.274
896.00,52.254
897.00,52.199
898.00,52.187
899.00,52.208
900.00,52.178
901.00,52.191
902.00,52.162
903.00,52.084
904.00,52.077
905.00,52.124
906.00,51.999
907.00,52.016
908.00,52.007
909.00,52.005
910.00,51.936
911.00,51.938
912.00,51.948
913.00,51.891
914.00,51.877
915.00,51.802
916.00,51.862
917.00,51.788
918.00,51.784
919.00,51.746
920.00,51.716
921.00,51.691
922.00,51.700
923.00,51.640
924.00,51.606
925.00,51.605
926.00,51.603
927.00,51.581
928.00,51.556
929.00,51.561
930.00,51.518
931.00,51.525
932.00,51.468
933.00,51.483
934.00,51.445
935.00,51.424
936.00,51.363
937.00,51.338
938.00,51.354
939.00,51.345
940.00,51.292
941.00,51.299
942.00,51.253
943.00,51.252
944.00,51.215
945.00,51.234
946.00,51.185
947.00,51.156
948.00,51.124
949.00,51.094
950.00,51.074
951.00,51.054
952.00,51.049
953.00,51.017
954.00,50.987
955.00,50.922
956.00,50.931
957.00,50.884
958.00,50.898
959.00,50.846
960.00,50.836
961.00,50.799
962.00,50.840
963.00,50.779
964.00,50.785
965.00,50.785
966.00,50.764
967.00,50.765
968.00,50.724
969.00,50.748
970.00,50.723
971.00,50.739
972.00,50.701
973.00,50.740
974.00,50.732
975.00,50.709
976.00,50.739
977.00,50.736
978.00,50.747
979.00,50.693
980.00,50.724
981.00,50.701
982.00,50.676
983.00,50.686
984.00,50.667
985.00,50.681
986.00,50.654
987.00,50.668
988.00,50.619
989.00,50.613
990.00,50.615
991.00,50.598
992.00,50.614
993.00,50.583
994.00,50.574
995.00,50.569
996.00,50.545
997.00,50.542
998.00,50.517
999.00,50.532
1000.00,50.483
1001.00,50.485
1002.00,50.462
1003.00,50.458
1004.00,50.432
1005.00,50.411
1006.00,50.419
1007.00,50.361
1008.00,50.392
1009.00,50.350
1010.00,50.349
1011.00,50.352
1012.00,50.306
1013.00,50.306
1014.00,50.262
1015.00,50.294
1016.00,50.246
1017.00,50.232
1018.00,50.224
1019.00,50.194
1020.00,50.202
1021.00,50.172
1022.00,50.164
1023.00,50.147
1024.00,50.123
1025.00,50.100
1026.00,50.080
1027.00,50.075
1028.00,50.069
1029.00,50.056
1030.00,50.040
1031.00,50.051
1032.00,49.993
1033.00,50.007
1034.00,49.994
1035.00,49.954
1036.00,49.933
1037.00,49.926
1038.00,49.885
1039.00,49.854
1040.00,49.848
1041.00,49.821
1042.00,49.814
1043.00,49.798
1044.00,49.841
1045.00,49.821
1046.00,49.798
1047.00,49.821
1048.00,49.822
1049.00,49.833
1050.00,49.823
1051.00,49.866
1052.00,49.871
1053.00,49.874
1054.00,49.868
1055.00,49.896
1056.00,49.912
1057.00,49.903
1058.00,49.880
1059.00,49.881
1060.00,49.891
1061.00,49.874
1062.00,49.866
1063.00,49.869
1064.00,49.860
1065.00,49.846
1066.00,49.843
1067.00,49.839
1068.00,49.879
1069.00,49.855
1070.00,49.820
1071.00,49.784
1072.00,49.816
1073.00,49.787
1074.00,49.789
1075.00,49.768
1076.00,49.764
1077.00,49.755
1078.00,49.730
1079.00,49.726
1080.00,49.737
1081.00,49.722
1082.00,49.713
1083.00,49.701
1084.00,49.699
1085.00,49.681
1086.00,49.684
1087.00,49.677
1088.00,49.677
1089.00,49.669
1090.00,49.653
1091.00,49.653
1092.00,49.632
1093.00,49.620
1094.00,49.606
1095.00,49.617
1096.00,49.608
1097.00,49.599
1098.00,49.581
1099.00,49.585
1100.00,49.575
1101.00,49.565
1102.00,49.548
1103.00,49.559
1104.00,49.542
1105.00,49.534
1106.00,49.523
1107.00,49.525
1108.00,49.506
1109.00,49.495
1110.00,49.501
1111.00,49.484
1112.00,49.452
1113.00,49.455
1114.00,49.452
1115.00,49.446
1116.00,49.438
1117.00,49.438
1118.00,49.414
1119.00,49.421
1120.00,49.421
1121.00,49.429
1122.00,49.409
1123.00,49.397
1124.00,49.419
1125.00,49.398
1126.00,49.393
1127.00,49.383
1128.00,49.364
1129.00,49.363
1130.00,49.384
1131.00,49.336
1132.00,49.327
1133.00,49.323
1134.00,49.302
1135.00,49.305
1136.00,49.320
1137.00,49.325
1138.00,49.328
1139.00,49.343
1140.00,49.328
1141.00,49.323
1142.00,49.308
1143.00,49.326
1144.00,49.299
1145.00,49.302
1146.00,49.291
1147.00,49.288
1148.00,49.291
1149.00,49.292
1150.00,49.287
1151.00,49.287
1152.00,49.277
1153.00,49.294
1154.00,49.284
1155.00,49.287
1156.00,49.255
1157.00,49.269
1158.00,49.260
1159.00,49.261
1160.00,49.249
1161.00,49.257
1162.00,49.273
1163.00,49.275
1164.00,49.272
1165.00,49.281
1166.00,49.280
1167.00,49.262
1168.00,49.284
1169.00,49.272
1170.00,49.272
1171.00,49.252
1172.00,49.252
1173.00,49.257
1174.00,49.256
1175.00,49.246
1176.00,49.247
1177.00,49.231
1178.00,49.229
1179.00,49.249
1180.00,49.239
1181.00,49.261
1182.00,49.252
1183.00,49.255
1184.00,49.242
1185.00,49.261
1186.00,49.247
1187.00,49.247
1188.00,49.244
1189.00,49.244
1190.00,49.244
1191.00,49.244
1192.00,49.267
1193.00,49.249
1194.00,49.256
1195.00,49.234
1196.00,49.279
1197.00,49.260
1198.00,49.238
1199.00,49.245
1200.00,49.247
1201.00,49.263
1202.00,49.238
1203.00,49.242
1204.00,49.230
1205.00,49.254
1206.00,49.251
1207.00,49.237
1208.00,49.225
1209.00,49.242
1210.00,49.255
1211.00,49.258
1212.00,49.276
1213.00,49.241
1214.00,49.263
1215.00,49.240
1216.00,49.257
1217.00,49.255
1218.00,49.241
1219.00,49.261
1220.00,49.260
1221.00,49.278
1222.00,49.258
1223.00,49.279
1224.00,49.269
1225.00,49.264
1226.00,49.255
1227.00,49.261
1228.00,49.280
1229.00,49.267
1230.00,49.297
1231.00,49.290
1232.00,49.309
1233.00,49.319
1234.00,49.325
1235.00,49.321
1236.00,49.323
1237.00,49.334
1238.00,49.329
1239.00,49.341
1240.00,49.325
1241.00,49.339
1242.00,49.348
1243.00,49.368
1244.00,49.341
1245.00,49.368
1246.00,49.383
1247.00,49.356
1248.00,49.349
1249.00,49.362
1250.00,49.383
1251.00,49.358
1252.00,49.362
1253.00,49.360
1254.00,49.391
1255.00,49.365
1256.00,49.359
1257.00,49.334
1258.00,49.401
1259.00,49.392
1260.00,49.423
1261.00,49.426
1262.00,49.411
1263.00,49.426
1264.00,49.448
1265.00,49.476
1266.00,49.486
1267.00,49.482
1268.00,49.460
1269.00,49.452
1270.00,49.467
1271.00,49.479
1272.00,49.497
1273.00,49.510
1274.00,49.500
1275.00,49.516
1276.00,49.507
1277.00,49.512
1278.00,49.520
1279.00,49.520
1280.00,49.506
1281.00,49.536
1282.00,49.563
1283.00,49.531
1284.00,49.551
1285.00,49.540
1286.00,49.574
1287.00,49.565
1288.00,49.557
1289.00,49.547
1290.00,49.587
1291.00,49.583
1292.00,49.583
1293.00,49.593
1294.00,49.606
1295.00,49.621
1296.00,49.626
1297.00,49.638
1298.00,49.669
1299.00,49.631
1300.00,49.654
1301.00,49.632
1302.00,49.654
1303.00,49.654
1304.00,49.655
1305.00,49.692
1306.00,49.697
1307.00,49.701
1308.00,49.713
1309.00,49.720
1310.00,49.703
1311.00,49.688
1312.00,49.706
1313.00,49.717
1314.00,49.729
1315.00,49.740
1316.00,49.746
1317.00,49.768
1318.00,49.772
1319.00,49.790
1320.00,49.800
1321.00,49.968
1322.00,49.956
1323.00,49.923
1324.00,49.925
1325.00,49.921
1326.00,49.936
1327.00,49.910
1328.00,49.934
1329.00,49.937
1330.00,49.936
1331.00,49.937
1332.00,49.940
1333.00,49.952
1334.00,49.973
1335.00,49.994
1336.00,50.034
1337.00,50.063
1338.00,50.130
1339.00,50.171
1340.00,50.227
1341.00,50.291
1342.00,50.361
1343.00,50.413
1344.00,50.468
1345.00,50.542
1346.00,50.542
1347.00,50.571
1348.00,50.614
1349.00,50.626
1350.00,50.632
1351.00,50.641
1352.00,50.699
1353.00,50.652
1354.00,50.668
1355.00,50.613
1356.00,50.711
1357.00,50.622
1358.00,50.711
1359.00,50.733
1360.00,50.728
1361.00,50.791
1362.00,50.696
1363.00,50.772
1364.00,50.830
1365.00,50.752
1366.00,50.791
1367.00,50.744
1368.00,50.711
1369.00,50.807
1370.00,50.715
1371.00,50.489
1372.00,50.692
1373.00,50.746
1374.00,50.762
1375.00,50.735
1376.00,50.737
1377.00,50.746
1378.00,50.726
1379.00,50.723
1380.00,50.729
1381.00,50.663
1382.00,50.764
1383.00,50.729
1384.00,50.665
1385.00,50.776
1386.00,50.772
1387.00,50.642
1388.00,50.745
1389.00,51.009
1390.00,50.781
1391.00,50.650
1392.00,50.731
1393.00,50.867
1394.00,50.690
1395.00,50.660
1396.00,50.667
1397.00,50.837
1398.00,50.886
1399.00,50.674
1400.00,50.609
1401.00,50.737
1402.00,50.998
1403.00,50.738
1404.00,50.739
1405.00,50.745
1406.00,50.790
1407.00,50.824
1408.00,50.712
1409.00,50.750
1410.00,50.836
1411.00,50.910
1412.00,50.909
1413.00,50.675
1414.00,50.783
1415.00,50.873
1416.00,50.873
1417.00,50.906
1418.00,50.851
1419.00,50.852
1420.00,50.928
1421.00,50.989
1422.00,50.929
1423.00,50.929
1424.00,50.959
1425.00,50.982
1426.00,50.993
1427.00,50.999
1428.00,51.018
1429.00,51.053
1430.00,51.058
1431.00,51.090
1432.00,51.112
1433.00,51.143
1434.00,51.145
1435.00,51.175
1436.00,51.184
1437.00,51.173
1438.00,51.184
1439.00,51.226
1440.00,51.241
1441.00,51.237
1442.00,51.248
1443.00,51.312
1444.00,51.359
1445.00,51.281
1446.00,51.302
1447.00,51.348
1448.00,51.410
1449.00,51.389
1450.00,51.372
1451.00,51.411
1452.00,51.439
1453.00,51.452
1454.00,51.478
1455.00,51.494
1456.00,51.517
1457.00,51.517
1458.00,51.545
1459.00,51.562
1460.00,51.588
1461.00,51.593
1462.00,51.630
1463.00,51.624
1464.00,51.665
1465.00,51.661
1466.00,51.642
1467.00,51.678
1468.00,51.723
1469.00,51.690
1470.00,51.719
1471.00,51.742
1472.00,51.764
1473.00,51.785
1474.00,51.808
1475.00,51.835
1476.00,51.863
1477.00,51.816
1478.00,51.850
1479.00,51.872
1480.00,51.872
1481.00,51.870
1482.00,51.903
1483.00,51.918
1484.00,51.943
1485.00,51.934
1486.00,51.966
1487.00,51.984
1488.00,51.995
1489.00,51.995
1490.00,52.035
1491.00,52.028
1492.00,52.059
1493.00,52.040
1494.00,52.080
1495.00,52.083
1496.00,52.103
1497.00,52.108
1498.00,52.135
1499.00,52.125
1500.00,52.168
1501.00, 
1502.00, 
1503.00, 
1504.00, 
1505.00, 
1506.00, 
1507.00, 
1508.00, 
1509.00, 
1510.00, 
1511.00, 
1512.00, 
1513.00, 
1514.00, 
1515.00, 
1516.00, 
1517.00, 
1518.00, 
1519.00, 
1520.00, 
1521.00, 
1522.00, 
1523.00, 
1524.00, 
1525.00, 
1526.00, 
1527.00, 
1528.00, 
1529.00, 
1530.00, 
1531.00, 
1532.00, 
1533.00, 
1534.00, 
1535.00, 
1536.00, 
1537.00, 
1538.00, 
1539.00, 
1540.00, 
1541.00, 
1542.00, 
1543.00, 
1544.00, 
1545.00, 
1546.00, 
1547.00, 
1548.00, 
1549.00, 
1550.00, 
1551.00, 
1552.00, 
1553.00, 
1554.00, 
1555.00, 
1556.00, 
1557.00, 
1558.00, 
1559.00, 
1560.00, 
1561.00, 
1562.00, 
1563.00, 
1564.00, 
1565.00, 
1566.00, 
1567.00, 
1568.00, 
1569.00, 
1570.00, 
1571.00, 
1572.00, 
1573.00, 
1574.00, 
1575.00, 
1576.00, 
1577.00, 
1578.00, 
1579.00, 
1580.00, 
1581.00, 
1582.00, 
1583.00, 
1584.00, 
1585.00, 
1586.00, 
1587.00, 
1588.00, 
1589.00, 
1590.00, 
1591.00, 
1592.00, 
1593.00, 
1594.00, 
1595.00, 
1596.00, 
1597.00, 
1598.00, 
1599.00, 
1600.00, 
1601.00, 
1602.00, 
1603.00, 
1604.00, 
1605.00, 
1606.00, 
1607.00, 
1608.00, 
1609.00, 
1610.00, 
1611.00, 
1612.00, 
1613.00, 
1614.00, 
1615.00, 
1616.00, 
1617.00, 
1618.00, 
1619.00, 
1620.00, 
1621.00, 
1622.00, 
1623.00, 
1624.00, 
1625.00, 
1626.00, 
1627.00, 
1628.00, 
1629.00, 
1630.00, 
1631.00, 
1632.00, 
1633.00, 
1634.00, 
1635.00, 
1636.00, 
1637.00, 
1638.00, 
1639.00, 
1640.00, 
1641.00, 
1642.00, 
1643.00, 
1644.00, 
1645.00, 
1646.00, 
1647.00, 
1648.00, 
1649.00, 
1650.00, 
1651.00, 
1652.00, 
1653.00, 
1654.00, 
1655.00, 
1656.00, 
1657.00, 
1658.00, 
1659.00, 
1660.00, 
1661.00, 
1662.00, 
1663.00, 
1664.00, 
1665.00, 
1666.00, 
1667.00, 
1668.00, 
1669.00, 
1670.00, 
1671.00, 
1672.00, 
1673.00, 
1674.00, 
1675.00, 
1676.00, 
1677.00, 
1678.00, 
1679.00, 
1680.00, 
1681.00, 
1682.00, 
1683.00, 
1684.00, 
1685.00, 
1686.00, 
1687.00, 
1688.00, 
1689.00, 
1690.00, 
1691.00, 
1692.00, 
1693.00, 
1694.00, 
1695.00, 
1696.00, 
1697.00, 
1698.00, 
1699.00, 
1700.00, 
1701.00, 
1702.00, 
1703.00, 
1704.00, 
1705.00, 
1706.00, 
1707.00, 
1708.00, 
1709.00, 
1710.00, 
1711.00, 
1712.00, 
1713.00, 
1714.00, 
1715.00, 
1716.00, 
1717.00, 
1718.00, 
1719.00, 
1720.00, 
1721.00, 
1722.00, 
1723.00, 
1724.00, 
1725.00, 
1726.00, 
1727.00, 
1728.00, 
1729.00, 
1730.00, 
1731.00, 
1732.00, 
1733.00, 
1734.00, 
1735.00, 
1736.00, 
1737.00, 
1738.00, 
1739.00, 
1740.00, 
1741.00, 
1742.00, 
1743.00, 
1744.00, 
1745.00, 
1746.00, 
1747.00, 
1748.00, 
1749.00, 
1750.00, 
1751.00, 
1752.00, 
1753.00, 
1754.00, 
1755.00, 
1756.00, 
1757.00, 
1758.00, 
1759.00, 
1760.00, 
1761.00, 
1762.00, 
1763.00, 
1764.00, 
1765.00, 
1766.00, 
1767.00, 
1768.00, 
1769.00, 
1770.00, 
1771.00, 
1772.00, 
1773.00, 
1774.00, 
1775.00, 
1776.00, 
1777.00, 
1778.00, 
1779.00, 
1780.00, 
1781.00, 
1782.00, 
1783.00, 
1784.00, 
1785.00, 
1786.00, 
1787.00, 
1788.00, 
1789.00, 
1790.00, 
1791.00, 
1792.00, 
1793.00, 
1794.00, 
1795.00, 
1796.00, 
1797.00, 
1798.00, 
1799.00, 
1800.00, 
1801.00, 
1802.00, 
1803.00, 
1804.00, 
1805.00, 
1806.00, 
1807.00, 
1808.00, 
1809.00, 
1810.00, 
1811.00, 
1812.00, 
1813.00, 
1814.00, 
1815.00, 
1816.00, 
1817.00, 
1818.00, 
1819.00, 
1820.00, 
1821.00, 
1822.00, 
1823.00, 
1824.00, 
1825.00, 
1826.00, 
1827.00, 
1828.00, 
1829.00, 
1830.00, 
1831.00, 
1832.00, 
1833.00, 
1834.00, 
1835.00, 
1836.00, 
1837.00, 
1838.00, 
1839.00, 
1840.00, 
1841.00, 
1842.00, 
1843.00, 
1844.00, 
1845.00, 
1846.00, 
1847.00, 
1848.00, 
1849.00, 
1850.00, 
1851.00, 
1852.00, 
1853.00, 
1854.00, 
1855.00, 
1856.00, 
1857.00, 
1858.00, 
1859.00, 
1860.00, 
1861.00, 
1862.00, 
1863.00, 
1864.00, 
1865.00, 
1866.00, 
1867.00, 
1868.00, 
1869.00, 
1870.00, 
1871.00, 
1872.00, 
1873.00, 
1874.00, 
1875.00, 
1876.00, 
1877.00, 
1878.00, 
1879.00, 
1880.00, 
1881.00, 
1882.00, 
1883.00, 
1884.00, 
1885.00, 
1886.00, 
1887.00, 
1888.00, 
1889.00, 
1890.00, 
1891.00, 
1892.00, 
1893.00, 
1894.00, 
1895.00, 
1896.00, 
1897.00, 
1898.00, 
1899.00, 
1900.00, 
1901.00, 
1902.00, 
1903.00, 
1904.00, 
1905.00, 
1906.00, 
1907.00, 
1908.00, 
1909.00, 
1910.00, 
1911.00, 
1912.00, 
1913.00, 
1914.00, 
1915.00, 
1916.00, 
1917.00, 
1918.00, 
1919.00, 
1920.00, 
1921.00, 
1922.00, 
1923.00, 
1924.00, 
1925.00, 
1926.00, 
1927.00, 
1928.00, 
1929.00, 
1930.00, 
1931.00, 
1932.00, 
1933.00, 
1934.00, 
1935.00, 
1936.00, 
1937.00, 
1938.00, 
1939.00, 
1940.00, 
1941.00, 
1942.00, 
1943.00, 
1944.00, 
1945.00, 
1946.00, 
1947.00, 
1948.00, 
1949.00, 
1950.00, 
1951.00, 
1952.00, 
1953.00, 
1954.00, 
1955.00, 
1956.00, 
1957.00, 
1958.00, 
1959.00, 
1960.00, 
1961.00, 
1962.00, 
1963.00, 
1964.00, 
1965.00, 
1966.00, 
1967.00, 
1968.00, 
1969.00, 
1970.00, 
1971.00, 
1972.00, 
1973.00, 
1974.00, 
1975.00, 
1976.00, 
1977.00, 
1978.00, 
1979.00, 
1980.00, 
1981.00, 
1982.00, 
1983.00, 
1984.00, 
1985.00, 
1986.00, 
1987.00, 
1988.00, 
1989.00, 
1990.00, 
1991.00, 
1992.00, 
1993.00, 
1994.00, 
1995.00, 
1996.00, 
1997.00, 
1998.00, 
1999.00, 
2000.00, 
2001.00, 
2002.00, 
2003.00, 
2004.00, 
2005.00, 
2006.00, 
2007.00, 
2008.00, 
2009.00, 
2010.00, 
2011.00, 
2012.00, 
2013.00, 
2014.00, 
2015.00, 
2016.00, 
2017.00, 
2018.00, 
2019.00, 
2020.00, 
2021.00, 
2022.00, 
2023.00, 
2024.00, 
2025.00, 
2026.00, 
2027.00, 
2028.00, 
2029.00, 
2030.00, 
2031.00, 
2032.00, 
2033.00, 
2034.00, 
2035.00, 
2036.00, 
2037.00, 
2038.00, 
2039.00, 
2040.00, 
2041.00, 
2042.00, 
2043.00, 
2044.00, 
2045.00, 
2046.00, 
2047.00, 
2048.00, 
2049.00, 
2050.00, 
2051.00, 
2052.00, 
2053.00, 
2054.00, 
2055.00, 
2056.00, 
2057.00, 
2058.00, 
2059.00, 
2060.00, 
2061.00, 
2062.00, 
2063.00, 
2064.00, 
2065.00, 
2066.00, 
2067.00, 
2068.00, 
2069.00, 
2070.00, 
2071.00, 
2072.00, 
2073.00, 
2074.00, 
2075.00, 
2076.00, 
2077.00, 
2078.00, 
2079.00, 
2080.00, 
2081.00, 
2082.00, 
2083.00, 
2084.00, 
2085.00, 
2086.00, 
2087.00, 
2088.00, 
2089.00, 
2090.00, 
2091.00, 
2092.00, 
2093.00, 
2094.00, 
2095.00, 
2096.00, 
2097.00, 
2098.00, 
2099.00, 
2100.00, 
2101.00, 
2102.00, 
2103.00, 
2104.00, 
2105.00, 
2106.00, 
2107.00, 
2108.00, 
2109.00, 
2110.00, 
2111.00, 
2112.00, 
2113.00, 
2114.00, 
2115.00, 
2116.00, 
2117.00, 
2118.00, 
2119.00, 
2120.00, 
2121.00, 
2122.00, 
2123.00, 
2124.00, 
2125.00, 
2126.00, 
2127.00, 
2128.00, 
2129.00, 
2130.00, 
2131.00, 
2132.00, 
2133.00, 
2134.00, 
2135.00, 
2136.00, 
2137.00, 
2138.00, 
2139.00, 
2140.00, 
2141.00, 
2142.00, 
2143.00, 
2144.00, 
2145.00, 
2146.00, 
2147.00, 
2148.00, 
2149.00, 
2150.00, 
2151.00, 
2152.00, 
2153.00, 
2154.00, 
2155.00, 
2156.00, 
2157.00, 
2158.00, 
2159.00, 
2160.00, 
2161.00, 
2162.00, 
2163.00, 
2164.00, 
2165.00, 
2166.00, 
2167.00, 
2168.00, 
2169.00, 
2170.00, 
2171.00, 
2172.00, 
2173.00, 
2174.00, 
2175.00, 
2176.00, 
2177.00, 
2178.00, 
2179.00, 
2180.00, 
2181.00, 
2182.00, 
2183.00, 
2184.00, 
2185.00, 
2186.00, 
2187.00, 
2188.00, 
2189.00, 
2190.00, 
2191.00, 
2192.00, 
2193.00, 
2194.00, 
2195.00, 
2196.00, 
2197.00, 
2198.00, 
2199.00, 
2200.00, 
2201.00, 
2202.00, 
2203.00, 
2204.00, 
2205.00, 
2206.00, 
2207.00, 
2208.00, 
2209.00, 
2210.00, 
2211.00, 
2212.00, 
2213.00, 
2214.00, 
2215.00, 
2216.00, 
2217.00, 
2218.00, 
2219.00, 
2220.00, 
2221.00, 
2222.00, 
2223.00, 
2224.00, 
2225.00, 
2226.00, 
2227.00, 
2228.00, 
2229.00, 
2230.00, 
2231.00, 
2232.00, 
2233.00, 
2234.00, 
2235.00, 
2236.00, 
2237.00, 
2238.00, 
2239.00, 
2240.00, 
2241.00, 
2242.00, 
2243.00, 
2244.00, 
2245.00, 
2246.00, 
2247.00, 
2248.00, 
2249.00, 
2250.00, 
2251.00, 
2252.00, 
2253.00, 
2254.00, 
2255.00, 
2256.00, 
2257.00, 
2258.00, 
2259.00, 
2260.00, 
2261.00, 
2262.00, 
2263.00, 
2264.00, 
2265.00, 
2266.00, 
2267.00, 
2268.00, 
2269.00, 
2270.00, 
2271.00, 
2272.00, 
2273.00, 
2274.00, 
2275.00, 
2276.00, 
2277.00, 
2278.00, 
2279.00, 
2280.00, 
2281.00, 
2282.00, 
2283.00, 
2284.00, 
2285.00, 
2286.00, 
2287.00, 
2288.00, 
2289.00, 
2290.00, 
2291.00, 
2292.00, 
2293.00, 
2294.00, 
2295.00, 
2296.00, 
2297.00, 
2298.00, 
2299.00, 
2300.00, 
2301.00, 
2302.00, 
2303.00, 
2304.00, 
2305.00, 
2306.00, 
2307.00, 
2308.00, 
2309.00, 
2310.00, 
2311.00, 
2312.00, 
2313.00, 
2314.00, 
2315.00, 
2316.00, 
2317.00, 
2318.00, 
2319.00, 
2320.00, 
2321.00, 
2322.00, 
2323.00, 
2324.00, 
2325.00, 
2326.00, 
2327.00, 
2328.00, 
2329.00, 
2330.00, 
2331.00, 
2332.00, 
2333.00, 
2334.00, 
2335.00, 
2336.00, 
2337.00, 
2338.00, 
2339.00, 
2340.00, 
2341.00, 
2342.00, 
2343.00, 
2344.00, 
2345.00, 
2346.00, 
2347.00, 
2348.00, 
2349.00, 
2350.00, 
2351.00, 
2352.00, 
2353.00, 
2354.00, 
2355.00, 
2356.00, 
2357.00, 
2358.00, 
2359.00, 
2360.00, 
2361.00, 
2362.00, 
2363.00, 
2364.00, 
2365.00, 
2366.00, 
2367.00, 
2368.00, 
2369.00, 
2370.00, 
2371.00, 
2372.00, 
2373.00, 
2374.00, 
2375.00, 
2376.00, 
2377.00, 
2378.00, 
2379.00, 
2380.00, 
2381.00, 
2382.00, 
2383.00, 
2384.00, 
2385.00, 
2386.00, 
2387.00, 
2388.00, 
2389.00, 
2390.00, 
2391.00, 
2392.00, 
2393.00, 
2394.00, 
2395.00, 
2396.00, 
2397.00, 
2398.00, 
2399.00, 
2400.00, 
2401.00, 
2402.00, 
2403.00, 
2404.00, 
2405.00, 
2406.00, 
2407.00, 
2408.00, 
2409.00, 
2410.00, 
2411.00, 
2412.00, 
2413.00, 
2414.00, 
2415.00, 
2416.00, 
2417.00, 
2418.00, 
2419.00, 
2420.00, 
2421.00, 
2422.00, 
2423.00, 
2424.00, 
2425.00, 
2426.00, 
2427.00, 
2428.00, 
2429.00, 
2430.00, 
2431.00, 
2432.00, 
2433.00, 
2434.00, 
2435.00, 
2436.00, 
2437.00, 
2438.00, 
2439.00, 
2440.00, 
2441.00, 
2442.00, 
2443.00, 
2444.00, 
2445.00, 
2446.00, 
2447.00, 
2448.00, 
2449.00, 
2450.00, 
2451.00, 
2452.00, 
2453.00, 
2454.00, 
2455.00, 
2456.00, 
2457.00, 
2458.00, 
2459.00, 
2460.00, 
2461.00, 
2462.00, 
2463.00, 
2464.00, 
2465.00, 
2466.00, 
2467.00, 
2468.00, 
2469.00, 
2470.00, 
2471.00, 
2472.00, 
2473.00, 
2474.00, 
2475.00, 
2476.00, 
2477.00, 
2478.00, 
2479.00, 
2480.00, 
2481.00, 
2482.00, 
2483.00, 
2484.00, 
2485.00, 
2486.00, 
2487.00, 
2488.00, 
2489.00, 
2490.00, 
2491.00, 
2492.00, 
2493.00, 
2494.00, 
2495.00, 
2496.00, 
2497.00, 
2498.00, 
2499.00, 
2500.00, 
2501.00, 
2502.00, 
2503.00, 
2504.00, 
2505.00, 
2506.00, 
2507.00, 
2508.00, 
2509.00, 
2510.00, 
2511.00, 
2512.00, 
2513.00, 
2514.00, 
2515.00, 
2516.00, 
2517.00, 
2518.00, 
2519.00, 
2520.00, 
2521.00, 
2522.00, 
2523.00, 
2524.00, 
2525.00, 
2526.00, 
2527.00, 
2528.00, 
2529.00, 
2530.00, 
2531.00, 
2532.00, 
2533.00, 
2534.00, 
2535.00, 
2536.00, 
2537.00, 
2538.00, 
2539.00, 
2540.00, 
2541.00, 
2542.00, 
2543.00, 
2544.00, 
2545.00, 
2546.00, 
2547.00, 
2548.00, 
2549.00, 
2550.00, 
2551.00, 
2552.00, 
2553.00, 
2554.00, 
2555.00, 
2556.00, 
2557.00, 
2558.00, 
2559.00, 
2560.00, 
2561.00, 
2562.00, 
2563.00, 
2564.00, 
2565.00, 
2566.00, 
2567.00, 
2568.00, 
2569.00, 
2570.00, 
2571.00, 
2572.00, 
2573.00, 
2574.00, 
2575.00, 
2576.00, 
2577.00, 
2578.00, 
2579.00, 
2580.00, 
2581.00, 
2582.00, 
2583.00, 
2584.00, 
2585.00, 
2586.00, 
2587.00, 
2588.00, 
2589.00, 
2590.00, 
2591.00, 
2592.00, 
2593.00, 
2594.00, 
2595.00, 
2596.00, 
2597.00, 
2598.00, 
2599.00, 
2600.00, 
