"2aP2 - RawData"
"Wavelength nm.","T%"
200.00,0.000
201.00,-0.000
202.00,-0.000
203.00,0.000
204.00,0.003
205.00,0.004
206.00,-0.001
207.00,0.004
208.00,0.003
209.00,0.003
210.00,0.004
211.00,0.001
212.00,0.001
213.00,-0.000
214.00,0.001
215.00,0.002
216.00,0.001
217.00,0.007
218.00,-0.001
219.00,0.003
220.00,0.001
221.00,-0.001
222.00,0.004
223.00,0.000
224.00,0.001
225.00,0.002
226.00,0.004
227.00,0.003
228.00,0.001
229.00,0.002
230.00,0.003
231.00,0.001
232.00,0.000
233.00,0.002
234.00,0.003
235.00,0.001
236.00,0.001
237.00,0.003
238.00,0.001
239.00,0.002
240.00,-0.000
241.00,0.001
242.00,-0.000
243.00,0.001
244.00,-0.000
245.00,-0.000
246.00,0.001
247.00,0.001
248.00,0.002
249.00,0.002
250.00,-0.001
251.00,0.001
252.00,0.001
253.00,-0.000
254.00,0.002
255.00,-0.000
256.00,0.000
257.00,0.000
258.00,0.001
259.00,-0.001
260.00,0.000
261.00,0.002
262.00,-0.001
263.00,0.001
264.00,0.001
265.00,-0.000
266.00,0.000
267.00,0.000
268.00,0.001
269.00,0.000
270.00,0.000
271.00,0.001
272.00,0.000
273.00,0.001
274.00,0.000
275.00,0.001
276.00,0.001
277.00,-0.001
278.00,0.000
279.00,-0.000
280.00,-0.001
281.00,0.002
282.00,0.001
283.00,0.000
284.00,-0.002
285.00,0.001
286.00,0.000
287.00,-0.000
288.00,0.000
289.00,-0.001
290.00,-0.001
291.00,-0.000
292.00,-0.000
293.00,-0.000
294.00,0.000
295.00,-0.001
296.00,0.001
297.00,0.001
298.00,-0.001
299.00,0.002
300.00,0.002
301.00,0.002
302.00,0.006
303.00,0.007
304.00,0.011
305.00,0.019
306.00,0.024
307.00,0.042
308.00,0.061
309.00,0.097
310.00,0.132
311.00,0.177
312.00,0.250
313.00,0.336
314.00,0.437
315.00,0.568
316.00,0.728
317.00,0.921
318.00,1.137
319.00,1.380
320.00,1.682
321.00,2.018
322.00,2.374
323.00,2.808
324.00,3.245
325.00,3.695
326.00,4.149
327.00,4.704
328.00,5.250
329.00,5.809
330.00,6.386
331.00,6.846
332.00,7.543
333.00,8.177
334.00,8.784
335.00,9.390
336.00,9.995
337.00,10.614
338.00,11.206
339.00,11.778
340.00,12.368
341.00,12.890
342.00,13.399
343.00,13.906
344.00,14.387
345.00,14.859
346.00,15.294
347.00,15.714
348.00,16.109
349.00,16.460
350.00,16.788
351.00,17.126
352.00,17.394
353.00,17.688
354.00,17.956
355.00,18.191
356.00,18.432
357.00,18.625
358.00,18.804
359.00,19.042
360.00,19.254
361.00,19.344
362.00,19.515
363.00,19.627
364.00,19.702
365.00,19.799
366.00,19.924
367.00,19.960
368.00,19.996
369.00,20.067
370.00,20.098
371.00,20.125
372.00,20.106
373.00,20.077
374.00,20.144
375.00,20.140
376.00,20.061
377.00,20.066
378.00,19.993
379.00,19.901
380.00,19.893
381.00,19.893
382.00,19.861
383.00,19.886
384.00,19.912
385.00,19.884
386.00,19.901
387.00,19.996
388.00,20.023
389.00,19.997
390.00,20.041
391.00,20.077
392.00,20.039
393.00,20.053
394.00,20.104
395.00,20.097
396.00,20.053
397.00,20.098
398.00,20.125
399.00,20.104
400.00,20.116
401.00,20.104
402.00,20.092
403.00,20.092
404.00,20.164
405.00,20.095
406.00,20.073
407.00,20.035
408.00,20.050
409.00,20.009
410.00,19.934
411.00,19.974
412.00,19.934
413.00,19.959
414.00,19.947
415.00,19.960
416.00,19.973
417.00,19.998
418.00,20.025
419.00,20.090
420.00,20.151
421.00,20.169
422.00,20.184
423.00,20.246
424.00,20.280
425.00,20.314
426.00,20.316
427.00,20.415
428.00,20.455
429.00,20.474
430.00,20.545
431.00,20.604
432.00,20.650
433.00,20.707
434.00,20.777
435.00,20.833
436.00,20.898
437.00,20.967
438.00,21.051
439.00,21.107
440.00,21.194
441.00,21.279
442.00,21.365
443.00,21.432
444.00,21.538
445.00,21.629
446.00,21.717
447.00,21.831
448.00,21.918
449.00,22.039
450.00,22.147
451.00,22.221
452.00,22.340
453.00,22.475
454.00,22.575
455.00,22.676
456.00,22.804
457.00,22.932
458.00,23.024
459.00,23.151
460.00,23.320
461.00,23.439
462.00,23.574
463.00,23.691
464.00,23.847
465.00,23.959
466.00,24.103
467.00,24.268
468.00,24.358
469.00,24.496
470.00,24.598
471.00,24.689
472.00,24.807
473.00,24.908
474.00,25.038
475.00,25.165
476.00,25.291
477.00,25.432
478.00,25.553
479.00,25.693
480.00,25.910
481.00,25.948
482.00,26.132
483.00,26.309
484.00,26.467
485.00,26.591
486.00,26.756
487.00,26.927
488.00,27.049
489.00,27.245
490.00,27.383
491.00,27.496
492.00,27.741
493.00,27.886
494.00,27.878
495.00,28.033
496.00,28.211
497.00,28.304
498.00,28.473
499.00,28.605
500.00,28.712
501.00,28.817
502.00,29.016
503.00,29.159
504.00,29.237
505.00,29.350
506.00,29.494
507.00,29.566
508.00,29.726
509.00,29.899
510.00,30.039
511.00,30.142
512.00,30.311
513.00,30.421
514.00,30.582
515.00,30.716
516.00,30.793
517.00,30.889
518.00,31.067
519.00,31.142
520.00,31.163
521.00,31.278
522.00,31.401
523.00,31.409
524.00,31.488
525.00,31.614
526.00,31.725
527.00,31.799
528.00,31.916
529.00,32.087
530.00,32.229
531.00,32.369
532.00,32.408
533.00,32.458
534.00,32.624
535.00,32.611
536.00,32.790
537.00,32.894
538.00,32.949
539.00,32.969
540.00,33.060
541.00,33.099
542.00,33.183
543.00,33.207
544.00,33.328
545.00,33.415
546.00,33.426
547.00,33.589
548.00,33.642
549.00,33.686
550.00,33.755
551.00,33.934
552.00,33.966
553.00,33.905
554.00,34.016
555.00,34.183
556.00,34.233
557.00,34.313
558.00,34.333
559.00,34.439
560.00,34.511
561.00,34.557
562.00,34.620
563.00,34.658
564.00,34.697
565.00,34.745
566.00,34.789
567.00,34.784
568.00,34.861
569.00,34.937
570.00,34.967
571.00,35.038
572.00,35.021
573.00,35.029
574.00,35.104
575.00,35.122
576.00,35.121
577.00,35.171
578.00,35.298
579.00,35.304
580.00,35.350
581.00,35.570
582.00,35.627
583.00,35.614
584.00,35.707
585.00,35.787
586.00,35.832
587.00,35.909
588.00,35.889
589.00,35.883
590.00,35.966
591.00,35.994
592.00,35.988
593.00,36.028
594.00,36.160
595.00,36.223
596.00,36.250
597.00,36.356
598.00,36.407
599.00,36.324
600.00,36.481
601.00,36.502
602.00,36.532
603.00,36.515
604.00,36.658
605.00,36.629
606.00,36.626
607.00,36.739
608.00,36.925
609.00,36.875
610.00,36.872
611.00,37.047
612.00,37.011
613.00,37.078
614.00,37.109
615.00,37.210
616.00,37.322
617.00,37.341
618.00,37.293
619.00,37.417
620.00,37.453
621.00,37.550
622.00,37.623
623.00,37.701
624.00,37.746
625.00,37.819
626.00,37.891
627.00,37.984
628.00,37.935
629.00,38.032
630.00,38.068
631.00,38.134
632.00,38.204
633.00,38.349
634.00,38.449
635.00,38.537
636.00,38.636
637.00,38.648
638.00,38.684
639.00,38.882
640.00,38.910
641.00,38.982
642.00,38.972
643.00,39.105
644.00,39.249
645.00,39.276
646.00,39.418
647.00,39.524
648.00,39.594
649.00,39.630
650.00,39.671
651.00,39.892
652.00,39.924
653.00,39.922
654.00,40.022
655.00,40.225
656.00,40.525
657.00,40.536
658.00,40.567
659.00,40.754
660.00,40.749
661.00,40.770
662.00,40.881
663.00,40.952
664.00,41.266
665.00,41.402
666.00,41.260
667.00,41.422
668.00,41.464
669.00,41.630
670.00,41.927
671.00,41.805
672.00,42.021
673.00,42.061
674.00,42.183
675.00,42.229
676.00,42.410
677.00,42.670
678.00,42.449
679.00,42.731
680.00,42.819
681.00,42.940
682.00,43.036
683.00,43.018
684.00,43.193
685.00,43.301
686.00,43.300
687.00,43.433
688.00,43.537
689.00,43.625
690.00,43.893
691.00,44.114
692.00,43.916
693.00,43.879
694.00,44.163
695.00,44.394
696.00,44.448
697.00,44.387
698.00,44.610
699.00,44.838
700.00,44.822
701.00,44.875
702.00,44.995
703.00,45.187
704.00,45.229
705.00,45.311
706.00,45.295
707.00,45.371
708.00,45.396
709.00,45.746
710.00,46.125
711.00,45.760
712.00,45.845
713.00,45.989
714.00,46.095
715.00,46.183
716.00,46.103
717.00,46.243
718.00,46.493
719.00,46.521
720.00,46.592
721.00,51.013
722.00,51.035
723.00,51.068
724.00,51.115
725.00,51.174
726.00,51.146
727.00,51.283
728.00,51.282
729.00,51.336
730.00,51.324
731.00,51.407
732.00,51.428
733.00,51.545
734.00,51.529
735.00,51.632
736.00,51.714
737.00,51.693
738.00,51.817
739.00,51.838
740.00,51.821
741.00,51.848
742.00,51.956
743.00,51.912
744.00,51.922
745.00,51.962
746.00,51.966
747.00,51.960
748.00,52.061
749.00,52.061
750.00,52.012
751.00,52.011
752.00,52.103
753.00,52.132
754.00,52.174
755.00,52.201
756.00,52.250
757.00,52.169
758.00,52.215
759.00,52.270
760.00,52.300
761.00,52.318
762.00,52.251
763.00,52.407
764.00,52.369
765.00,52.366
766.00,52.429
767.00,52.458
768.00,52.433
769.00,52.391
770.00,52.603
771.00,52.555
772.00,52.609
773.00,52.545
774.00,52.632
775.00,52.658
776.00,52.594
777.00,52.624
778.00,52.660
779.00,52.764
780.00,52.582
781.00,52.638
782.00,52.707
783.00,52.658
784.00,52.672
785.00,52.691
786.00,52.659
787.00,52.681
788.00,52.744
789.00,52.721
790.00,52.654
791.00,52.759
792.00,52.617
793.00,52.668
794.00,52.646
795.00,52.667
796.00,52.705
797.00,52.665
798.00,52.744
799.00,52.672
800.00,52.678
801.00,52.607
802.00,52.663
803.00,52.582
804.00,52.642
805.00,52.626
806.00,52.594
807.00,52.587
808.00,52.591
809.00,52.586
810.00,52.573
811.00,52.624
812.00,52.529
813.00,52.583
814.00,52.558
815.00,52.541
816.00,52.540
817.00,52.484
818.00,52.471
819.00,52.515
820.00,52.435
821.00,52.576
822.00,52.485
823.00,52.533
824.00,52.487
825.00,52.492
826.00,52.398
827.00,52.499
828.00,52.376
829.00,52.324
830.00,52.526
831.00,54.526
832.00,54.563
833.00,54.472
834.00,54.513
835.00,54.498
836.00,54.518
837.00,54.472
838.00,54.468
839.00,54.443
840.00,54.430
841.00,54.448
842.00,54.378
843.00,54.403
844.00,54.372
845.00,54.305
846.00,54.318
847.00,54.333
848.00,54.297
849.00,54.245
850.00,54.250
851.00,54.173
852.00,54.195
853.00,54.115
854.00,54.109
855.00,54.039
856.00,54.075
857.00,54.034
858.00,54.023
859.00,53.982
860.00,53.982
861.00,53.976
862.00,53.997
863.00,53.968
864.00,53.920
865.00,53.963
866.00,53.904
867.00,53.940
868.00,53.860
869.00,53.910
870.00,53.866
871.00,53.852
872.00,53.899
873.00,53.822
874.00,53.796
875.00,53.978
876.00,53.833
877.00,53.848
878.00,53.829
879.00,53.806
880.00,53.792
881.00,53.766
882.00,53.789
883.00,53.746
884.00,53.720
885.00,53.687
886.00,53.686
887.00,53.633
888.00,53.655
889.00,53.621
890.00,53.609
891.00,53.589
892.00,53.579
893.00,53.534
894.00,53.561
895.00,53.534
896.00,53.521
897.00,53.507
898.00,53.476
899.00,53.490
900.00,53.494
901.00,53.495
902.00,53.472
903.00,53.335
904.00,53.414
905.00,53.462
906.00,53.343
907.00,53.355
908.00,53.341
909.00,53.313
910.00,53.270
911.00,53.273
912.00,53.298
913.00,53.264
914.00,53.152
915.00,53.278
916.00,53.175
917.00,53.172
918.00,53.169
919.00,53.138
920.00,53.115
921.00,53.099
922.00,53.088
923.00,53.062
924.00,53.032
925.00,53.049
926.00,53.018
927.00,52.975
928.00,53.024
929.00,53.065
930.00,52.934
931.00,52.953
932.00,52.920
933.00,52.909
934.00,52.878
935.00,52.890
936.00,52.853
937.00,52.813
938.00,52.799
939.00,52.805
940.00,52.764
941.00,52.770
942.00,52.756
943.00,52.737
944.00,52.632
945.00,52.729
946.00,52.695
947.00,52.659
948.00,52.648
949.00,52.617
950.00,52.615
951.00,52.586
952.00,52.572
953.00,52.541
954.00,52.533
955.00,52.459
956.00,52.461
957.00,52.423
958.00,52.431
959.00,52.368
960.00,52.376
961.00,52.361
962.00,52.367
963.00,52.296
964.00,52.309
965.00,52.310
966.00,52.275
967.00,52.288
968.00,52.267
969.00,52.280
970.00,52.255
971.00,52.283
972.00,52.228
973.00,52.269
974.00,52.277
975.00,52.268
976.00,52.286
977.00,52.237
978.00,52.299
979.00,52.246
980.00,52.272
981.00,52.273
982.00,52.244
983.00,52.250
984.00,52.214
985.00,52.242
986.00,52.214
987.00,52.236
988.00,52.192
989.00,52.185
990.00,52.189
991.00,52.156
992.00,52.197
993.00,52.149
994.00,52.144
995.00,52.147
996.00,52.130
997.00,52.127
998.00,52.088
999.00,52.097
1000.00,52.059
1001.00,52.085
1002.00,52.047
1003.00,52.054
1004.00,52.020
1005.00,51.978
1006.00,52.025
1007.00,51.978
1008.00,51.975
1009.00,51.959
1010.00,51.947
1011.00,51.945
1012.00,51.915
1013.00,51.915
1014.00,51.879
1015.00,51.891
1016.00,51.851
1017.00,51.840
1018.00,51.825
1019.00,51.782
1020.00,51.795
1021.00,51.787
1022.00,51.761
1023.00,51.722
1024.00,51.727
1025.00,51.711
1026.00,51.669
1027.00,51.658
1028.00,51.671
1029.00,51.654
1030.00,51.633
1031.00,51.642
1032.00,51.576
1033.00,51.587
1034.00,51.564
1035.00,51.513
1036.00,51.500
1037.00,51.483
1038.00,51.472
1039.00,51.454
1040.00,51.446
1041.00,51.414
1042.00,51.415
1043.00,51.375
1044.00,51.411
1045.00,51.397
1046.00,51.361
1047.00,51.385
1048.00,51.382
1049.00,51.411
1050.00,51.403
1051.00,51.445
1052.00,51.440
1053.00,51.450
1054.00,51.436
1055.00,51.474
1056.00,51.501
1057.00,51.500
1058.00,51.497
1059.00,51.470
1060.00,51.490
1061.00,51.475
1062.00,51.445
1063.00,51.450
1064.00,51.458
1065.00,51.427
1066.00,51.415
1067.00,51.419
1068.00,51.430
1069.00,51.392
1070.00,51.382
1071.00,51.356
1072.00,51.401
1073.00,51.353
1074.00,51.363
1075.00,51.347
1076.00,51.335
1077.00,51.315
1078.00,51.298
1079.00,51.288
1080.00,51.309
1081.00,51.289
1082.00,51.305
1083.00,51.324
1084.00,51.274
1085.00,51.265
1086.00,51.276
1087.00,51.241
1088.00,51.234
1089.00,51.238
1090.00,51.222
1091.00,51.242
1092.00,51.199
1093.00,51.191
1094.00,51.178
1095.00,51.164
1096.00,51.150
1097.00,51.178
1098.00,51.167
1099.00,51.136
1100.00,51.131
1101.00,51.111
1102.00,51.105
1103.00,51.112
1104.00,51.099
1105.00,51.092
1106.00,51.062
1107.00,51.062
1108.00,51.055
1109.00,51.036
1110.00,51.045
1111.00,51.051
1112.00,51.019
1113.00,51.023
1114.00,51.006
1115.00,51.007
1116.00,51.001
1117.00,50.976
1118.00,50.963
1119.00,50.976
1120.00,50.954
1121.00,50.962
1122.00,50.944
1123.00,50.915
1124.00,50.924
1125.00,50.905
1126.00,50.909
1127.00,50.899
1128.00,50.870
1129.00,50.871
1130.00,50.879
1131.00,50.863
1132.00,50.856
1133.00,50.867
1134.00,50.827
1135.00,50.831
1136.00,50.820
1137.00,50.825
1138.00,50.828
1139.00,50.827
1140.00,50.826
1141.00,50.817
1142.00,50.781
1143.00,50.805
1144.00,50.789
1145.00,50.768
1146.00,50.774
1147.00,50.773
1148.00,50.766
1149.00,50.779
1150.00,50.775
1151.00,50.777
1152.00,50.766
1153.00,50.750
1154.00,50.749
1155.00,50.752
1156.00,50.725
1157.00,50.761
1158.00,50.739
1159.00,50.743
1160.00,50.731
1161.00,50.752
1162.00,50.750
1163.00,50.751
1164.00,50.728
1165.00,50.726
1166.00,50.743
1167.00,50.720
1168.00,50.750
1169.00,50.719
1170.00,50.711
1171.00,50.699
1172.00,50.682
1173.00,50.696
1174.00,50.719
1175.00,50.700
1176.00,50.704
1177.00,50.690
1178.00,50.678
1179.00,50.700
1180.00,50.688
1181.00,50.698
1182.00,50.694
1183.00,50.688
1184.00,50.685
1185.00,50.695
1186.00,50.674
1187.00,50.691
1188.00,50.704
1189.00,50.710
1190.00,50.679
1191.00,50.662
1192.00,50.691
1193.00,50.673
1194.00,50.677
1195.00,50.654
1196.00,50.694
1197.00,50.671
1198.00,50.652
1199.00,50.652
1200.00,50.645
1201.00,50.681
1202.00,50.652
1203.00,50.661
1204.00,50.653
1205.00,50.659
1206.00,50.657
1207.00,50.668
1208.00,50.642
1209.00,50.647
1210.00,50.659
1211.00,50.634
1212.00,50.663
1213.00,50.626
1214.00,50.648
1215.00,50.637
1216.00,50.653
1217.00,50.661
1218.00,50.648
1219.00,50.651
1220.00,50.643
1221.00,50.650
1222.00,50.636
1223.00,50.671
1224.00,50.657
1225.00,50.638
1226.00,50.643
1227.00,50.648
1228.00,50.656
1229.00,50.643
1230.00,50.665
1231.00,50.663
1232.00,50.689
1233.00,50.675
1234.00,50.692
1235.00,50.681
1236.00,50.682
1237.00,50.693
1238.00,50.682
1239.00,50.680
1240.00,50.676
1241.00,50.662
1242.00,50.675
1243.00,50.695
1244.00,50.655
1245.00,50.688
1246.00,50.689
1247.00,50.677
1248.00,50.684
1249.00,50.701
1250.00,50.741
1251.00,50.712
1252.00,50.711
1253.00,50.700
1254.00,50.735
1255.00,50.701
1256.00,50.691
1257.00,50.664
1258.00,50.719
1259.00,50.724
1260.00,50.751
1261.00,50.749
1262.00,50.749
1263.00,50.732
1264.00,50.751
1265.00,50.764
1266.00,50.731
1267.00,50.764
1268.00,50.755
1269.00,50.757
1270.00,50.768
1271.00,50.761
1272.00,50.769
1273.00,50.794
1274.00,50.779
1275.00,50.782
1276.00,50.776
1277.00,50.777
1278.00,50.797
1279.00,50.786
1280.00,50.784
1281.00,50.822
1282.00,50.831
1283.00,50.827
1284.00,50.850
1285.00,50.812
1286.00,50.839
1287.00,50.843
1288.00,50.829
1289.00,50.829
1290.00,50.860
1291.00,50.852
1292.00,50.855
1293.00,50.863
1294.00,50.878
1295.00,50.891
1296.00,50.866
1297.00,50.872
1298.00,50.919
1299.00,50.874
1300.00,50.908
1301.00,50.882
1302.00,50.918
1303.00,50.923
1304.00,50.905
1305.00,50.935
1306.00,50.942
1307.00,50.923
1308.00,50.937
1309.00,50.950
1310.00,50.930
1311.00,50.925
1312.00,50.930
1313.00,50.935
1314.00,50.962
1315.00,50.956
1316.00,50.953
1317.00,50.992
1318.00,50.965
1319.00,50.962
1320.00,50.983
1321.00,51.186
1322.00,51.179
1323.00,51.163
1324.00,51.166
1325.00,51.139
1326.00,51.146
1327.00,51.118
1328.00,51.140
1329.00,51.126
1330.00,51.129
1331.00,51.125
1332.00,51.112
1333.00,51.127
1334.00,51.146
1335.00,51.149
1336.00,51.187
1337.00,51.210
1338.00,51.274
1339.00,51.322
1340.00,51.370
1341.00,51.437
1342.00,51.499
1343.00,51.541
1344.00,51.599
1345.00,51.652
1346.00,51.678
1347.00,51.717
1348.00,51.727
1349.00,51.751
1350.00,51.772
1351.00,51.794
1352.00,51.803
1353.00,51.841
1354.00,51.823
1355.00,51.770
1356.00,51.842
1357.00,51.828
1358.00,51.856
1359.00,51.847
1360.00,51.813
1361.00,51.907
1362.00,51.806
1363.00,51.909
1364.00,51.950
1365.00,51.832
1366.00,51.860
1367.00,51.834
1368.00,51.802
1369.00,51.878
1370.00,51.832
1371.00,51.775
1372.00,51.820
1373.00,51.837
1374.00,51.848
1375.00,51.820
1376.00,51.805
1377.00,51.824
1378.00,51.803
1379.00,51.808
1380.00,51.808
1381.00,51.761
1382.00,51.805
1383.00,51.822
1384.00,51.751
1385.00,51.838
1386.00,51.849
1387.00,51.734
1388.00,51.802
1389.00,52.058
1390.00,51.841
1391.00,51.757
1392.00,51.791
1393.00,51.931
1394.00,51.765
1395.00,51.727
1396.00,51.733
1397.00,51.938
1398.00,51.962
1399.00,51.753
1400.00,51.618
1401.00,51.830
1402.00,52.053
1403.00,51.712
1404.00,51.822
1405.00,51.867
1406.00,51.884
1407.00,51.900
1408.00,51.800
1409.00,51.812
1410.00,51.894
1411.00,51.979
1412.00,51.963
1413.00,51.723
1414.00,51.844
1415.00,51.930
1416.00,51.950
1417.00,51.969
1418.00,51.900
1419.00,51.896
1420.00,51.971
1421.00,52.031
1422.00,51.977
1423.00,51.974
1424.00,52.017
1425.00,52.024
1426.00,52.036
1427.00,52.049
1428.00,52.038
1429.00,52.075
1430.00,52.088
1431.00,52.083
1432.00,52.096
1433.00,52.113
1434.00,52.087
1435.00,52.166
1436.00,52.142
1437.00,52.136
1438.00,52.167
1439.00,52.186
1440.00,52.203
1441.00,52.236
1442.00,52.249
1443.00,52.303
1444.00,52.343
1445.00,52.256
1446.00,52.290
1447.00,52.316
1448.00,52.384
1449.00,52.374
1450.00,52.350
1451.00,52.379
1452.00,52.412
1453.00,52.414
1454.00,52.429
1455.00,52.444
1456.00,52.454
1457.00,52.462
1458.00,52.470
1459.00,52.513
1460.00,52.530
1461.00,52.533
1462.00,52.578
1463.00,52.562
1464.00,52.563
1465.00,52.573
1466.00,52.575
1467.00,52.604
1468.00,52.654
1469.00,52.603
1470.00,52.642
1471.00,52.663
1472.00,52.662
1473.00,52.672
1474.00,52.707
1475.00,52.714
1476.00,52.757
1477.00,52.727
1478.00,52.740
1479.00,52.762
1480.00,52.749
1481.00,52.776
1482.00,52.817
1483.00,52.803
1484.00,52.832
1485.00,52.831
1486.00,52.845
1487.00,52.858
1488.00,52.868
1489.00,52.857
1490.00,52.909
1491.00,52.897
1492.00,52.929
1493.00,52.921
1494.00,52.933
1495.00,52.945
1496.00,52.971
1497.00,52.961
1498.00,52.966
1499.00,52.981
1500.00,53.014
1501.00, 
1502.00, 
1503.00, 
1504.00, 
1505.00, 
1506.00, 
1507.00, 
1508.00, 
1509.00, 
1510.00, 
1511.00, 
1512.00, 
1513.00, 
1514.00, 
1515.00, 
1516.00, 
1517.00, 
1518.00, 
1519.00, 
1520.00, 
1521.00, 
1522.00, 
1523.00, 
1524.00, 
1525.00, 
1526.00, 
1527.00, 
1528.00, 
1529.00, 
1530.00, 
1531.00, 
1532.00, 
1533.00, 
1534.00, 
1535.00, 
1536.00, 
1537.00, 
1538.00, 
1539.00, 
1540.00, 
1541.00, 
1542.00, 
1543.00, 
1544.00, 
1545.00, 
1546.00, 
1547.00, 
1548.00, 
1549.00, 
1550.00, 
1551.00, 
1552.00, 
1553.00, 
1554.00, 
1555.00, 
1556.00, 
1557.00, 
1558.00, 
1559.00, 
1560.00, 
1561.00, 
1562.00, 
1563.00, 
1564.00, 
1565.00, 
1566.00, 
1567.00, 
1568.00, 
1569.00, 
1570.00, 
1571.00, 
1572.00, 
1573.00, 
1574.00, 
1575.00, 
1576.00, 
1577.00, 
1578.00, 
1579.00, 
1580.00, 
1581.00, 
1582.00, 
1583.00, 
1584.00, 
1585.00, 
1586.00, 
1587.00, 
1588.00, 
1589.00, 
1590.00, 
1591.00, 
1592.00, 
1593.00, 
1594.00, 
1595.00, 
1596.00, 
1597.00, 
1598.00, 
1599.00, 
1600.00, 
1601.00, 
1602.00, 
1603.00, 
1604.00, 
1605.00, 
1606.00, 
1607.00, 
1608.00, 
1609.00, 
1610.00, 
1611.00, 
1612.00, 
1613.00, 
1614.00, 
1615.00, 
1616.00, 
1617.00, 
1618.00, 
1619.00, 
1620.00, 
1621.00, 
1622.00, 
1623.00, 
1624.00, 
1625.00, 
1626.00, 
1627.00, 
1628.00, 
1629.00, 
1630.00, 
1631.00, 
1632.00, 
1633.00, 
1634.00, 
1635.00, 
1636.00, 
1637.00, 
1638.00, 
1639.00, 
1640.00, 
1641.00, 
1642.00, 
1643.00, 
1644.00, 
1645.00, 
1646.00, 
1647.00, 
1648.00, 
1649.00, 
1650.00, 
1651.00, 
1652.00, 
1653.00, 
1654.00, 
1655.00, 
1656.00, 
1657.00, 
1658.00, 
1659.00, 
1660.00, 
1661.00, 
1662.00, 
1663.00, 
1664.00, 
1665.00, 
1666.00, 
1667.00, 
1668.00, 
1669.00, 
1670.00, 
1671.00, 
1672.00, 
1673.00, 
1674.00, 
1675.00, 
1676.00, 
1677.00, 
1678.00, 
1679.00, 
1680.00, 
1681.00, 
1682.00, 
1683.00, 
1684.00, 
1685.00, 
1686.00, 
1687.00, 
1688.00, 
1689.00, 
1690.00, 
1691.00, 
1692.00, 
1693.00, 
1694.00, 
1695.00, 
1696.00, 
1697.00, 
1698.00, 
1699.00, 
1700.00, 
1701.00, 
1702.00, 
1703.00, 
1704.00, 
1705.00, 
1706.00, 
1707.00, 
1708.00, 
1709.00, 
1710.00, 
1711.00, 
1712.00, 
1713.00, 
1714.00, 
1715.00, 
1716.00, 
1717.00, 
1718.00, 
1719.00, 
1720.00, 
1721.00, 
1722.00, 
1723.00, 
1724.00, 
1725.00, 
1726.00, 
1727.00, 
1728.00, 
1729.00, 
1730.00, 
1731.00, 
1732.00, 
1733.00, 
1734.00, 
1735.00, 
1736.00, 
1737.00, 
1738.00, 
1739.00, 
1740.00, 
1741.00, 
1742.00, 
1743.00, 
1744.00, 
1745.00, 
1746.00, 
1747.00, 
1748.00, 
1749.00, 
1750.00, 
1751.00, 
1752.00, 
1753.00, 
1754.00, 
1755.00, 
1756.00, 
1757.00, 
1758.00, 
1759.00, 
1760.00, 
1761.00, 
1762.00, 
1763.00, 
1764.00, 
1765.00, 
1766.00, 
1767.00, 
1768.00, 
1769.00, 
1770.00, 
1771.00, 
1772.00, 
1773.00, 
1774.00, 
1775.00, 
1776.00, 
1777.00, 
1778.00, 
1779.00, 
1780.00, 
1781.00, 
1782.00, 
1783.00, 
1784.00, 
1785.00, 
1786.00, 
1787.00, 
1788.00, 
1789.00, 
1790.00, 
1791.00, 
1792.00, 
1793.00, 
1794.00, 
1795.00, 
1796.00, 
1797.00, 
1798.00, 
1799.00, 
1800.00, 
1801.00, 
1802.00, 
1803.00, 
1804.00, 
1805.00, 
1806.00, 
1807.00, 
1808.00, 
1809.00, 
1810.00, 
1811.00, 
1812.00, 
1813.00, 
1814.00, 
1815.00, 
1816.00, 
1817.00, 
1818.00, 
1819.00, 
1820.00, 
1821.00, 
1822.00, 
1823.00, 
1824.00, 
1825.00, 
1826.00, 
1827.00, 
1828.00, 
1829.00, 
1830.00, 
1831.00, 
1832.00, 
1833.00, 
1834.00, 
1835.00, 
1836.00, 
1837.00, 
1838.00, 
1839.00, 
1840.00, 
1841.00, 
1842.00, 
1843.00, 
1844.00, 
1845.00, 
1846.00, 
1847.00, 
1848.00, 
1849.00, 
1850.00, 
1851.00, 
1852.00, 
1853.00, 
1854.00, 
1855.00, 
1856.00, 
1857.00, 
1858.00, 
1859.00, 
1860.00, 
1861.00, 
1862.00, 
1863.00, 
1864.00, 
1865.00, 
1866.00, 
1867.00, 
1868.00, 
1869.00, 
1870.00, 
1871.00, 
1872.00, 
1873.00, 
1874.00, 
1875.00, 
1876.00, 
1877.00, 
1878.00, 
1879.00, 
1880.00, 
1881.00, 
1882.00, 
1883.00, 
1884.00, 
1885.00, 
1886.00, 
1887.00, 
1888.00, 
1889.00, 
1890.00, 
1891.00, 
1892.00, 
1893.00, 
1894.00, 
1895.00, 
1896.00, 
1897.00, 
1898.00, 
1899.00, 
1900.00, 
1901.00, 
1902.00, 
1903.00, 
1904.00, 
1905.00, 
1906.00, 
1907.00, 
1908.00, 
1909.00, 
1910.00, 
1911.00, 
1912.00, 
1913.00, 
1914.00, 
1915.00, 
1916.00, 
1917.00, 
1918.00, 
1919.00, 
1920.00, 
1921.00, 
1922.00, 
1923.00, 
1924.00, 
1925.00, 
1926.00, 
1927.00, 
1928.00, 
1929.00, 
1930.00, 
1931.00, 
1932.00, 
1933.00, 
1934.00, 
1935.00, 
1936.00, 
1937.00, 
1938.00, 
1939.00, 
1940.00, 
1941.00, 
1942.00, 
1943.00, 
1944.00, 
1945.00, 
1946.00, 
1947.00, 
1948.00, 
1949.00, 
1950.00, 
1951.00, 
1952.00, 
1953.00, 
1954.00, 
1955.00, 
1956.00, 
1957.00, 
1958.00, 
1959.00, 
1960.00, 
1961.00, 
1962.00, 
1963.00, 
1964.00, 
1965.00, 
1966.00, 
1967.00, 
1968.00, 
1969.00, 
1970.00, 
1971.00, 
1972.00, 
1973.00, 
1974.00, 
1975.00, 
1976.00, 
1977.00, 
1978.00, 
1979.00, 
1980.00, 
1981.00, 
1982.00, 
1983.00, 
1984.00, 
1985.00, 
1986.00, 
1987.00, 
1988.00, 
1989.00, 
1990.00, 
1991.00, 
1992.00, 
1993.00, 
1994.00, 
1995.00, 
1996.00, 
1997.00, 
1998.00, 
1999.00, 
2000.00, 
2001.00, 
2002.00, 
2003.00, 
2004.00, 
2005.00, 
2006.00, 
2007.00, 
2008.00, 
2009.00, 
2010.00, 
2011.00, 
2012.00, 
2013.00, 
2014.00, 
2015.00, 
2016.00, 
2017.00, 
2018.00, 
2019.00, 
2020.00, 
2021.00, 
2022.00, 
2023.00, 
2024.00, 
2025.00, 
2026.00, 
2027.00, 
2028.00, 
2029.00, 
2030.00, 
2031.00, 
2032.00, 
2033.00, 
2034.00, 
2035.00, 
2036.00, 
2037.00, 
2038.00, 
2039.00, 
2040.00, 
2041.00, 
2042.00, 
2043.00, 
2044.00, 
2045.00, 
2046.00, 
2047.00, 
2048.00, 
2049.00, 
2050.00, 
2051.00, 
2052.00, 
2053.00, 
2054.00, 
2055.00, 
2056.00, 
2057.00, 
2058.00, 
2059.00, 
2060.00, 
2061.00, 
2062.00, 
2063.00, 
2064.00, 
2065.00, 
2066.00, 
2067.00, 
2068.00, 
2069.00, 
2070.00, 
2071.00, 
2072.00, 
2073.00, 
2074.00, 
2075.00, 
2076.00, 
2077.00, 
2078.00, 
2079.00, 
2080.00, 
2081.00, 
2082.00, 
2083.00, 
2084.00, 
2085.00, 
2086.00, 
2087.00, 
2088.00, 
2089.00, 
2090.00, 
2091.00, 
2092.00, 
2093.00, 
2094.00, 
2095.00, 
2096.00, 
2097.00, 
2098.00, 
2099.00, 
2100.00, 
2101.00, 
2102.00, 
2103.00, 
2104.00, 
2105.00, 
2106.00, 
2107.00, 
2108.00, 
2109.00, 
2110.00, 
2111.00, 
2112.00, 
2113.00, 
2114.00, 
2115.00, 
2116.00, 
2117.00, 
2118.00, 
2119.00, 
2120.00, 
2121.00, 
2122.00, 
2123.00, 
2124.00, 
2125.00, 
2126.00, 
2127.00, 
2128.00, 
2129.00, 
2130.00, 
2131.00, 
2132.00, 
2133.00, 
2134.00, 
2135.00, 
2136.00, 
2137.00, 
2138.00, 
2139.00, 
2140.00, 
2141.00, 
2142.00, 
2143.00, 
2144.00, 
2145.00, 
2146.00, 
2147.00, 
2148.00, 
2149.00, 
2150.00, 
2151.00, 
2152.00, 
2153.00, 
2154.00, 
2155.00, 
2156.00, 
2157.00, 
2158.00, 
2159.00, 
2160.00, 
2161.00, 
2162.00, 
2163.00, 
2164.00, 
2165.00, 
2166.00, 
2167.00, 
2168.00, 
2169.00, 
2170.00, 
2171.00, 
2172.00, 
2173.00, 
2174.00, 
2175.00, 
2176.00, 
2177.00, 
2178.00, 
2179.00, 
2180.00, 
2181.00, 
2182.00, 
2183.00, 
2184.00, 
2185.00, 
2186.00, 
2187.00, 
2188.00, 
2189.00, 
2190.00, 
2191.00, 
2192.00, 
2193.00, 
2194.00, 
2195.00, 
2196.00, 
2197.00, 
2198.00, 
2199.00, 
2200.00, 
2201.00, 
2202.00, 
2203.00, 
2204.00, 
2205.00, 
2206.00, 
2207.00, 
2208.00, 
2209.00, 
2210.00, 
2211.00, 
2212.00, 
2213.00, 
2214.00, 
2215.00, 
2216.00, 
2217.00, 
2218.00, 
2219.00, 
2220.00, 
2221.00, 
2222.00, 
2223.00, 
2224.00, 
2225.00, 
2226.00, 
2227.00, 
2228.00, 
2229.00, 
2230.00, 
2231.00, 
2232.00, 
2233.00, 
2234.00, 
2235.00, 
2236.00, 
2237.00, 
2238.00, 
2239.00, 
2240.00, 
2241.00, 
2242.00, 
2243.00, 
2244.00, 
2245.00, 
2246.00, 
2247.00, 
2248.00, 
2249.00, 
2250.00, 
2251.00, 
2252.00, 
2253.00, 
2254.00, 
2255.00, 
2256.00, 
2257.00, 
2258.00, 
2259.00, 
2260.00, 
2261.00, 
2262.00, 
2263.00, 
2264.00, 
2265.00, 
2266.00, 
2267.00, 
2268.00, 
2269.00, 
2270.00, 
2271.00, 
2272.00, 
2273.00, 
2274.00, 
2275.00, 
2276.00, 
2277.00, 
2278.00, 
2279.00, 
2280.00, 
2281.00, 
2282.00, 
2283.00, 
2284.00, 
2285.00, 
2286.00, 
2287.00, 
2288.00, 
2289.00, 
2290.00, 
2291.00, 
2292.00, 
2293.00, 
2294.00, 
2295.00, 
2296.00, 
2297.00, 
2298.00, 
2299.00, 
2300.00, 
2301.00, 
2302.00, 
2303.00, 
2304.00, 
2305.00, 
2306.00, 
2307.00, 
2308.00, 
2309.00, 
2310.00, 
2311.00, 
2312.00, 
2313.00, 
2314.00, 
2315.00, 
2316.00, 
2317.00, 
2318.00, 
2319.00, 
2320.00, 
2321.00, 
2322.00, 
2323.00, 
2324.00, 
2325.00, 
2326.00, 
2327.00, 
2328.00, 
2329.00, 
2330.00, 
2331.00, 
2332.00, 
2333.00, 
2334.00, 
2335.00, 
2336.00, 
2337.00, 
2338.00, 
2339.00, 
2340.00, 
2341.00, 
2342.00, 
2343.00, 
2344.00, 
2345.00, 
2346.00, 
2347.00, 
2348.00, 
2349.00, 
2350.00, 
2351.00, 
2352.00, 
2353.00, 
2354.00, 
2355.00, 
2356.00, 
2357.00, 
2358.00, 
2359.00, 
2360.00, 
2361.00, 
2362.00, 
2363.00, 
2364.00, 
2365.00, 
2366.00, 
2367.00, 
2368.00, 
2369.00, 
2370.00, 
2371.00, 
2372.00, 
2373.00, 
2374.00, 
2375.00, 
2376.00, 
2377.00, 
2378.00, 
2379.00, 
2380.00, 
2381.00, 
2382.00, 
2383.00, 
2384.00, 
2385.00, 
2386.00, 
2387.00, 
2388.00, 
2389.00, 
2390.00, 
2391.00, 
2392.00, 
2393.00, 
2394.00, 
2395.00, 
2396.00, 
2397.00, 
2398.00, 
2399.00, 
2400.00, 
2401.00, 
2402.00, 
2403.00, 
2404.00, 
2405.00, 
2406.00, 
2407.00, 
2408.00, 
2409.00, 
2410.00, 
2411.00, 
2412.00, 
2413.00, 
2414.00, 
2415.00, 
2416.00, 
2417.00, 
2418.00, 
2419.00, 
2420.00, 
2421.00, 
2422.00, 
2423.00, 
2424.00, 
2425.00, 
2426.00, 
2427.00, 
2428.00, 
2429.00, 
2430.00, 
2431.00, 
2432.00, 
2433.00, 
2434.00, 
2435.00, 
2436.00, 
2437.00, 
2438.00, 
2439.00, 
2440.00, 
2441.00, 
2442.00, 
2443.00, 
2444.00, 
2445.00, 
2446.00, 
2447.00, 
2448.00, 
2449.00, 
2450.00, 
2451.00, 
2452.00, 
2453.00, 
2454.00, 
2455.00, 
2456.00, 
2457.00, 
2458.00, 
2459.00, 
2460.00, 
2461.00, 
2462.00, 
2463.00, 
2464.00, 
2465.00, 
2466.00, 
2467.00, 
2468.00, 
2469.00, 
2470.00, 
2471.00, 
2472.00, 
2473.00, 
2474.00, 
2475.00, 
2476.00, 
2477.00, 
2478.00, 
2479.00, 
2480.00, 
2481.00, 
2482.00, 
2483.00, 
2484.00, 
2485.00, 
2486.00, 
2487.00, 
2488.00, 
2489.00, 
2490.00, 
2491.00, 
2492.00, 
2493.00, 
2494.00, 
2495.00, 
2496.00, 
2497.00, 
2498.00, 
2499.00, 
2500.00, 
2501.00, 
2502.00, 
2503.00, 
2504.00, 
2505.00, 
2506.00, 
2507.00, 
2508.00, 
2509.00, 
2510.00, 
2511.00, 
2512.00, 
2513.00, 
2514.00, 
2515.00, 
2516.00, 
2517.00, 
2518.00, 
2519.00, 
2520.00, 
2521.00, 
2522.00, 
2523.00, 
2524.00, 
2525.00, 
2526.00, 
2527.00, 
2528.00, 
2529.00, 
2530.00, 
2531.00, 
2532.00, 
2533.00, 
2534.00, 
2535.00, 
2536.00, 
2537.00, 
2538.00, 
2539.00, 
2540.00, 
2541.00, 
2542.00, 
2543.00, 
2544.00, 
2545.00, 
2546.00, 
2547.00, 
2548.00, 
2549.00, 
2550.00, 
2551.00, 
2552.00, 
2553.00, 
2554.00, 
2555.00, 
2556.00, 
2557.00, 
2558.00, 
2559.00, 
2560.00, 
2561.00, 
2562.00, 
2563.00, 
2564.00, 
2565.00, 
2566.00, 
2567.00, 
2568.00, 
2569.00, 
2570.00, 
2571.00, 
2572.00, 
2573.00, 
2574.00, 
2575.00, 
2576.00, 
2577.00, 
2578.00, 
2579.00, 
2580.00, 
2581.00, 
2582.00, 
2583.00, 
2584.00, 
2585.00, 
2586.00, 
2587.00, 
2588.00, 
2589.00, 
2590.00, 
2591.00, 
2592.00, 
2593.00, 
2594.00, 
2595.00, 
2596.00, 
2597.00, 
2598.00, 
2599.00, 
2600.00, 
