"2cP2 - RawData"
"Wavelength nm.","T%"
200.00,0.004
201.00,-0.001
202.00,0.003
203.00,0.004
204.00,0.004
205.00,0.002
206.00,0.001
207.00,-0.001
208.00,-0.000
209.00,0.002
210.00,0.001
211.00,-0.002
212.00,0.004
213.00,0.001
214.00,-0.001
215.00,0.002
216.00,0.001
217.00,0.003
218.00,0.002
219.00,0.004
220.00,0.001
221.00,0.002
222.00,-0.001
223.00,0.001
224.00,0.003
225.00,0.002
226.00,0.000
227.00,0.000
228.00,0.000
229.00,0.002
230.00,0.001
231.00,0.000
232.00,-0.000
233.00,-0.000
234.00,0.001
235.00,-0.000
236.00,-0.000
237.00,0.001
238.00,0.002
239.00,-0.001
240.00,-0.000
241.00,0.002
242.00,0.001
243.00,0.002
244.00,-0.000
245.00,0.003
246.00,0.001
247.00,-0.000
248.00,0.001
249.00,0.001
250.00,-0.000
251.00,-0.000
252.00,0.002
253.00,0.001
254.00,0.000
255.00,0.003
256.00,-0.000
257.00,0.001
258.00,-0.001
259.00,-0.000
260.00,-0.001
261.00,-0.001
262.00,0.000
263.00,0.002
264.00,0.000
265.00,0.002
266.00,0.002
267.00,0.000
268.00,0.001
269.00,-0.000
270.00,0.000
271.00,0.001
272.00,0.001
273.00,0.000
274.00,-0.000
275.00,0.000
276.00,0.000
277.00,0.000
278.00,0.001
279.00,-0.001
280.00,0.002
281.00,0.000
282.00,0.001
283.00,0.001
284.00,0.002
285.00,0.003
286.00,-0.002
287.00,-0.000
288.00,-0.001
289.00,0.001
290.00,0.002
291.00,0.002
292.00,0.000
293.00,-0.000
294.00,0.000
295.00,0.001
296.00,0.000
297.00,-0.000
298.00,0.001
299.00,0.003
300.00,0.005
301.00,0.007
302.00,0.009
303.00,0.015
304.00,0.021
305.00,0.033
306.00,0.052
307.00,0.075
308.00,0.119
309.00,0.187
310.00,0.262
311.00,0.366
312.00,0.495
313.00,0.672
314.00,0.893
315.00,1.152
316.00,1.470
317.00,1.864
318.00,2.294
319.00,2.819
320.00,3.443
321.00,4.140
322.00,4.886
323.00,5.762
324.00,6.657
325.00,7.601
326.00,8.550
327.00,9.671
328.00,10.800
329.00,11.963
330.00,13.199
331.00,14.399
332.00,15.674
333.00,17.005
334.00,18.190
335.00,19.532
336.00,20.808
337.00,22.035
338.00,23.375
339.00,24.508
340.00,25.788
341.00,26.905
342.00,27.986
343.00,29.094
344.00,30.133
345.00,31.099
346.00,31.961
347.00,32.929
348.00,33.793
349.00,34.601
350.00,35.330
351.00,36.129
352.00,36.744
353.00,37.405
354.00,38.020
355.00,38.558
356.00,39.169
357.00,39.712
358.00,40.188
359.00,40.681
360.00,41.090
361.00,41.443
362.00,41.808
363.00,42.220
364.00,42.542
365.00,42.819
366.00,43.172
367.00,43.394
368.00,43.548
369.00,43.777
370.00,43.944
371.00,44.064
372.00,44.223
373.00,44.251
374.00,44.319
375.00,44.379
376.00,44.368
377.00,44.424
378.00,44.405
379.00,44.338
380.00,44.421
381.00,44.484
382.00,44.550
383.00,44.631
384.00,44.831
385.00,44.934
386.00,45.068
387.00,45.303
388.00,45.413
389.00,45.519
390.00,45.629
391.00,45.812
392.00,45.929
393.00,45.915
394.00,46.056
395.00,46.036
396.00,46.269
397.00,46.322
398.00,46.410
399.00,46.438
400.00,46.514
401.00,46.551
402.00,46.598
403.00,46.663
404.00,46.838
405.00,46.679
406.00,46.711
407.00,46.567
408.00,46.653
409.00,46.607
410.00,46.564
411.00,46.557
412.00,46.512
413.00,46.506
414.00,46.531
415.00,46.548
416.00,46.522
417.00,46.528
418.00,46.612
419.00,46.668
420.00,46.601
421.00,46.779
422.00,46.806
423.00,46.801
424.00,46.812
425.00,46.884
426.00,46.820
427.00,46.916
428.00,46.952
429.00,46.933
430.00,46.946
431.00,46.962
432.00,46.949
433.00,47.035
434.00,47.015
435.00,47.059
436.00,47.061
437.00,47.113
438.00,47.132
439.00,47.157
440.00,47.246
441.00,47.238
442.00,47.278
443.00,47.302
444.00,47.343
445.00,47.330
446.00,47.420
447.00,47.511
448.00,47.472
449.00,47.581
450.00,47.666
451.00,47.692
452.00,47.710
453.00,47.738
454.00,47.682
455.00,47.898
456.00,47.888
457.00,47.999
458.00,48.053
459.00,48.042
460.00,48.174
461.00,48.187
462.00,48.251
463.00,48.244
464.00,48.323
465.00,48.412
466.00,48.389
467.00,48.542
468.00,48.592
469.00,48.684
470.00,48.556
471.00,48.542
472.00,48.544
473.00,48.519
474.00,48.578
475.00,48.638
476.00,48.621
477.00,48.680
478.00,48.790
479.00,48.878
480.00,48.989
481.00,48.919
482.00,48.944
483.00,49.047
484.00,49.093
485.00,49.209
486.00,49.209
487.00,49.276
488.00,49.321
489.00,49.409
490.00,49.465
491.00,49.543
492.00,49.687
493.00,49.635
494.00,49.565
495.00,49.578
496.00,49.734
497.00,49.776
498.00,49.806
499.00,49.846
500.00,49.859
501.00,49.951
502.00,49.995
503.00,50.037
504.00,50.057
505.00,50.126
506.00,50.150
507.00,50.125
508.00,50.218
509.00,50.266
510.00,50.319
511.00,50.384
512.00,50.393
513.00,50.408
514.00,50.519
515.00,50.503
516.00,50.581
517.00,50.636
518.00,50.701
519.00,50.679
520.00,50.661
521.00,50.671
522.00,50.698
523.00,50.673
524.00,50.620
525.00,50.661
526.00,50.806
527.00,50.850
528.00,50.815
529.00,50.884
530.00,50.891
531.00,51.066
532.00,51.074
533.00,51.095
534.00,51.168
535.00,51.150
536.00,51.219
537.00,51.216
538.00,51.272
539.00,51.262
540.00,51.278
541.00,51.317
542.00,51.272
543.00,51.302
544.00,51.375
545.00,51.379
546.00,51.382
547.00,51.458
548.00,51.473
549.00,51.411
550.00,51.566
551.00,51.568
552.00,51.540
553.00,51.556
554.00,51.535
555.00,51.684
556.00,51.751
557.00,51.820
558.00,51.765
559.00,51.839
560.00,51.847
561.00,51.867
562.00,51.884
563.00,51.854
564.00,51.851
565.00,51.921
566.00,51.896
567.00,51.841
568.00,51.861
569.00,51.878
570.00,51.587
571.00,51.936
572.00,51.885
573.00,51.880
574.00,51.979
575.00,51.928
576.00,51.903
577.00,51.946
578.00,51.997
579.00,52.017
580.00,52.059
581.00,52.196
582.00,52.171
583.00,52.206
584.00,52.237
585.00,52.330
586.00,52.336
587.00,52.352
588.00,52.347
589.00,52.320
590.00,52.414
591.00,52.374
592.00,52.327
593.00,52.392
594.00,52.445
595.00,52.277
596.00,52.413
597.00,52.390
598.00,52.431
599.00,52.328
600.00,52.446
601.00,52.574
602.00,52.526
603.00,52.473
604.00,52.545
605.00,52.505
606.00,52.569
607.00,52.540
608.00,52.642
609.00,52.528
610.00,52.397
611.00,52.412
612.00,52.575
613.00,52.551
614.00,52.553
615.00,52.569
616.00,52.606
617.00,52.614
618.00,52.595
619.00,52.566
620.00,52.594
621.00,52.584
622.00,52.614
623.00,52.669
624.00,52.609
625.00,52.613
626.00,52.605
627.00,52.611
628.00,52.588
629.00,52.621
630.00,52.662
631.00,52.611
632.00,52.543
633.00,52.686
634.00,52.632
635.00,52.675
636.00,52.695
637.00,52.682
638.00,52.659
639.00,52.676
640.00,52.668
641.00,52.704
642.00,52.628
643.00,52.694
644.00,52.713
645.00,52.647
646.00,52.688
647.00,52.676
648.00,52.630
649.00,52.707
650.00,52.614
651.00,52.717
652.00,52.698
653.00,52.667
654.00,52.714
655.00,52.723
656.00,52.655
657.00,52.967
658.00,52.692
659.00,52.595
660.00,52.670
661.00,52.631
662.00,52.839
663.00,52.694
664.00,52.708
665.00,52.716
666.00,52.750
667.00,52.726
668.00,52.748
669.00,52.653
670.00,52.772
671.00,52.631
672.00,52.698
673.00,52.700
674.00,52.693
675.00,52.591
676.00,52.677
677.00,52.770
678.00,52.685
679.00,52.689
680.00,52.700
681.00,52.607
682.00,52.632
683.00,52.649
684.00,52.637
685.00,52.588
686.00,52.576
687.00,52.633
688.00,52.588
689.00,52.577
690.00,52.606
691.00,52.562
692.00,52.478
693.00,52.471
694.00,52.551
695.00,52.543
696.00,52.505
697.00,52.381
698.00,52.590
699.00,52.566
700.00,52.538
701.00,52.415
702.00,52.547
703.00,52.442
704.00,52.435
705.00,52.410
706.00,52.362
707.00,52.495
708.00,52.262
709.00,52.398
710.00,52.583
711.00,52.236
712.00,52.205
713.00,52.270
714.00,52.182
715.00,52.339
716.00,52.175
717.00,52.161
718.00,52.242
719.00,52.243
720.00,52.140
721.00,56.527
722.00,56.439
723.00,56.353
724.00,56.350
725.00,56.242
726.00,56.211
727.00,56.099
728.00,56.052
729.00,56.026
730.00,55.900
731.00,55.914
732.00,55.828
733.00,55.824
734.00,55.759
735.00,55.719
736.00,55.762
737.00,55.625
738.00,55.596
739.00,55.609
740.00,55.463
741.00,55.488
742.00,55.401
743.00,55.363
744.00,55.266
745.00,55.242
746.00,55.217
747.00,55.115
748.00,55.092
749.00,55.026
750.00,54.825
751.00,54.838
752.00,54.837
753.00,54.735
754.00,54.842
755.00,54.754
756.00,54.756
757.00,54.515
758.00,54.528
759.00,54.467
760.00,54.441
761.00,54.470
762.00,54.320
763.00,54.344
764.00,54.371
765.00,54.252
766.00,54.295
767.00,54.265
768.00,54.197
769.00,54.148
770.00,54.190
771.00,54.074
772.00,54.140
773.00,54.058
774.00,54.059
775.00,54.027
776.00,53.949
777.00,53.918
778.00,53.891
779.00,53.791
780.00,53.793
781.00,53.686
782.00,53.724
783.00,53.605
784.00,53.583
785.00,53.591
786.00,53.520
787.00,53.502
788.00,53.474
789.00,53.453
790.00,53.332
791.00,53.400
792.00,53.253
793.00,53.290
794.00,53.311
795.00,53.165
796.00,53.213
797.00,53.065
798.00,53.058
799.00,53.046
800.00,53.068
801.00,52.951
802.00,52.928
803.00,52.912
804.00,52.843
805.00,52.839
806.00,52.770
807.00,52.720
808.00,52.743
809.00,52.611
810.00,52.652
811.00,52.584
812.00,52.585
813.00,52.499
814.00,52.503
815.00,52.524
816.00,52.510
817.00,52.424
818.00,52.369
819.00,52.316
820.00,52.320
821.00,52.323
822.00,52.329
823.00,52.191
824.00,52.227
825.00,52.179
826.00,52.137
827.00,52.320
828.00,52.070
829.00,52.054
830.00,52.190
831.00,54.609
832.00,54.635
833.00,54.566
834.00,54.557
835.00,54.522
836.00,54.523
837.00,54.424
838.00,54.399
839.00,54.402
840.00,54.328
841.00,54.325
842.00,54.298
843.00,54.280
844.00,54.219
845.00,54.112
846.00,54.206
847.00,54.164
848.00,54.116
849.00,54.050
850.00,53.975
851.00,53.933
852.00,53.890
853.00,53.849
854.00,53.808
855.00,53.774
856.00,53.751
857.00,53.701
858.00,53.693
859.00,53.639
860.00,53.600
861.00,53.596
862.00,53.589
863.00,53.562
864.00,53.536
865.00,53.535
866.00,53.470
867.00,53.481
868.00,53.438
869.00,53.456
870.00,53.392
871.00,53.366
872.00,53.367
873.00,53.349
874.00,53.297
875.00,53.345
876.00,53.296
877.00,53.304
878.00,53.257
879.00,53.241
880.00,53.225
881.00,53.181
882.00,53.213
883.00,53.156
884.00,53.107
885.00,53.065
886.00,53.064
887.00,52.988
888.00,53.018
889.00,52.976
890.00,52.972
891.00,52.941
892.00,52.925
893.00,52.905
894.00,52.889
895.00,52.856
896.00,52.841
897.00,52.810
898.00,52.769
899.00,52.767
900.00,52.777
901.00,52.750
902.00,52.734
903.00,52.695
904.00,52.677
905.00,52.700
906.00,52.572
907.00,52.592
908.00,52.592
909.00,52.578
910.00,52.507
911.00,52.517
912.00,52.524
913.00,52.458
914.00,52.439
915.00,52.406
916.00,52.399
917.00,52.369
918.00,52.345
919.00,52.307
920.00,52.291
921.00,52.264
922.00,52.277
923.00,52.225
924.00,52.227
925.00,52.225
926.00,52.167
927.00,52.138
928.00,52.305
929.00,52.135
930.00,52.098
931.00,52.103
932.00,52.046
933.00,52.057
934.00,52.008
935.00,51.989
936.00,51.966
937.00,51.955
938.00,51.930
939.00,51.915
940.00,51.903
941.00,51.891
942.00,51.819
943.00,51.857
944.00,51.795
945.00,51.801
946.00,51.771
947.00,51.756
948.00,51.715
949.00,51.686
950.00,51.662
951.00,51.644
952.00,51.604
953.00,51.608
954.00,51.584
955.00,51.534
956.00,51.530
957.00,51.497
958.00,51.509
959.00,51.436
960.00,51.437
961.00,51.413
962.00,51.429
963.00,51.366
964.00,51.373
965.00,51.335
966.00,51.329
967.00,51.339
968.00,51.321
969.00,51.325
970.00,51.300
971.00,51.326
972.00,51.285
973.00,51.305
974.00,51.307
975.00,51.309
976.00,51.320
977.00,51.280
978.00,51.340
979.00,51.293
980.00,51.321
981.00,51.304
982.00,51.270
983.00,51.340
984.00,51.284
985.00,51.280
986.00,51.271
987.00,51.255
988.00,51.204
989.00,51.208
990.00,51.214
991.00,51.179
992.00,51.203
993.00,51.159
994.00,51.148
995.00,51.139
996.00,51.127
997.00,51.121
998.00,51.090
999.00,51.115
1000.00,51.063
1001.00,51.082
1002.00,51.048
1003.00,51.043
1004.00,51.068
1005.00,50.992
1006.00,51.011
1007.00,50.981
1008.00,50.982
1009.00,50.957
1010.00,50.942
1011.00,50.941
1012.00,50.912
1013.00,50.913
1014.00,50.869
1015.00,50.884
1016.00,50.848
1017.00,50.844
1018.00,50.826
1019.00,50.801
1020.00,50.794
1021.00,50.764
1022.00,50.756
1023.00,50.720
1024.00,50.719
1025.00,50.713
1026.00,50.695
1027.00,50.676
1028.00,50.661
1029.00,50.646
1030.00,50.633
1031.00,50.638
1032.00,50.591
1033.00,50.596
1034.00,50.558
1035.00,50.533
1036.00,50.496
1037.00,50.488
1038.00,50.476
1039.00,50.433
1040.00,50.437
1041.00,50.404
1042.00,50.408
1043.00,50.374
1044.00,50.409
1045.00,50.396
1046.00,50.375
1047.00,50.378
1048.00,50.395
1049.00,50.422
1050.00,50.421
1051.00,50.442
1052.00,50.459
1053.00,50.457
1054.00,50.452
1055.00,50.467
1056.00,50.478
1057.00,50.478
1058.00,50.472
1059.00,50.458
1060.00,50.463
1061.00,50.475
1062.00,50.450
1063.00,50.466
1064.00,50.473
1065.00,50.463
1066.00,50.419
1067.00,50.403
1068.00,50.413
1069.00,50.379
1070.00,50.376
1071.00,50.348
1072.00,50.382
1073.00,50.348
1074.00,50.353
1075.00,50.342
1076.00,50.326
1077.00,50.320
1078.00,50.311
1079.00,50.289
1080.00,50.309
1081.00,50.271
1082.00,50.273
1083.00,50.270
1084.00,50.271
1085.00,50.246
1086.00,50.256
1087.00,50.249
1088.00,50.229
1089.00,50.219
1090.00,50.221
1091.00,50.211
1092.00,50.184
1093.00,50.167
1094.00,50.149
1095.00,50.140
1096.00,50.129
1097.00,50.123
1098.00,50.125
1099.00,50.115
1100.00,50.099
1101.00,50.080
1102.00,50.076
1103.00,50.078
1104.00,50.073
1105.00,50.049
1106.00,50.045
1107.00,50.049
1108.00,50.047
1109.00,50.028
1110.00,50.025
1111.00,50.021
1112.00,49.988
1113.00,49.980
1114.00,49.985
1115.00,49.989
1116.00,49.969
1117.00,49.955
1118.00,49.963
1119.00,49.958
1120.00,49.951
1121.00,49.938
1122.00,49.927
1123.00,49.899
1124.00,49.903
1125.00,49.884
1126.00,49.902
1127.00,49.873
1128.00,49.859
1129.00,49.858
1130.00,49.849
1131.00,49.838
1132.00,49.839
1133.00,49.848
1134.00,49.821
1135.00,49.818
1136.00,49.824
1137.00,49.822
1138.00,49.833
1139.00,49.828
1140.00,49.828
1141.00,49.831
1142.00,49.795
1143.00,49.809
1144.00,49.785
1145.00,49.770
1146.00,49.771
1147.00,49.757
1148.00,49.774
1149.00,49.774
1150.00,49.771
1151.00,49.775
1152.00,49.755
1153.00,49.754
1154.00,49.751
1155.00,49.758
1156.00,49.744
1157.00,49.742
1158.00,49.730
1159.00,49.741
1160.00,49.726
1161.00,49.728
1162.00,49.724
1163.00,49.740
1164.00,49.733
1165.00,49.718
1166.00,49.726
1167.00,49.714
1168.00,49.719
1169.00,49.719
1170.00,49.720
1171.00,49.693
1172.00,49.691
1173.00,49.696
1174.00,49.703
1175.00,49.683
1176.00,49.695
1177.00,49.690
1178.00,49.680
1179.00,49.690
1180.00,49.680
1181.00,49.696
1182.00,49.695
1183.00,49.685
1184.00,49.669
1185.00,49.694
1186.00,49.674
1187.00,49.688
1188.00,49.666
1189.00,49.667
1190.00,49.661
1191.00,49.666
1192.00,49.685
1193.00,49.660
1194.00,49.676
1195.00,49.655
1196.00,49.698
1197.00,49.689
1198.00,49.667
1199.00,49.668
1200.00,49.654
1201.00,49.668
1202.00,49.647
1203.00,49.658
1204.00,49.643
1205.00,49.654
1206.00,49.654
1207.00,49.663
1208.00,49.643
1209.00,49.652
1210.00,49.660
1211.00,49.644
1212.00,49.665
1213.00,49.631
1214.00,49.656
1215.00,49.637
1216.00,49.649
1217.00,49.657
1218.00,49.639
1219.00,49.657
1220.00,49.641
1221.00,49.647
1222.00,49.634
1223.00,49.649
1224.00,49.649
1225.00,49.636
1226.00,49.628
1227.00,49.629
1228.00,49.661
1229.00,49.662
1230.00,49.689
1231.00,49.687
1232.00,49.721
1233.00,49.709
1234.00,49.708
1235.00,49.696
1236.00,49.693
1237.00,49.685
1238.00,49.695
1239.00,49.703
1240.00,49.697
1241.00,49.694
1242.00,49.695
1243.00,49.718
1244.00,49.688
1245.00,49.711
1246.00,49.721
1247.00,49.715
1248.00,49.706
1249.00,49.710
1250.00,49.719
1251.00,49.709
1252.00,49.728
1253.00,49.731
1254.00,49.747
1255.00,49.727
1256.00,49.716
1257.00,49.688
1258.00,49.738
1259.00,49.742
1260.00,49.770
1261.00,49.761
1262.00,49.755
1263.00,49.746
1264.00,49.762
1265.00,49.762
1266.00,49.761
1267.00,49.779
1268.00,49.790
1269.00,49.787
1270.00,49.805
1271.00,49.800
1272.00,49.818
1273.00,49.826
1274.00,49.821
1275.00,49.829
1276.00,49.826
1277.00,49.826
1278.00,49.833
1279.00,49.825
1280.00,49.824
1281.00,49.828
1282.00,49.843
1283.00,49.831
1284.00,49.844
1285.00,49.826
1286.00,49.850
1287.00,49.847
1288.00,49.852
1289.00,49.848
1290.00,49.875
1291.00,49.871
1292.00,49.873
1293.00,49.874
1294.00,49.888
1295.00,49.896
1296.00,49.896
1297.00,49.893
1298.00,49.912
1299.00,49.890
1300.00,49.902
1301.00,49.901
1302.00,49.918
1303.00,49.933
1304.00,49.914
1305.00,49.934
1306.00,49.946
1307.00,49.947
1308.00,49.949
1309.00,49.948
1310.00,49.944
1311.00,49.938
1312.00,49.952
1313.00,49.961
1314.00,49.974
1315.00,49.974
1316.00,49.981
1317.00,49.999
1318.00,49.994
1319.00,50.002
1320.00,50.019
1321.00,50.186
1322.00,50.199
1323.00,50.165
1324.00,50.181
1325.00,50.162
1326.00,50.184
1327.00,50.166
1328.00,50.184
1329.00,50.181
1330.00,50.180
1331.00,50.178
1332.00,50.175
1333.00,50.181
1334.00,50.202
1335.00,50.230
1336.00,50.254
1337.00,50.276
1338.00,50.349
1339.00,50.394
1340.00,50.441
1341.00,50.498
1342.00,50.560
1343.00,50.621
1344.00,50.666
1345.00,50.725
1346.00,50.767
1347.00,50.782
1348.00,50.794
1349.00,50.827
1350.00,50.840
1351.00,50.865
1352.00,50.858
1353.00,50.907
1354.00,50.894
1355.00,50.820
1356.00,50.897
1357.00,50.909
1358.00,50.885
1359.00,50.909
1360.00,50.912
1361.00,50.953
1362.00,50.848
1363.00,50.939
1364.00,51.005
1365.00,50.914
1366.00,50.950
1367.00,50.904
1368.00,50.863
1369.00,50.945
1370.00,50.890
1371.00,50.850
1372.00,50.876
1373.00,50.888
1374.00,50.899
1375.00,50.868
1376.00,50.881
1377.00,50.886
1378.00,50.967
1379.00,50.899
1380.00,50.891
1381.00,50.832
1382.00,50.802
1383.00,50.871
1384.00,50.795
1385.00,50.842
1386.00,50.865
1387.00,50.762
1388.00,50.831
1389.00,51.087
1390.00,50.928
1391.00,50.760
1392.00,50.853
1393.00,51.000
1394.00,50.787
1395.00,50.751
1396.00,50.773
1397.00,50.953
1398.00,51.004
1399.00,50.779
1400.00,50.655
1401.00,50.875
1402.00,51.083
1403.00,50.749
1404.00,50.850
1405.00,50.892
1406.00,50.888
1407.00,50.911
1408.00,50.777
1409.00,50.857
1410.00,50.922
1411.00,51.009
1412.00,50.998
1413.00,50.774
1414.00,50.882
1415.00,50.994
1416.00,51.002
1417.00,51.013
1418.00,50.953
1419.00,50.927
1420.00,51.023
1421.00,51.059
1422.00,51.012
1423.00,51.008
1424.00,51.049
1425.00,51.051
1426.00,51.076
1427.00,51.072
1428.00,51.095
1429.00,51.135
1430.00,51.139
1431.00,51.143
1432.00,51.155
1433.00,51.180
1434.00,51.178
1435.00,51.223
1436.00,51.205
1437.00,51.217
1438.00,51.239
1439.00,51.277
1440.00,51.274
1441.00,51.283
1442.00,51.289
1443.00,51.355
1444.00,51.350
1445.00,51.314
1446.00,51.325
1447.00,51.363
1448.00,51.423
1449.00,51.404
1450.00,51.371
1451.00,51.411
1452.00,51.426
1453.00,51.476
1454.00,51.461
1455.00,51.504
1456.00,51.506
1457.00,51.524
1458.00,51.535
1459.00,51.571
1460.00,51.570
1461.00,51.568
1462.00,51.584
1463.00,51.599
1464.00,51.612
1465.00,51.633
1466.00,51.623
1467.00,51.662
1468.00,51.682
1469.00,51.682
1470.00,51.696
1471.00,51.703
1472.00,51.715
1473.00,51.723
1474.00,51.757
1475.00,51.765
1476.00,51.783
1477.00,51.772
1478.00,51.799
1479.00,51.812
1480.00,51.816
1481.00,51.831
1482.00,51.848
1483.00,51.851
1484.00,51.868
1485.00,51.881
1486.00,51.886
1487.00,51.910
1488.00,51.904
1489.00,51.933
1490.00,51.953
1491.00,51.938
1492.00,51.963
1493.00,51.970
1494.00,51.973
1495.00,51.982
1496.00,51.981
1497.00,51.999
1498.00,51.995
1499.00,52.008
1500.00,52.047
1501.00, 
1502.00, 
1503.00, 
1504.00, 
1505.00, 
1506.00, 
1507.00, 
1508.00, 
1509.00, 
1510.00, 
1511.00, 
1512.00, 
1513.00, 
1514.00, 
1515.00, 
1516.00, 
1517.00, 
1518.00, 
1519.00, 
1520.00, 
1521.00, 
1522.00, 
1523.00, 
1524.00, 
1525.00, 
1526.00, 
1527.00, 
1528.00, 
1529.00, 
1530.00, 
1531.00, 
1532.00, 
1533.00, 
1534.00, 
1535.00, 
1536.00, 
1537.00, 
1538.00, 
1539.00, 
1540.00, 
1541.00, 
1542.00, 
1543.00, 
1544.00, 
1545.00, 
1546.00, 
1547.00, 
1548.00, 
1549.00, 
1550.00, 
1551.00, 
1552.00, 
1553.00, 
1554.00, 
1555.00, 
1556.00, 
1557.00, 
1558.00, 
1559.00, 
1560.00, 
1561.00, 
1562.00, 
1563.00, 
1564.00, 
1565.00, 
1566.00, 
1567.00, 
1568.00, 
1569.00, 
1570.00, 
1571.00, 
1572.00, 
1573.00, 
1574.00, 
1575.00, 
1576.00, 
1577.00, 
1578.00, 
1579.00, 
1580.00, 
1581.00, 
1582.00, 
1583.00, 
1584.00, 
1585.00, 
1586.00, 
1587.00, 
1588.00, 
1589.00, 
1590.00, 
1591.00, 
1592.00, 
1593.00, 
1594.00, 
1595.00, 
1596.00, 
1597.00, 
1598.00, 
1599.00, 
1600.00, 
1601.00, 
1602.00, 
1603.00, 
1604.00, 
1605.00, 
1606.00, 
1607.00, 
1608.00, 
1609.00, 
1610.00, 
1611.00, 
1612.00, 
1613.00, 
1614.00, 
1615.00, 
1616.00, 
1617.00, 
1618.00, 
1619.00, 
1620.00, 
1621.00, 
1622.00, 
1623.00, 
1624.00, 
1625.00, 
1626.00, 
1627.00, 
1628.00, 
1629.00, 
1630.00, 
1631.00, 
1632.00, 
1633.00, 
1634.00, 
1635.00, 
1636.00, 
1637.00, 
1638.00, 
1639.00, 
1640.00, 
1641.00, 
1642.00, 
1643.00, 
1644.00, 
1645.00, 
1646.00, 
1647.00, 
1648.00, 
1649.00, 
1650.00, 
1651.00, 
1652.00, 
1653.00, 
1654.00, 
1655.00, 
1656.00, 
1657.00, 
1658.00, 
1659.00, 
1660.00, 
1661.00, 
1662.00, 
1663.00, 
1664.00, 
1665.00, 
1666.00, 
1667.00, 
1668.00, 
1669.00, 
1670.00, 
1671.00, 
1672.00, 
1673.00, 
1674.00, 
1675.00, 
1676.00, 
1677.00, 
1678.00, 
1679.00, 
1680.00, 
1681.00, 
1682.00, 
1683.00, 
1684.00, 
1685.00, 
1686.00, 
1687.00, 
1688.00, 
1689.00, 
1690.00, 
1691.00, 
1692.00, 
1693.00, 
1694.00, 
1695.00, 
1696.00, 
1697.00, 
1698.00, 
1699.00, 
1700.00, 
1701.00, 
1702.00, 
1703.00, 
1704.00, 
1705.00, 
1706.00, 
1707.00, 
1708.00, 
1709.00, 
1710.00, 
1711.00, 
1712.00, 
1713.00, 
1714.00, 
1715.00, 
1716.00, 
1717.00, 
1718.00, 
1719.00, 
1720.00, 
1721.00, 
1722.00, 
1723.00, 
1724.00, 
1725.00, 
1726.00, 
1727.00, 
1728.00, 
1729.00, 
1730.00, 
1731.00, 
1732.00, 
1733.00, 
1734.00, 
1735.00, 
1736.00, 
1737.00, 
1738.00, 
1739.00, 
1740.00, 
1741.00, 
1742.00, 
1743.00, 
1744.00, 
1745.00, 
1746.00, 
1747.00, 
1748.00, 
1749.00, 
1750.00, 
1751.00, 
1752.00, 
1753.00, 
1754.00, 
1755.00, 
1756.00, 
1757.00, 
1758.00, 
1759.00, 
1760.00, 
1761.00, 
1762.00, 
1763.00, 
1764.00, 
1765.00, 
1766.00, 
1767.00, 
1768.00, 
1769.00, 
1770.00, 
1771.00, 
1772.00, 
1773.00, 
1774.00, 
1775.00, 
1776.00, 
1777.00, 
1778.00, 
1779.00, 
1780.00, 
1781.00, 
1782.00, 
1783.00, 
1784.00, 
1785.00, 
1786.00, 
1787.00, 
1788.00, 
1789.00, 
1790.00, 
1791.00, 
1792.00, 
1793.00, 
1794.00, 
1795.00, 
1796.00, 
1797.00, 
1798.00, 
1799.00, 
1800.00, 
1801.00, 
1802.00, 
1803.00, 
1804.00, 
1805.00, 
1806.00, 
1807.00, 
1808.00, 
1809.00, 
1810.00, 
1811.00, 
1812.00, 
1813.00, 
1814.00, 
1815.00, 
1816.00, 
1817.00, 
1818.00, 
1819.00, 
1820.00, 
1821.00, 
1822.00, 
1823.00, 
1824.00, 
1825.00, 
1826.00, 
1827.00, 
1828.00, 
1829.00, 
1830.00, 
1831.00, 
1832.00, 
1833.00, 
1834.00, 
1835.00, 
1836.00, 
1837.00, 
1838.00, 
1839.00, 
1840.00, 
1841.00, 
1842.00, 
1843.00, 
1844.00, 
1845.00, 
1846.00, 
1847.00, 
1848.00, 
1849.00, 
1850.00, 
1851.00, 
1852.00, 
1853.00, 
1854.00, 
1855.00, 
1856.00, 
1857.00, 
1858.00, 
1859.00, 
1860.00, 
1861.00, 
1862.00, 
1863.00, 
1864.00, 
1865.00, 
1866.00, 
1867.00, 
1868.00, 
1869.00, 
1870.00, 
1871.00, 
1872.00, 
1873.00, 
1874.00, 
1875.00, 
1876.00, 
1877.00, 
1878.00, 
1879.00, 
1880.00, 
1881.00, 
1882.00, 
1883.00, 
1884.00, 
1885.00, 
1886.00, 
1887.00, 
1888.00, 
1889.00, 
1890.00, 
1891.00, 
1892.00, 
1893.00, 
1894.00, 
1895.00, 
1896.00, 
1897.00, 
1898.00, 
1899.00, 
1900.00, 
1901.00, 
1902.00, 
1903.00, 
1904.00, 
1905.00, 
1906.00, 
1907.00, 
1908.00, 
1909.00, 
1910.00, 
1911.00, 
1912.00, 
1913.00, 
1914.00, 
1915.00, 
1916.00, 
1917.00, 
1918.00, 
1919.00, 
1920.00, 
1921.00, 
1922.00, 
1923.00, 
1924.00, 
1925.00, 
1926.00, 
1927.00, 
1928.00, 
1929.00, 
1930.00, 
1931.00, 
1932.00, 
1933.00, 
1934.00, 
1935.00, 
1936.00, 
1937.00, 
1938.00, 
1939.00, 
1940.00, 
1941.00, 
1942.00, 
1943.00, 
1944.00, 
1945.00, 
1946.00, 
1947.00, 
1948.00, 
1949.00, 
1950.00, 
1951.00, 
1952.00, 
1953.00, 
1954.00, 
1955.00, 
1956.00, 
1957.00, 
1958.00, 
1959.00, 
1960.00, 
1961.00, 
1962.00, 
1963.00, 
1964.00, 
1965.00, 
1966.00, 
1967.00, 
1968.00, 
1969.00, 
1970.00, 
1971.00, 
1972.00, 
1973.00, 
1974.00, 
1975.00, 
1976.00, 
1977.00, 
1978.00, 
1979.00, 
1980.00, 
1981.00, 
1982.00, 
1983.00, 
1984.00, 
1985.00, 
1986.00, 
1987.00, 
1988.00, 
1989.00, 
1990.00, 
1991.00, 
1992.00, 
1993.00, 
1994.00, 
1995.00, 
1996.00, 
1997.00, 
1998.00, 
1999.00, 
2000.00, 
2001.00, 
2002.00, 
2003.00, 
2004.00, 
2005.00, 
2006.00, 
2007.00, 
2008.00, 
2009.00, 
2010.00, 
2011.00, 
2012.00, 
2013.00, 
2014.00, 
2015.00, 
2016.00, 
2017.00, 
2018.00, 
2019.00, 
2020.00, 
2021.00, 
2022.00, 
2023.00, 
2024.00, 
2025.00, 
2026.00, 
2027.00, 
2028.00, 
2029.00, 
2030.00, 
2031.00, 
2032.00, 
2033.00, 
2034.00, 
2035.00, 
2036.00, 
2037.00, 
2038.00, 
2039.00, 
2040.00, 
2041.00, 
2042.00, 
2043.00, 
2044.00, 
2045.00, 
2046.00, 
2047.00, 
2048.00, 
2049.00, 
2050.00, 
2051.00, 
2052.00, 
2053.00, 
2054.00, 
2055.00, 
2056.00, 
2057.00, 
2058.00, 
2059.00, 
2060.00, 
2061.00, 
2062.00, 
2063.00, 
2064.00, 
2065.00, 
2066.00, 
2067.00, 
2068.00, 
2069.00, 
2070.00, 
2071.00, 
2072.00, 
2073.00, 
2074.00, 
2075.00, 
2076.00, 
2077.00, 
2078.00, 
2079.00, 
2080.00, 
2081.00, 
2082.00, 
2083.00, 
2084.00, 
2085.00, 
2086.00, 
2087.00, 
2088.00, 
2089.00, 
2090.00, 
2091.00, 
2092.00, 
2093.00, 
2094.00, 
2095.00, 
2096.00, 
2097.00, 
2098.00, 
2099.00, 
2100.00, 
2101.00, 
2102.00, 
2103.00, 
2104.00, 
2105.00, 
2106.00, 
2107.00, 
2108.00, 
2109.00, 
2110.00, 
2111.00, 
2112.00, 
2113.00, 
2114.00, 
2115.00, 
2116.00, 
2117.00, 
2118.00, 
2119.00, 
2120.00, 
2121.00, 
2122.00, 
2123.00, 
2124.00, 
2125.00, 
2126.00, 
2127.00, 
2128.00, 
2129.00, 
2130.00, 
2131.00, 
2132.00, 
2133.00, 
2134.00, 
2135.00, 
2136.00, 
2137.00, 
2138.00, 
2139.00, 
2140.00, 
2141.00, 
2142.00, 
2143.00, 
2144.00, 
2145.00, 
2146.00, 
2147.00, 
2148.00, 
2149.00, 
2150.00, 
2151.00, 
2152.00, 
2153.00, 
2154.00, 
2155.00, 
2156.00, 
2157.00, 
2158.00, 
2159.00, 
2160.00, 
2161.00, 
2162.00, 
2163.00, 
2164.00, 
2165.00, 
2166.00, 
2167.00, 
2168.00, 
2169.00, 
2170.00, 
2171.00, 
2172.00, 
2173.00, 
2174.00, 
2175.00, 
2176.00, 
2177.00, 
2178.00, 
2179.00, 
2180.00, 
2181.00, 
2182.00, 
2183.00, 
2184.00, 
2185.00, 
2186.00, 
2187.00, 
2188.00, 
2189.00, 
2190.00, 
2191.00, 
2192.00, 
2193.00, 
2194.00, 
2195.00, 
2196.00, 
2197.00, 
2198.00, 
2199.00, 
2200.00, 
2201.00, 
2202.00, 
2203.00, 
2204.00, 
2205.00, 
2206.00, 
2207.00, 
2208.00, 
2209.00, 
2210.00, 
2211.00, 
2212.00, 
2213.00, 
2214.00, 
2215.00, 
2216.00, 
2217.00, 
2218.00, 
2219.00, 
2220.00, 
2221.00, 
2222.00, 
2223.00, 
2224.00, 
2225.00, 
2226.00, 
2227.00, 
2228.00, 
2229.00, 
2230.00, 
2231.00, 
2232.00, 
2233.00, 
2234.00, 
2235.00, 
2236.00, 
2237.00, 
2238.00, 
2239.00, 
2240.00, 
2241.00, 
2242.00, 
2243.00, 
2244.00, 
2245.00, 
2246.00, 
2247.00, 
2248.00, 
2249.00, 
2250.00, 
2251.00, 
2252.00, 
2253.00, 
2254.00, 
2255.00, 
2256.00, 
2257.00, 
2258.00, 
2259.00, 
2260.00, 
2261.00, 
2262.00, 
2263.00, 
2264.00, 
2265.00, 
2266.00, 
2267.00, 
2268.00, 
2269.00, 
2270.00, 
2271.00, 
2272.00, 
2273.00, 
2274.00, 
2275.00, 
2276.00, 
2277.00, 
2278.00, 
2279.00, 
2280.00, 
2281.00, 
2282.00, 
2283.00, 
2284.00, 
2285.00, 
2286.00, 
2287.00, 
2288.00, 
2289.00, 
2290.00, 
2291.00, 
2292.00, 
2293.00, 
2294.00, 
2295.00, 
2296.00, 
2297.00, 
2298.00, 
2299.00, 
2300.00, 
2301.00, 
2302.00, 
2303.00, 
2304.00, 
2305.00, 
2306.00, 
2307.00, 
2308.00, 
2309.00, 
2310.00, 
2311.00, 
2312.00, 
2313.00, 
2314.00, 
2315.00, 
2316.00, 
2317.00, 
2318.00, 
2319.00, 
2320.00, 
2321.00, 
2322.00, 
2323.00, 
2324.00, 
2325.00, 
2326.00, 
2327.00, 
2328.00, 
2329.00, 
2330.00, 
2331.00, 
2332.00, 
2333.00, 
2334.00, 
2335.00, 
2336.00, 
2337.00, 
2338.00, 
2339.00, 
2340.00, 
2341.00, 
2342.00, 
2343.00, 
2344.00, 
2345.00, 
2346.00, 
2347.00, 
2348.00, 
2349.00, 
2350.00, 
2351.00, 
2352.00, 
2353.00, 
2354.00, 
2355.00, 
2356.00, 
2357.00, 
2358.00, 
2359.00, 
2360.00, 
2361.00, 
2362.00, 
2363.00, 
2364.00, 
2365.00, 
2366.00, 
2367.00, 
2368.00, 
2369.00, 
2370.00, 
2371.00, 
2372.00, 
2373.00, 
2374.00, 
2375.00, 
2376.00, 
2377.00, 
2378.00, 
2379.00, 
2380.00, 
2381.00, 
2382.00, 
2383.00, 
2384.00, 
2385.00, 
2386.00, 
2387.00, 
2388.00, 
2389.00, 
2390.00, 
2391.00, 
2392.00, 
2393.00, 
2394.00, 
2395.00, 
2396.00, 
2397.00, 
2398.00, 
2399.00, 
2400.00, 
2401.00, 
2402.00, 
2403.00, 
2404.00, 
2405.00, 
2406.00, 
2407.00, 
2408.00, 
2409.00, 
2410.00, 
2411.00, 
2412.00, 
2413.00, 
2414.00, 
2415.00, 
2416.00, 
2417.00, 
2418.00, 
2419.00, 
2420.00, 
2421.00, 
2422.00, 
2423.00, 
2424.00, 
2425.00, 
2426.00, 
2427.00, 
2428.00, 
2429.00, 
2430.00, 
2431.00, 
2432.00, 
2433.00, 
2434.00, 
2435.00, 
2436.00, 
2437.00, 
2438.00, 
2439.00, 
2440.00, 
2441.00, 
2442.00, 
2443.00, 
2444.00, 
2445.00, 
2446.00, 
2447.00, 
2448.00, 
2449.00, 
2450.00, 
2451.00, 
2452.00, 
2453.00, 
2454.00, 
2455.00, 
2456.00, 
2457.00, 
2458.00, 
2459.00, 
2460.00, 
2461.00, 
2462.00, 
2463.00, 
2464.00, 
2465.00, 
2466.00, 
2467.00, 
2468.00, 
2469.00, 
2470.00, 
2471.00, 
2472.00, 
2473.00, 
2474.00, 
2475.00, 
2476.00, 
2477.00, 
2478.00, 
2479.00, 
2480.00, 
2481.00, 
2482.00, 
2483.00, 
2484.00, 
2485.00, 
2486.00, 
2487.00, 
2488.00, 
2489.00, 
2490.00, 
2491.00, 
2492.00, 
2493.00, 
2494.00, 
2495.00, 
2496.00, 
2497.00, 
2498.00, 
2499.00, 
2500.00, 
2501.00, 
2502.00, 
2503.00, 
2504.00, 
2505.00, 
2506.00, 
2507.00, 
2508.00, 
2509.00, 
2510.00, 
2511.00, 
2512.00, 
2513.00, 
2514.00, 
2515.00, 
2516.00, 
2517.00, 
2518.00, 
2519.00, 
2520.00, 
2521.00, 
2522.00, 
2523.00, 
2524.00, 
2525.00, 
2526.00, 
2527.00, 
2528.00, 
2529.00, 
2530.00, 
2531.00, 
2532.00, 
2533.00, 
2534.00, 
2535.00, 
2536.00, 
2537.00, 
2538.00, 
2539.00, 
2540.00, 
2541.00, 
2542.00, 
2543.00, 
2544.00, 
2545.00, 
2546.00, 
2547.00, 
2548.00, 
2549.00, 
2550.00, 
2551.00, 
2552.00, 
2553.00, 
2554.00, 
2555.00, 
2556.00, 
2557.00, 
2558.00, 
2559.00, 
2560.00, 
2561.00, 
2562.00, 
2563.00, 
2564.00, 
2565.00, 
2566.00, 
2567.00, 
2568.00, 
2569.00, 
2570.00, 
2571.00, 
2572.00, 
2573.00, 
2574.00, 
2575.00, 
2576.00, 
2577.00, 
2578.00, 
2579.00, 
2580.00, 
2581.00, 
2582.00, 
2583.00, 
2584.00, 
2585.00, 
2586.00, 
2587.00, 
2588.00, 
2589.00, 
2590.00, 
2591.00, 
2592.00, 
2593.00, 
2594.00, 
2595.00, 
2596.00, 
2597.00, 
2598.00, 
2599.00, 
2600.00, 
