"1aP2 - RawData"
"Wavelength nm.","T%"
200.00,-0.001
201.00,0.001
202.00,0.002
203.00,-0.002
204.00,0.001
205.00,0.001
206.00,0.002
207.00,-0.000
208.00,0.003
209.00,0.004
210.00,0.003
211.00,0.004
212.00,0.001
213.00,0.002
214.00,-0.001
215.00,0.002
216.00,-0.000
217.00,0.001
218.00,0.005
219.00,0.001
220.00,-0.001
221.00,0.002
222.00,0.000
223.00,0.001
224.00,0.003
225.00,0.002
226.00,-0.001
227.00,-0.001
228.00,0.001
229.00,0.003
230.00,0.001
231.00,-0.000
232.00,0.002
233.00,-0.001
234.00,0.000
235.00,-0.002
236.00,-0.000
237.00,0.002
238.00,-0.001
239.00,-0.001
240.00,0.002
241.00,-0.000
242.00,0.001
243.00,-0.000
244.00,0.002
245.00,0.000
246.00,-0.001
247.00,0.001
248.00,0.000
249.00,0.002
250.00,0.001
251.00,0.001
252.00,0.000
253.00,0.000
254.00,0.000
255.00,0.002
256.00,0.000
257.00,0.002
258.00,0.001
259.00,0.001
260.00,0.000
261.00,-0.000
262.00,0.000
263.00,0.000
264.00,-0.000
265.00,0.002
266.00,-0.000
267.00,-0.000
268.00,0.001
269.00,0.001
270.00,-0.001
271.00,0.000
272.00,0.000
273.00,-0.001
274.00,0.002
275.00,0.001
276.00,-0.000
277.00,0.001
278.00,0.000
279.00,0.002
280.00,-0.000
281.00,-0.001
282.00,0.001
283.00,0.000
284.00,-0.002
285.00,0.001
286.00,0.001
287.00,0.002
288.00,0.002
289.00,0.001
290.00,-0.001
291.00,0.001
292.00,0.000
293.00,0.002
294.00,0.002
295.00,0.001
296.00,0.001
297.00,0.000
298.00,-0.000
299.00,0.002
300.00,0.004
301.00,0.006
302.00,0.009
303.00,0.013
304.00,0.019
305.00,0.030
306.00,0.050
307.00,0.074
308.00,0.111
309.00,0.171
310.00,0.235
311.00,0.315
312.00,0.428
313.00,0.587
314.00,0.769
315.00,0.983
316.00,1.237
317.00,1.554
318.00,1.902
319.00,2.326
320.00,2.733
321.00,3.324
322.00,3.911
323.00,4.572
324.00,5.246
325.00,5.955
326.00,6.685
327.00,7.487
328.00,8.275
329.00,9.109
330.00,9.976
331.00,10.819
332.00,11.703
333.00,12.600
334.00,13.453
335.00,14.277
336.00,15.171
337.00,16.033
338.00,16.827
339.00,17.610
340.00,18.430
341.00,19.157
342.00,19.882
343.00,20.551
344.00,21.198
345.00,21.857
346.00,22.394
347.00,22.950
348.00,23.447
349.00,23.935
350.00,24.376
351.00,24.788
352.00,25.158
353.00,25.499
354.00,25.839
355.00,26.182
356.00,26.464
357.00,26.692
358.00,26.964
359.00,27.250
360.00,27.408
361.00,27.612
362.00,27.780
363.00,27.985
364.00,28.108
365.00,28.282
366.00,28.330
367.00,28.428
368.00,28.482
369.00,28.564
370.00,28.596
371.00,28.636
372.00,28.632
373.00,28.640
374.00,28.658
375.00,28.584
376.00,28.574
377.00,28.499
378.00,28.450
379.00,28.327
380.00,28.310
381.00,28.283
382.00,28.293
383.00,28.381
384.00,28.396
385.00,28.411
386.00,28.422
387.00,28.528
388.00,28.574
389.00,28.617
390.00,28.632
391.00,28.669
392.00,28.754
393.00,28.821
394.00,28.717
395.00,28.750
396.00,28.782
397.00,28.794
398.00,28.765
399.00,28.815
400.00,28.813
401.00,28.792
402.00,28.818
403.00,28.841
404.00,28.851
405.00,28.836
406.00,28.776
407.00,28.720
408.00,28.714
409.00,28.682
410.00,28.650
411.00,28.622
412.00,28.586
413.00,28.539
414.00,28.566
415.00,28.576
416.00,28.651
417.00,28.648
418.00,28.709
419.00,28.740
420.00,28.767
421.00,28.847
422.00,28.839
423.00,28.861
424.00,28.907
425.00,28.947
426.00,29.018
427.00,29.027
428.00,29.092
429.00,29.118
430.00,29.089
431.00,29.255
432.00,29.248
433.00,29.320
434.00,29.385
435.00,29.484
436.00,29.548
437.00,29.613
438.00,29.651
439.00,29.726
440.00,29.809
441.00,29.878
442.00,29.976
443.00,30.006
444.00,30.101
445.00,30.140
446.00,30.275
447.00,30.429
448.00,30.512
449.00,30.606
450.00,30.736
451.00,30.829
452.00,30.919
453.00,31.022
454.00,31.129
455.00,31.212
456.00,31.343
457.00,31.429
458.00,31.552
459.00,31.712
460.00,31.777
461.00,31.926
462.00,32.054
463.00,32.145
464.00,32.286
465.00,32.408
466.00,32.573
467.00,32.634
468.00,32.750
469.00,32.888
470.00,32.937
471.00,33.019
472.00,33.129
473.00,33.187
474.00,33.322
475.00,33.396
476.00,33.483
477.00,33.636
478.00,33.774
479.00,33.923
480.00,34.101
481.00,34.137
482.00,34.359
483.00,34.442
484.00,34.613
485.00,34.777
486.00,34.899
487.00,35.052
488.00,35.162
489.00,35.322
490.00,35.418
491.00,35.570
492.00,35.815
493.00,35.899
494.00,35.902
495.00,36.075
496.00,36.160
497.00,36.264
498.00,36.449
499.00,36.544
500.00,36.667
501.00,36.789
502.00,36.895
503.00,37.034
504.00,37.099
505.00,37.139
506.00,37.301
507.00,37.387
508.00,37.444
509.00,37.547
510.00,37.687
511.00,37.845
512.00,37.853
513.00,38.102
514.00,38.218
515.00,38.171
516.00,38.345
517.00,38.375
518.00,38.561
519.00,38.643
520.00,38.744
521.00,38.757
522.00,38.846
523.00,38.975
524.00,38.968
525.00,39.052
526.00,39.112
527.00,39.240
528.00,39.346
529.00,39.420
530.00,39.522
531.00,39.731
532.00,39.743
533.00,39.868
534.00,39.938
535.00,40.062
536.00,40.097
537.00,40.141
538.00,40.203
539.00,40.265
540.00,40.307
541.00,40.337
542.00,40.384
543.00,40.422
544.00,40.526
545.00,40.540
546.00,40.606
547.00,40.701
548.00,40.754
549.00,40.811
550.00,40.912
551.00,40.951
552.00,41.013
553.00,41.076
554.00,41.135
555.00,41.121
556.00,41.254
557.00,41.290
558.00,41.340
559.00,41.367
560.00,41.416
561.00,41.504
562.00,41.530
563.00,41.574
564.00,41.628
565.00,41.639
566.00,41.626
567.00,41.637
568.00,41.693
569.00,41.731
570.00,41.685
571.00,41.768
572.00,41.838
573.00,41.793
574.00,41.848
575.00,41.845
576.00,41.793
577.00,41.883
578.00,41.992
579.00,42.013
580.00,42.065
581.00,42.175
582.00,42.226
583.00,42.301
584.00,42.398
585.00,42.415
586.00,42.442
587.00,42.476
588.00,42.496
589.00,42.457
590.00,42.543
591.00,42.648
592.00,42.612
593.00,42.646
594.00,42.655
595.00,42.677
596.00,42.848
597.00,42.991
598.00,42.847
599.00,42.927
600.00,43.013
601.00,42.989
602.00,42.899
603.00,42.921
604.00,43.013
605.00,42.967
606.00,43.015
607.00,43.071
608.00,43.166
609.00,43.187
610.00,43.224
611.00,43.277
612.00,43.260
613.00,43.286
614.00,43.356
615.00,43.434
616.00,43.482
617.00,43.505
618.00,43.607
619.00,43.565
620.00,43.604
621.00,43.653
622.00,43.718
623.00,43.764
624.00,43.824
625.00,43.886
626.00,43.930
627.00,43.950
628.00,43.906
629.00,43.994
630.00,44.014
631.00,44.132
632.00,44.166
633.00,44.208
634.00,44.303
635.00,44.394
636.00,44.469
637.00,44.512
638.00,44.492
639.00,44.650
640.00,44.604
641.00,44.667
642.00,44.704
643.00,44.728
644.00,44.830
645.00,44.891
646.00,44.975
647.00,44.997
648.00,44.949
649.00,45.104
650.00,45.160
651.00,45.221
652.00,45.282
653.00,45.398
654.00,45.434
655.00,45.480
656.00,45.664
657.00,45.747
658.00,45.734
659.00,45.801
660.00,45.807
661.00,45.769
662.00,45.941
663.00,46.028
664.00,46.138
665.00,46.335
666.00,46.360
667.00,46.513
668.00,46.512
669.00,46.518
670.00,46.693
671.00,46.641
672.00,46.804
673.00,46.921
674.00,46.931
675.00,46.890
676.00,47.051
677.00,47.135
678.00,47.002
679.00,47.192
680.00,47.256
681.00,47.353
682.00,47.531
683.00,47.517
684.00,47.701
685.00,47.647
686.00,47.660
687.00,47.728
688.00,47.734
689.00,47.668
690.00,47.924
691.00,48.118
692.00,47.953
693.00,48.066
694.00,48.130
695.00,48.220
696.00,48.296
697.00,48.372
698.00,48.324
699.00,48.485
700.00,48.734
701.00,48.696
702.00,48.758
703.00,48.857
704.00,48.851
705.00,48.781
706.00,48.949
707.00,48.985
708.00,48.827
709.00,49.033
710.00,49.390
711.00,49.116
712.00,49.187
713.00,49.311
714.00,49.349
715.00,49.171
716.00,49.360
717.00,49.429
718.00,49.556
719.00,49.531
720.00,49.598
721.00,53.948
722.00,53.892
723.00,53.994
724.00,53.967
725.00,53.931
726.00,53.993
727.00,53.999
728.00,53.984
729.00,53.970
730.00,54.075
731.00,53.992
732.00,54.000
733.00,54.016
734.00,54.048
735.00,54.152
736.00,54.132
737.00,54.161
738.00,54.153
739.00,54.156
740.00,54.170
741.00,54.165
742.00,54.211
743.00,54.143
744.00,54.250
745.00,54.228
746.00,54.278
747.00,54.187
748.00,54.152
749.00,54.145
750.00,54.177
751.00,54.052
752.00,54.092
753.00,54.106
754.00,54.059
755.00,54.088
756.00,54.152
757.00,54.132
758.00,54.127
759.00,54.154
760.00,54.080
761.00,54.086
762.00,54.061
763.00,54.113
764.00,54.104
765.00,54.066
766.00,54.142
767.00,54.144
768.00,54.090
769.00,54.094
770.00,54.141
771.00,54.142
772.00,54.127
773.00,54.141
774.00,54.125
775.00,54.155
776.00,54.160
777.00,54.208
778.00,54.078
779.00,54.127
780.00,54.109
781.00,54.202
782.00,54.089
783.00,53.972
784.00,54.114
785.00,53.944
786.00,54.088
787.00,53.999
788.00,53.993
789.00,53.970
790.00,53.921
791.00,54.021
792.00,53.938
793.00,53.947
794.00,53.959
795.00,53.977
796.00,53.967
797.00,53.819
798.00,53.935
799.00,53.824
800.00,53.854
801.00,53.859
802.00,53.855
803.00,53.803
804.00,53.727
805.00,53.754
806.00,53.636
807.00,53.608
808.00,53.733
809.00,53.672
810.00,53.618
811.00,53.666
812.00,53.699
813.00,53.642
814.00,53.615
815.00,53.625
816.00,53.619
817.00,53.569
818.00,53.506
819.00,53.520
820.00,53.481
821.00,53.475
822.00,53.438
823.00,53.470
824.00,53.500
825.00,53.473
826.00,53.327
827.00,53.521
828.00,53.434
829.00,53.350
830.00,53.384
831.00,55.872
832.00,55.860
833.00,55.776
834.00,55.823
835.00,55.721
836.00,55.795
837.00,55.755
838.00,55.716
839.00,55.734
840.00,55.646
841.00,55.677
842.00,55.682
843.00,55.672
844.00,55.625
845.00,55.576
846.00,55.617
847.00,55.548
848.00,55.390
849.00,55.528
850.00,55.498
851.00,55.431
852.00,55.434
853.00,55.389
854.00,55.364
855.00,55.315
856.00,55.285
857.00,55.339
858.00,55.251
859.00,55.254
860.00,55.277
861.00,55.267
862.00,55.185
863.00,55.239
864.00,55.158
865.00,55.185
866.00,55.152
867.00,55.150
868.00,55.143
869.00,55.108
870.00,55.151
871.00,55.110
872.00,55.083
873.00,55.041
874.00,55.146
875.00,55.022
876.00,55.069
877.00,55.266
878.00,55.065
879.00,55.036
880.00,55.017
881.00,54.998
882.00,55.004
883.00,54.977
884.00,54.912
885.00,54.921
886.00,54.901
887.00,54.897
888.00,54.869
889.00,54.853
890.00,54.867
891.00,54.840
892.00,54.787
893.00,54.786
894.00,54.804
895.00,54.731
896.00,54.741
897.00,54.709
898.00,54.657
899.00,54.688
900.00,54.674
901.00,54.680
902.00,54.701
903.00,54.663
904.00,54.634
905.00,54.644
906.00,54.629
907.00,54.598
908.00,54.573
909.00,54.574
910.00,54.533
911.00,54.499
912.00,54.487
913.00,54.455
914.00,54.436
915.00,54.441
916.00,54.405
917.00,54.402
918.00,54.394
919.00,54.352
920.00,54.321
921.00,54.352
922.00,54.327
923.00,54.301
924.00,54.271
925.00,54.271
926.00,54.269
927.00,54.215
928.00,54.214
929.00,54.202
930.00,54.179
931.00,54.170
932.00,54.112
933.00,54.122
934.00,54.128
935.00,54.090
936.00,54.075
937.00,54.061
938.00,54.060
939.00,54.040
940.00,54.000
941.00,53.999
942.00,53.979
943.00,53.958
944.00,53.913
945.00,53.930
946.00,53.922
947.00,53.875
948.00,53.864
949.00,53.859
950.00,53.823
951.00,53.807
952.00,53.764
953.00,53.744
954.00,53.735
955.00,53.691
956.00,53.675
957.00,53.641
958.00,53.659
959.00,53.611
960.00,53.581
961.00,53.582
962.00,53.604
963.00,53.532
964.00,53.561
965.00,53.646
966.00,53.533
967.00,53.530
968.00,53.491
969.00,53.520
970.00,53.494
971.00,53.490
972.00,53.435
973.00,53.486
974.00,53.503
975.00,53.506
976.00,53.541
977.00,53.524
978.00,53.565
979.00,53.497
980.00,53.521
981.00,53.538
982.00,53.478
983.00,53.497
984.00,53.487
985.00,53.502
986.00,53.464
987.00,53.497
988.00,53.448
989.00,53.430
990.00,53.485
991.00,53.410
992.00,53.453
993.00,53.411
994.00,53.408
995.00,53.379
996.00,53.373
997.00,53.367
998.00,53.347
999.00,53.360
1000.00,53.320
1001.00,53.310
1002.00,53.307
1003.00,53.312
1004.00,53.283
1005.00,53.251
1006.00,53.307
1007.00,53.259
1008.00,53.256
1009.00,53.216
1010.00,53.216
1011.00,53.253
1012.00,53.170
1013.00,53.186
1014.00,53.168
1015.00,53.170
1016.00,53.143
1017.00,53.135
1018.00,53.126
1019.00,53.090
1020.00,53.100
1021.00,53.075
1022.00,53.071
1023.00,53.042
1024.00,53.010
1025.00,53.002
1026.00,53.017
1027.00,52.994
1028.00,52.991
1029.00,52.974
1030.00,52.942
1031.00,52.963
1032.00,52.919
1033.00,52.922
1034.00,52.876
1035.00,52.868
1036.00,52.827
1037.00,52.800
1038.00,52.819
1039.00,52.781
1040.00,52.763
1041.00,52.748
1042.00,52.743
1043.00,52.712
1044.00,52.758
1045.00,52.731
1046.00,52.718
1047.00,52.751
1048.00,52.752
1049.00,52.752
1050.00,52.757
1051.00,52.795
1052.00,52.805
1053.00,52.811
1054.00,52.801
1055.00,52.831
1056.00,52.842
1057.00,52.830
1058.00,52.835
1059.00,52.825
1060.00,52.833
1061.00,52.831
1062.00,52.805
1063.00,52.826
1064.00,52.799
1065.00,52.788
1066.00,52.792
1067.00,52.775
1068.00,52.795
1069.00,52.784
1070.00,52.743
1071.00,52.738
1072.00,52.774
1073.00,52.746
1074.00,52.739
1075.00,52.734
1076.00,52.727
1077.00,52.719
1078.00,52.689
1079.00,52.695
1080.00,52.702
1081.00,52.681
1082.00,52.682
1083.00,52.683
1084.00,52.696
1085.00,52.683
1086.00,52.688
1087.00,52.693
1088.00,52.667
1089.00,52.637
1090.00,52.635
1091.00,52.654
1092.00,52.630
1093.00,52.612
1094.00,52.615
1095.00,52.597
1096.00,52.575
1097.00,52.572
1098.00,52.562
1099.00,52.542
1100.00,52.521
1101.00,52.515
1102.00,52.527
1103.00,52.526
1104.00,52.515
1105.00,52.511
1106.00,52.496
1107.00,52.500
1108.00,52.496
1109.00,52.475
1110.00,52.483
1111.00,52.459
1112.00,52.449
1113.00,52.441
1114.00,52.440
1115.00,52.447
1116.00,52.441
1117.00,52.399
1118.00,52.404
1119.00,52.407
1120.00,52.406
1121.00,52.418
1122.00,52.382
1123.00,52.353
1124.00,52.367
1125.00,52.368
1126.00,52.355
1127.00,52.358
1128.00,52.344
1129.00,52.333
1130.00,52.318
1131.00,52.299
1132.00,52.290
1133.00,52.284
1134.00,52.306
1135.00,52.292
1136.00,52.289
1137.00,52.294
1138.00,52.301
1139.00,52.298
1140.00,52.297
1141.00,52.275
1142.00,52.303
1143.00,52.300
1144.00,52.265
1145.00,52.268
1146.00,52.294
1147.00,52.271
1148.00,52.267
1149.00,52.292
1150.00,52.290
1151.00,52.289
1152.00,52.278
1153.00,52.271
1154.00,52.270
1155.00,52.262
1156.00,52.256
1157.00,52.270
1158.00,52.252
1159.00,52.253
1160.00,52.253
1161.00,52.260
1162.00,52.255
1163.00,52.260
1164.00,52.263
1165.00,52.266
1166.00,52.254
1167.00,52.245
1168.00,52.282
1169.00,52.252
1170.00,52.257
1171.00,52.246
1172.00,52.232
1173.00,52.234
1174.00,52.246
1175.00,52.243
1176.00,52.230
1177.00,52.225
1178.00,52.234
1179.00,52.238
1180.00,52.235
1181.00,52.260
1182.00,52.263
1183.00,52.240
1184.00,52.231
1185.00,52.243
1186.00,52.231
1187.00,52.232
1188.00,52.218
1189.00,52.232
1190.00,52.216
1191.00,52.222
1192.00,52.228
1193.00,52.243
1194.00,52.239
1195.00,52.208
1196.00,52.250
1197.00,52.241
1198.00,52.236
1199.00,52.239
1200.00,52.236
1201.00,52.258
1202.00,52.228
1203.00,52.234
1204.00,52.246
1205.00,52.245
1206.00,52.233
1207.00,52.251
1208.00,52.217
1209.00,52.229
1210.00,52.218
1211.00,52.228
1212.00,52.256
1213.00,52.206
1214.00,52.236
1215.00,52.247
1216.00,52.221
1217.00,52.228
1218.00,52.242
1219.00,52.244
1220.00,52.231
1221.00,52.246
1222.00,52.237
1223.00,52.261
1224.00,52.246
1225.00,52.230
1226.00,52.242
1227.00,52.233
1228.00,52.246
1229.00,52.260
1230.00,52.277
1231.00,52.278
1232.00,52.290
1233.00,52.285
1234.00,52.302
1235.00,52.282
1236.00,52.291
1237.00,52.294
1238.00,52.293
1239.00,52.306
1240.00,52.295
1241.00,52.295
1242.00,52.300
1243.00,52.302
1244.00,52.280
1245.00,52.318
1246.00,52.318
1247.00,52.308
1248.00,52.316
1249.00,52.300
1250.00,52.317
1251.00,52.317
1252.00,52.308
1253.00,52.332
1254.00,52.374
1255.00,52.321
1256.00,52.319
1257.00,52.311
1258.00,52.363
1259.00,52.357
1260.00,52.363
1261.00,52.374
1262.00,52.372
1263.00,52.362
1264.00,52.373
1265.00,52.376
1266.00,52.378
1267.00,52.423
1268.00,52.405
1269.00,52.401
1270.00,52.430
1271.00,52.421
1272.00,52.447
1273.00,52.463
1274.00,52.438
1275.00,52.452
1276.00,52.436
1277.00,52.443
1278.00,52.453
1279.00,52.464
1280.00,52.460
1281.00,52.474
1282.00,52.470
1283.00,52.455
1284.00,52.466
1285.00,52.483
1286.00,52.488
1287.00,52.479
1288.00,52.490
1289.00,52.500
1290.00,52.523
1291.00,52.515
1292.00,52.522
1293.00,52.527
1294.00,52.541
1295.00,52.555
1296.00,52.524
1297.00,52.555
1298.00,52.558
1299.00,52.546
1300.00,52.583
1301.00,52.545
1302.00,52.575
1303.00,52.578
1304.00,52.563
1305.00,52.589
1306.00,52.595
1307.00,52.608
1308.00,52.611
1309.00,52.618
1310.00,52.601
1311.00,52.590
1312.00,52.607
1313.00,52.612
1314.00,52.641
1315.00,52.656
1316.00,52.669
1317.00,52.691
1318.00,52.693
1319.00,52.683
1320.00,52.670
1321.00,52.820
1322.00,52.810
1323.00,52.793
1324.00,52.769
1325.00,52.764
1326.00,52.780
1327.00,52.775
1328.00,52.772
1329.00,52.773
1330.00,52.776
1331.00,52.788
1332.00,52.780
1333.00,52.781
1334.00,52.791
1335.00,52.823
1336.00,52.860
1337.00,52.898
1338.00,52.944
1339.00,53.009
1340.00,53.053
1341.00,53.134
1342.00,53.166
1343.00,53.207
1344.00,53.240
1345.00,53.322
1346.00,53.351
1347.00,53.385
1348.00,53.385
1349.00,53.414
1350.00,53.446
1351.00,53.460
1352.00,53.467
1353.00,53.545
1354.00,53.483
1355.00,53.429
1356.00,53.481
1357.00,53.512
1358.00,53.470
1359.00,53.526
1360.00,53.906
1361.00,53.545
1362.00,53.425
1363.00,53.581
1364.00,53.563
1365.00,53.497
1366.00,53.591
1367.00,53.489
1368.00,53.507
1369.00,53.541
1370.00,53.497
1371.00,53.516
1372.00,53.480
1373.00,53.553
1374.00,53.500
1375.00,53.508
1376.00,53.523
1377.00,53.466
1378.00,53.492
1379.00,53.534
1380.00,53.537
1381.00,53.527
1382.00,53.511
1383.00,53.566
1384.00,53.551
1385.00,53.549
1386.00,53.530
1387.00,53.485
1388.00,53.474
1389.00,53.423
1390.00,53.429
1391.00,53.520
1392.00,53.475
1393.00,53.498
1394.00,53.572
1395.00,53.510
1396.00,53.424
1397.00,53.430
1398.00,53.514
1399.00,53.504
1400.00,53.217
1401.00,53.462
1402.00,53.487
1403.00,53.493
1404.00,53.493
1405.00,53.533
1406.00,53.529
1407.00,53.505
1408.00,53.576
1409.00,53.521
1410.00,53.541
1411.00,53.502
1412.00,53.603
1413.00,53.563
1414.00,53.498
1415.00,53.547
1416.00,53.608
1417.00,53.637
1418.00,53.589
1419.00,53.622
1420.00,53.600
1421.00,53.698
1422.00,53.656
1423.00,53.656
1424.00,53.666
1425.00,53.675
1426.00,53.680
1427.00,53.721
1428.00,53.707
1429.00,53.716
1430.00,53.741
1431.00,53.756
1432.00,53.781
1433.00,53.774
1434.00,53.762
1435.00,53.815
1436.00,53.825
1437.00,53.813
1438.00,53.834
1439.00,53.873
1440.00,53.882
1441.00,53.903
1442.00,53.909
1443.00,53.932
1444.00,54.002
1445.00,53.953
1446.00,53.999
1447.00,53.999
1448.00,54.028
1449.00,54.060
1450.00,54.059
1451.00,54.056
1452.00,54.073
1453.00,54.075
1454.00,54.102
1455.00,54.105
1456.00,54.127
1457.00,54.133
1458.00,54.141
1459.00,54.169
1460.00,54.198
1461.00,54.191
1462.00,54.239
1463.00,54.246
1464.00,54.238
1465.00,54.267
1466.00,54.241
1467.00,54.277
1468.00,54.306
1469.00,54.288
1470.00,54.313
1471.00,54.359
1472.00,54.362
1473.00,54.379
1474.00,54.391
1475.00,54.388
1476.00,54.415
1477.00,54.392
1478.00,54.415
1479.00,54.449
1480.00,54.416
1481.00,54.431
1482.00,54.487
1483.00,54.485
1484.00,54.459
1485.00,54.458
1486.00,54.489
1487.00,54.530
1488.00,54.539
1489.00,54.529
1490.00,54.541
1491.00,54.551
1492.00,54.560
1493.00,54.568
1494.00,54.584
1495.00,54.574
1496.00,54.613
1497.00,54.603
1498.00,54.610
1499.00,54.611
1500.00,54.617
1501.00, 
1502.00, 
1503.00, 
1504.00, 
1505.00, 
1506.00, 
1507.00, 
1508.00, 
1509.00, 
1510.00, 
1511.00, 
1512.00, 
1513.00, 
1514.00, 
1515.00, 
1516.00, 
1517.00, 
1518.00, 
1519.00, 
1520.00, 
1521.00, 
1522.00, 
1523.00, 
1524.00, 
1525.00, 
1526.00, 
1527.00, 
1528.00, 
1529.00, 
1530.00, 
1531.00, 
1532.00, 
1533.00, 
1534.00, 
1535.00, 
1536.00, 
1537.00, 
1538.00, 
1539.00, 
1540.00, 
1541.00, 
1542.00, 
1543.00, 
1544.00, 
1545.00, 
1546.00, 
1547.00, 
1548.00, 
1549.00, 
1550.00, 
1551.00, 
1552.00, 
1553.00, 
1554.00, 
1555.00, 
1556.00, 
1557.00, 
1558.00, 
1559.00, 
1560.00, 
1561.00, 
1562.00, 
1563.00, 
1564.00, 
1565.00, 
1566.00, 
1567.00, 
1568.00, 
1569.00, 
1570.00, 
1571.00, 
1572.00, 
1573.00, 
1574.00, 
1575.00, 
1576.00, 
1577.00, 
1578.00, 
1579.00, 
1580.00, 
1581.00, 
1582.00, 
1583.00, 
1584.00, 
1585.00, 
1586.00, 
1587.00, 
1588.00, 
1589.00, 
1590.00, 
1591.00, 
1592.00, 
1593.00, 
1594.00, 
1595.00, 
1596.00, 
1597.00, 
1598.00, 
1599.00, 
1600.00, 
1601.00, 
1602.00, 
1603.00, 
1604.00, 
1605.00, 
1606.00, 
1607.00, 
1608.00, 
1609.00, 
1610.00, 
1611.00, 
1612.00, 
1613.00, 
1614.00, 
1615.00, 
1616.00, 
1617.00, 
1618.00, 
1619.00, 
1620.00, 
1621.00, 
1622.00, 
1623.00, 
1624.00, 
1625.00, 
1626.00, 
1627.00, 
1628.00, 
1629.00, 
1630.00, 
1631.00, 
1632.00, 
1633.00, 
1634.00, 
1635.00, 
1636.00, 
1637.00, 
1638.00, 
1639.00, 
1640.00, 
1641.00, 
1642.00, 
1643.00, 
1644.00, 
1645.00, 
1646.00, 
1647.00, 
1648.00, 
1649.00, 
1650.00, 
1651.00, 
1652.00, 
1653.00, 
1654.00, 
1655.00, 
1656.00, 
1657.00, 
1658.00, 
1659.00, 
1660.00, 
1661.00, 
1662.00, 
1663.00, 
1664.00, 
1665.00, 
1666.00, 
1667.00, 
1668.00, 
1669.00, 
1670.00, 
1671.00, 
1672.00, 
1673.00, 
1674.00, 
1675.00, 
1676.00, 
1677.00, 
1678.00, 
1679.00, 
1680.00, 
1681.00, 
1682.00, 
1683.00, 
1684.00, 
1685.00, 
1686.00, 
1687.00, 
1688.00, 
1689.00, 
1690.00, 
1691.00, 
1692.00, 
1693.00, 
1694.00, 
1695.00, 
1696.00, 
1697.00, 
1698.00, 
1699.00, 
1700.00, 
1701.00, 
1702.00, 
1703.00, 
1704.00, 
1705.00, 
1706.00, 
1707.00, 
1708.00, 
1709.00, 
1710.00, 
1711.00, 
1712.00, 
1713.00, 
1714.00, 
1715.00, 
1716.00, 
1717.00, 
1718.00, 
1719.00, 
1720.00, 
1721.00, 
1722.00, 
1723.00, 
1724.00, 
1725.00, 
1726.00, 
1727.00, 
1728.00, 
1729.00, 
1730.00, 
1731.00, 
1732.00, 
1733.00, 
1734.00, 
1735.00, 
1736.00, 
1737.00, 
1738.00, 
1739.00, 
1740.00, 
1741.00, 
1742.00, 
1743.00, 
1744.00, 
1745.00, 
1746.00, 
1747.00, 
1748.00, 
1749.00, 
1750.00, 
1751.00, 
1752.00, 
1753.00, 
1754.00, 
1755.00, 
1756.00, 
1757.00, 
1758.00, 
1759.00, 
1760.00, 
1761.00, 
1762.00, 
1763.00, 
1764.00, 
1765.00, 
1766.00, 
1767.00, 
1768.00, 
1769.00, 
1770.00, 
1771.00, 
1772.00, 
1773.00, 
1774.00, 
1775.00, 
1776.00, 
1777.00, 
1778.00, 
1779.00, 
1780.00, 
1781.00, 
1782.00, 
1783.00, 
1784.00, 
1785.00, 
1786.00, 
1787.00, 
1788.00, 
1789.00, 
1790.00, 
1791.00, 
1792.00, 
1793.00, 
1794.00, 
1795.00, 
1796.00, 
1797.00, 
1798.00, 
1799.00, 
1800.00, 
1801.00, 
1802.00, 
1803.00, 
1804.00, 
1805.00, 
1806.00, 
1807.00, 
1808.00, 
1809.00, 
1810.00, 
1811.00, 
1812.00, 
1813.00, 
1814.00, 
1815.00, 
1816.00, 
1817.00, 
1818.00, 
1819.00, 
1820.00, 
1821.00, 
1822.00, 
1823.00, 
1824.00, 
1825.00, 
1826.00, 
1827.00, 
1828.00, 
1829.00, 
1830.00, 
1831.00, 
1832.00, 
1833.00, 
1834.00, 
1835.00, 
1836.00, 
1837.00, 
1838.00, 
1839.00, 
1840.00, 
1841.00, 
1842.00, 
1843.00, 
1844.00, 
1845.00, 
1846.00, 
1847.00, 
1848.00, 
1849.00, 
1850.00, 
1851.00, 
1852.00, 
1853.00, 
1854.00, 
1855.00, 
1856.00, 
1857.00, 
1858.00, 
1859.00, 
1860.00, 
1861.00, 
1862.00, 
1863.00, 
1864.00, 
1865.00, 
1866.00, 
1867.00, 
1868.00, 
1869.00, 
1870.00, 
1871.00, 
1872.00, 
1873.00, 
1874.00, 
1875.00, 
1876.00, 
1877.00, 
1878.00, 
1879.00, 
1880.00, 
1881.00, 
1882.00, 
1883.00, 
1884.00, 
1885.00, 
1886.00, 
1887.00, 
1888.00, 
1889.00, 
1890.00, 
1891.00, 
1892.00, 
1893.00, 
1894.00, 
1895.00, 
1896.00, 
1897.00, 
1898.00, 
1899.00, 
1900.00, 
1901.00, 
1902.00, 
1903.00, 
1904.00, 
1905.00, 
1906.00, 
1907.00, 
1908.00, 
1909.00, 
1910.00, 
1911.00, 
1912.00, 
1913.00, 
1914.00, 
1915.00, 
1916.00, 
1917.00, 
1918.00, 
1919.00, 
1920.00, 
1921.00, 
1922.00, 
1923.00, 
1924.00, 
1925.00, 
1926.00, 
1927.00, 
1928.00, 
1929.00, 
1930.00, 
1931.00, 
1932.00, 
1933.00, 
1934.00, 
1935.00, 
1936.00, 
1937.00, 
1938.00, 
1939.00, 
1940.00, 
1941.00, 
1942.00, 
1943.00, 
1944.00, 
1945.00, 
1946.00, 
1947.00, 
1948.00, 
1949.00, 
1950.00, 
1951.00, 
1952.00, 
1953.00, 
1954.00, 
1955.00, 
1956.00, 
1957.00, 
1958.00, 
1959.00, 
1960.00, 
1961.00, 
1962.00, 
1963.00, 
1964.00, 
1965.00, 
1966.00, 
1967.00, 
1968.00, 
1969.00, 
1970.00, 
1971.00, 
1972.00, 
1973.00, 
1974.00, 
1975.00, 
1976.00, 
1977.00, 
1978.00, 
1979.00, 
1980.00, 
1981.00, 
1982.00, 
1983.00, 
1984.00, 
1985.00, 
1986.00, 
1987.00, 
1988.00, 
1989.00, 
1990.00, 
1991.00, 
1992.00, 
1993.00, 
1994.00, 
1995.00, 
1996.00, 
1997.00, 
1998.00, 
1999.00, 
2000.00, 
2001.00, 
2002.00, 
2003.00, 
2004.00, 
2005.00, 
2006.00, 
2007.00, 
2008.00, 
2009.00, 
2010.00, 
2011.00, 
2012.00, 
2013.00, 
2014.00, 
2015.00, 
2016.00, 
2017.00, 
2018.00, 
2019.00, 
2020.00, 
2021.00, 
2022.00, 
2023.00, 
2024.00, 
2025.00, 
2026.00, 
2027.00, 
2028.00, 
2029.00, 
2030.00, 
2031.00, 
2032.00, 
2033.00, 
2034.00, 
2035.00, 
2036.00, 
2037.00, 
2038.00, 
2039.00, 
2040.00, 
2041.00, 
2042.00, 
2043.00, 
2044.00, 
2045.00, 
2046.00, 
2047.00, 
2048.00, 
2049.00, 
2050.00, 
2051.00, 
2052.00, 
2053.00, 
2054.00, 
2055.00, 
2056.00, 
2057.00, 
2058.00, 
2059.00, 
2060.00, 
2061.00, 
2062.00, 
2063.00, 
2064.00, 
2065.00, 
2066.00, 
2067.00, 
2068.00, 
2069.00, 
2070.00, 
2071.00, 
2072.00, 
2073.00, 
2074.00, 
2075.00, 
2076.00, 
2077.00, 
2078.00, 
2079.00, 
2080.00, 
2081.00, 
2082.00, 
2083.00, 
2084.00, 
2085.00, 
2086.00, 
2087.00, 
2088.00, 
2089.00, 
2090.00, 
2091.00, 
2092.00, 
2093.00, 
2094.00, 
2095.00, 
2096.00, 
2097.00, 
2098.00, 
2099.00, 
2100.00, 
2101.00, 
2102.00, 
2103.00, 
2104.00, 
2105.00, 
2106.00, 
2107.00, 
2108.00, 
2109.00, 
2110.00, 
2111.00, 
2112.00, 
2113.00, 
2114.00, 
2115.00, 
2116.00, 
2117.00, 
2118.00, 
2119.00, 
2120.00, 
2121.00, 
2122.00, 
2123.00, 
2124.00, 
2125.00, 
2126.00, 
2127.00, 
2128.00, 
2129.00, 
2130.00, 
2131.00, 
2132.00, 
2133.00, 
2134.00, 
2135.00, 
2136.00, 
2137.00, 
2138.00, 
2139.00, 
2140.00, 
2141.00, 
2142.00, 
2143.00, 
2144.00, 
2145.00, 
2146.00, 
2147.00, 
2148.00, 
2149.00, 
2150.00, 
2151.00, 
2152.00, 
2153.00, 
2154.00, 
2155.00, 
2156.00, 
2157.00, 
2158.00, 
2159.00, 
2160.00, 
2161.00, 
2162.00, 
2163.00, 
2164.00, 
2165.00, 
2166.00, 
2167.00, 
2168.00, 
2169.00, 
2170.00, 
2171.00, 
2172.00, 
2173.00, 
2174.00, 
2175.00, 
2176.00, 
2177.00, 
2178.00, 
2179.00, 
2180.00, 
2181.00, 
2182.00, 
2183.00, 
2184.00, 
2185.00, 
2186.00, 
2187.00, 
2188.00, 
2189.00, 
2190.00, 
2191.00, 
2192.00, 
2193.00, 
2194.00, 
2195.00, 
2196.00, 
2197.00, 
2198.00, 
2199.00, 
2200.00, 
2201.00, 
2202.00, 
2203.00, 
2204.00, 
2205.00, 
2206.00, 
2207.00, 
2208.00, 
2209.00, 
2210.00, 
2211.00, 
2212.00, 
2213.00, 
2214.00, 
2215.00, 
2216.00, 
2217.00, 
2218.00, 
2219.00, 
2220.00, 
2221.00, 
2222.00, 
2223.00, 
2224.00, 
2225.00, 
2226.00, 
2227.00, 
2228.00, 
2229.00, 
2230.00, 
2231.00, 
2232.00, 
2233.00, 
2234.00, 
2235.00, 
2236.00, 
2237.00, 
2238.00, 
2239.00, 
2240.00, 
2241.00, 
2242.00, 
2243.00, 
2244.00, 
2245.00, 
2246.00, 
2247.00, 
2248.00, 
2249.00, 
2250.00, 
2251.00, 
2252.00, 
2253.00, 
2254.00, 
2255.00, 
2256.00, 
2257.00, 
2258.00, 
2259.00, 
2260.00, 
2261.00, 
2262.00, 
2263.00, 
2264.00, 
2265.00, 
2266.00, 
2267.00, 
2268.00, 
2269.00, 
2270.00, 
2271.00, 
2272.00, 
2273.00, 
2274.00, 
2275.00, 
2276.00, 
2277.00, 
2278.00, 
2279.00, 
2280.00, 
2281.00, 
2282.00, 
2283.00, 
2284.00, 
2285.00, 
2286.00, 
2287.00, 
2288.00, 
2289.00, 
2290.00, 
2291.00, 
2292.00, 
2293.00, 
2294.00, 
2295.00, 
2296.00, 
2297.00, 
2298.00, 
2299.00, 
2300.00, 
2301.00, 
2302.00, 
2303.00, 
2304.00, 
2305.00, 
2306.00, 
2307.00, 
2308.00, 
2309.00, 
2310.00, 
2311.00, 
2312.00, 
2313.00, 
2314.00, 
2315.00, 
2316.00, 
2317.00, 
2318.00, 
2319.00, 
2320.00, 
2321.00, 
2322.00, 
2323.00, 
2324.00, 
2325.00, 
2326.00, 
2327.00, 
2328.00, 
2329.00, 
2330.00, 
2331.00, 
2332.00, 
2333.00, 
2334.00, 
2335.00, 
2336.00, 
2337.00, 
2338.00, 
2339.00, 
2340.00, 
2341.00, 
2342.00, 
2343.00, 
2344.00, 
2345.00, 
2346.00, 
2347.00, 
2348.00, 
2349.00, 
2350.00, 
2351.00, 
2352.00, 
2353.00, 
2354.00, 
2355.00, 
2356.00, 
2357.00, 
2358.00, 
2359.00, 
2360.00, 
2361.00, 
2362.00, 
2363.00, 
2364.00, 
2365.00, 
2366.00, 
2367.00, 
2368.00, 
2369.00, 
2370.00, 
2371.00, 
2372.00, 
2373.00, 
2374.00, 
2375.00, 
2376.00, 
2377.00, 
2378.00, 
2379.00, 
2380.00, 
2381.00, 
2382.00, 
2383.00, 
2384.00, 
2385.00, 
2386.00, 
2387.00, 
2388.00, 
2389.00, 
2390.00, 
2391.00, 
2392.00, 
2393.00, 
2394.00, 
2395.00, 
2396.00, 
2397.00, 
2398.00, 
2399.00, 
2400.00, 
2401.00, 
2402.00, 
2403.00, 
2404.00, 
2405.00, 
2406.00, 
2407.00, 
2408.00, 
2409.00, 
2410.00, 
2411.00, 
2412.00, 
2413.00, 
2414.00, 
2415.00, 
2416.00, 
2417.00, 
2418.00, 
2419.00, 
2420.00, 
2421.00, 
2422.00, 
2423.00, 
2424.00, 
2425.00, 
2426.00, 
2427.00, 
2428.00, 
2429.00, 
2430.00, 
2431.00, 
2432.00, 
2433.00, 
2434.00, 
2435.00, 
2436.00, 
2437.00, 
2438.00, 
2439.00, 
2440.00, 
2441.00, 
2442.00, 
2443.00, 
2444.00, 
2445.00, 
2446.00, 
2447.00, 
2448.00, 
2449.00, 
2450.00, 
2451.00, 
2452.00, 
2453.00, 
2454.00, 
2455.00, 
2456.00, 
2457.00, 
2458.00, 
2459.00, 
2460.00, 
2461.00, 
2462.00, 
2463.00, 
2464.00, 
2465.00, 
2466.00, 
2467.00, 
2468.00, 
2469.00, 
2470.00, 
2471.00, 
2472.00, 
2473.00, 
2474.00, 
2475.00, 
2476.00, 
2477.00, 
2478.00, 
2479.00, 
2480.00, 
2481.00, 
2482.00, 
2483.00, 
2484.00, 
2485.00, 
2486.00, 
2487.00, 
2488.00, 
2489.00, 
2490.00, 
2491.00, 
2492.00, 
2493.00, 
2494.00, 
2495.00, 
2496.00, 
2497.00, 
2498.00, 
2499.00, 
2500.00, 
2501.00, 
2502.00, 
2503.00, 
2504.00, 
2505.00, 
2506.00, 
2507.00, 
2508.00, 
2509.00, 
2510.00, 
2511.00, 
2512.00, 
2513.00, 
2514.00, 
2515.00, 
2516.00, 
2517.00, 
2518.00, 
2519.00, 
2520.00, 
2521.00, 
2522.00, 
2523.00, 
2524.00, 
2525.00, 
2526.00, 
2527.00, 
2528.00, 
2529.00, 
2530.00, 
2531.00, 
2532.00, 
2533.00, 
2534.00, 
2535.00, 
2536.00, 
2537.00, 
2538.00, 
2539.00, 
2540.00, 
2541.00, 
2542.00, 
2543.00, 
2544.00, 
2545.00, 
2546.00, 
2547.00, 
2548.00, 
2549.00, 
2550.00, 
2551.00, 
2552.00, 
2553.00, 
2554.00, 
2555.00, 
2556.00, 
2557.00, 
2558.00, 
2559.00, 
2560.00, 
2561.00, 
2562.00, 
2563.00, 
2564.00, 
2565.00, 
2566.00, 
2567.00, 
2568.00, 
2569.00, 
2570.00, 
2571.00, 
2572.00, 
2573.00, 
2574.00, 
2575.00, 
2576.00, 
2577.00, 
2578.00, 
2579.00, 
2580.00, 
2581.00, 
2582.00, 
2583.00, 
2584.00, 
2585.00, 
2586.00, 
2587.00, 
2588.00, 
2589.00, 
2590.00, 
2591.00, 
2592.00, 
2593.00, 
2594.00, 
2595.00, 
2596.00, 
2597.00, 
2598.00, 
2599.00, 
2600.00, 
