"2bP2 - RawData"
"Wavelength nm.","T%"
200.00,0.001
201.00,-0.000
202.00,0.001
203.00,-0.001
204.00,0.002
205.00,0.001
206.00,0.000
207.00,0.001
208.00,0.000
209.00,0.002
210.00,-0.001
211.00,-0.000
212.00,0.001
213.00,0.002
214.00,0.001
215.00,-0.000
216.00,0.002
217.00,0.005
218.00,0.001
219.00,0.002
220.00,0.002
221.00,0.000
222.00,-0.001
223.00,-0.000
224.00,0.002
225.00,0.002
226.00,-0.000
227.00,-0.001
228.00,-0.001
229.00,-0.003
230.00,0.004
231.00,-0.001
232.00,-0.001
233.00,0.001
234.00,-0.001
235.00,0.002
236.00,0.000
237.00,0.000
238.00,-0.002
239.00,-0.001
240.00,0.000
241.00,-0.001
242.00,-0.001
243.00,0.001
244.00,0.001
245.00,0.001
246.00,0.001
247.00,0.000
248.00,-0.001
249.00,0.002
250.00,-0.000
251.00,-0.001
252.00,0.000
253.00,0.001
254.00,0.002
255.00,-0.001
256.00,-0.001
257.00,-0.000
258.00,-0.001
259.00,0.001
260.00,0.002
261.00,0.002
262.00,0.001
263.00,-0.002
264.00,0.000
265.00,0.002
266.00,-0.001
267.00,0.002
268.00,0.003
269.00,-0.000
270.00,-0.000
271.00,-0.001
272.00,-0.001
273.00,-0.001
274.00,-0.000
275.00,0.001
276.00,0.002
277.00,0.001
278.00,0.001
279.00,0.000
280.00,-0.000
281.00,0.001
282.00,0.001
283.00,0.001
284.00,0.001
285.00,-0.000
286.00,-0.000
287.00,0.002
288.00,-0.000
289.00,0.001
290.00,-0.001
291.00,-0.001
292.00,0.000
293.00,-0.003
294.00,0.001
295.00,-0.001
296.00,-0.000
297.00,0.001
298.00,-0.000
299.00,0.003
300.00,0.001
301.00,0.003
302.00,0.006
303.00,0.011
304.00,0.014
305.00,0.023
306.00,0.035
307.00,0.054
308.00,0.079
309.00,0.123
310.00,0.169
311.00,0.222
312.00,0.308
313.00,0.401
314.00,0.540
315.00,0.710
316.00,0.883
317.00,1.118
318.00,1.361
319.00,1.658
320.00,2.016
321.00,2.396
322.00,2.822
323.00,3.306
324.00,3.816
325.00,4.339
326.00,4.841
327.00,5.469
328.00,6.085
329.00,6.711
330.00,7.389
331.00,8.020
332.00,8.708
333.00,9.415
334.00,10.078
335.00,10.748
336.00,11.474
337.00,12.135
338.00,12.796
339.00,13.305
340.00,14.020
341.00,14.629
342.00,15.237
343.00,15.759
344.00,16.275
345.00,16.811
346.00,17.292
347.00,17.730
348.00,18.146
349.00,18.563
350.00,18.936
351.00,19.272
352.00,19.610
353.00,19.883
354.00,20.169
355.00,20.470
356.00,20.705
357.00,20.931
358.00,21.159
359.00,21.387
360.00,21.579
361.00,21.678
362.00,21.859
363.00,22.027
364.00,22.092
365.00,22.195
366.00,22.272
367.00,22.363
368.00,22.412
369.00,22.478
370.00,22.534
371.00,22.533
372.00,22.537
373.00,22.554
374.00,22.549
375.00,22.539
376.00,22.484
377.00,22.464
378.00,22.370
379.00,22.324
380.00,22.280
381.00,22.248
382.00,22.243
383.00,22.253
384.00,22.310
385.00,22.295
386.00,22.334
387.00,22.415
388.00,22.391
389.00,22.418
390.00,22.454
391.00,22.480
392.00,22.498
393.00,22.552
394.00,22.474
395.00,22.483
396.00,22.528
397.00,22.527
398.00,22.444
399.00,22.460
400.00,22.479
401.00,22.468
402.00,22.518
403.00,22.490
404.00,22.473
405.00,22.459
406.00,22.427
407.00,22.408
408.00,22.395
409.00,22.351
410.00,22.321
411.00,22.310
412.00,22.304
413.00,22.295
414.00,22.255
415.00,22.271
416.00,22.325
417.00,22.303
418.00,22.353
419.00,22.391
420.00,22.450
421.00,22.500
422.00,22.463
423.00,22.530
424.00,22.547
425.00,22.594
426.00,22.656
427.00,22.699
428.00,22.723
429.00,22.719
430.00,22.838
431.00,22.874
432.00,22.864
433.00,22.965
434.00,22.992
435.00,23.111
436.00,23.152
437.00,23.229
438.00,23.276
439.00,23.368
440.00,23.446
441.00,23.496
442.00,23.585
443.00,23.669
444.00,23.754
445.00,23.847
446.00,23.932
447.00,24.071
448.00,24.141
449.00,24.262
450.00,24.363
451.00,24.434
452.00,24.552
453.00,24.669
454.00,24.745
455.00,24.860
456.00,24.982
457.00,25.081
458.00,25.212
459.00,25.349
460.00,25.476
461.00,25.594
462.00,25.708
463.00,25.838
464.00,25.942
465.00,26.092
466.00,26.244
467.00,26.386
468.00,26.442
469.00,26.568
470.00,26.689
471.00,26.767
472.00,26.903
473.00,26.996
474.00,27.136
475.00,27.230
476.00,27.349
477.00,27.433
478.00,27.558
479.00,27.731
480.00,27.893
481.00,28.012
482.00,28.175
483.00,28.316
484.00,28.488
485.00,28.608
486.00,28.783
487.00,28.911
488.00,29.041
489.00,29.214
490.00,29.387
491.00,29.536
492.00,29.763
493.00,29.903
494.00,29.890
495.00,30.034
496.00,30.165
497.00,30.262
498.00,30.412
499.00,30.558
500.00,30.710
501.00,30.836
502.00,30.942
503.00,31.061
504.00,31.047
505.00,31.260
506.00,31.452
507.00,31.519
508.00,31.640
509.00,31.807
510.00,31.952
511.00,32.023
512.00,32.197
513.00,32.344
514.00,32.425
515.00,32.580
516.00,32.664
517.00,32.745
518.00,32.915
519.00,32.904
520.00,33.008
521.00,33.171
522.00,33.236
523.00,33.273
524.00,33.375
525.00,33.479
526.00,33.626
527.00,33.682
528.00,33.739
529.00,33.909
530.00,34.053
531.00,34.162
532.00,34.220
533.00,34.330
534.00,34.417
535.00,34.527
536.00,34.613
537.00,34.718
538.00,34.745
539.00,34.795
540.00,34.891
541.00,34.950
542.00,34.985
543.00,35.058
544.00,35.137
545.00,35.207
546.00,35.279
547.00,35.371
548.00,35.450
549.00,35.488
550.00,35.600
551.00,35.681
552.00,35.725
553.00,35.806
554.00,35.859
555.00,35.846
556.00,35.960
557.00,36.027
558.00,36.094
559.00,36.136
560.00,36.220
561.00,36.298
562.00,36.327
563.00,36.306
564.00,36.432
565.00,36.405
566.00,36.490
567.00,36.500
568.00,36.594
569.00,36.611
570.00,36.639
571.00,36.716
572.00,36.737
573.00,36.730
574.00,36.793
575.00,36.808
576.00,36.840
577.00,36.879
578.00,36.958
579.00,37.050
580.00,37.036
581.00,37.179
582.00,37.271
583.00,37.292
584.00,37.390
585.00,37.453
586.00,37.501
587.00,37.599
588.00,37.604
589.00,37.564
590.00,37.613
591.00,37.724
592.00,37.715
593.00,37.818
594.00,37.744
595.00,37.900
596.00,38.054
597.00,38.193
598.00,38.122
599.00,38.085
600.00,38.168
601.00,38.220
602.00,38.201
603.00,38.227
604.00,38.311
605.00,38.350
606.00,38.352
607.00,38.395
608.00,38.580
609.00,38.673
610.00,38.531
611.00,38.620
612.00,38.652
613.00,38.655
614.00,38.760
615.00,38.834
616.00,38.911
617.00,38.939
618.00,38.923
619.00,39.031
620.00,39.078
621.00,39.131
622.00,39.183
623.00,39.257
624.00,39.343
625.00,39.432
626.00,39.439
627.00,39.512
628.00,39.522
629.00,39.622
630.00,39.679
631.00,39.677
632.00,39.876
633.00,39.925
634.00,39.980
635.00,40.069
636.00,40.133
637.00,40.133
638.00,40.184
639.00,40.355
640.00,40.355
641.00,40.369
642.00,40.507
643.00,40.627
644.00,40.612
645.00,40.672
646.00,40.851
647.00,40.866
648.00,41.006
649.00,40.983
650.00,41.011
651.00,41.129
652.00,41.281
653.00,41.350
654.00,41.417
655.00,41.559
656.00,41.805
657.00,41.700
658.00,41.787
659.00,41.920
660.00,41.837
661.00,41.866
662.00,42.012
663.00,42.234
664.00,42.667
665.00,42.649
666.00,42.513
667.00,42.600
668.00,42.686
669.00,42.971
670.00,43.097
671.00,43.088
672.00,43.113
673.00,43.228
674.00,43.282
675.00,43.366
676.00,43.606
677.00,43.705
678.00,43.535
679.00,43.726
680.00,43.830
681.00,44.097
682.00,44.052
683.00,44.120
684.00,44.338
685.00,44.358
686.00,44.300
687.00,44.414
688.00,44.513
689.00,44.509
690.00,44.712
691.00,45.061
692.00,44.816
693.00,44.907
694.00,45.061
695.00,45.281
696.00,45.388
697.00,45.202
698.00,45.316
699.00,45.650
700.00,45.653
701.00,45.662
702.00,45.713
703.00,45.884
704.00,45.942
705.00,45.947
706.00,46.032
707.00,45.978
708.00,46.100
709.00,46.561
710.00,46.782
711.00,46.487
712.00,46.558
713.00,46.657
714.00,46.804
715.00,46.720
716.00,46.763
717.00,46.933
718.00,47.040
719.00,47.055
720.00,47.067
721.00,51.550
722.00,51.544
723.00,51.557
724.00,51.619
725.00,51.638
726.00,51.648
727.00,51.719
728.00,51.749
729.00,51.695
730.00,51.842
731.00,51.802
732.00,51.792
733.00,51.903
734.00,51.929
735.00,52.037
736.00,52.046
737.00,52.040
738.00,52.113
739.00,52.161
740.00,52.089
741.00,52.224
742.00,52.276
743.00,52.179
744.00,52.304
745.00,52.259
746.00,52.334
747.00,52.330
748.00,52.263
749.00,52.294
750.00,52.274
751.00,52.281
752.00,52.318
753.00,52.320
754.00,52.269
755.00,52.383
756.00,52.373
757.00,52.409
758.00,52.397
759.00,52.426
760.00,52.391
761.00,52.426
762.00,52.437
763.00,52.444
764.00,52.460
765.00,52.428
766.00,52.454
767.00,52.480
768.00,52.539
769.00,52.544
770.00,52.613
771.00,52.584
772.00,52.578
773.00,52.597
774.00,52.581
775.00,52.621
776.00,52.630
777.00,52.624
778.00,52.579
779.00,52.660
780.00,52.667
781.00,52.714
782.00,52.676
783.00,52.637
784.00,52.698
785.00,52.541
786.00,52.703
787.00,52.712
788.00,52.629
789.00,52.607
790.00,52.605
791.00,52.689
792.00,52.622
793.00,52.596
794.00,52.612
795.00,52.588
796.00,52.657
797.00,52.585
798.00,52.581
799.00,52.565
800.00,52.548
801.00,52.509
802.00,52.580
803.00,52.479
804.00,52.468
805.00,52.516
806.00,52.408
807.00,52.424
808.00,52.477
809.00,52.502
810.00,52.404
811.00,52.380
812.00,52.546
813.00,52.420
814.00,52.456
815.00,52.420
816.00,52.488
817.00,52.411
818.00,52.302
819.00,52.313
820.00,52.310
821.00,52.348
822.00,52.279
823.00,52.318
824.00,52.244
825.00,52.285
826.00,52.189
827.00,52.341
828.00,52.314
829.00,52.242
830.00,52.250
831.00,54.700
832.00,54.679
833.00,54.588
834.00,54.648
835.00,54.590
836.00,54.617
837.00,54.553
838.00,54.554
839.00,54.563
840.00,54.495
841.00,54.569
842.00,54.490
843.00,54.526
844.00,54.523
845.00,54.434
846.00,54.469
847.00,54.394
848.00,54.294
849.00,54.375
850.00,54.368
851.00,54.291
852.00,54.292
853.00,54.384
854.00,54.230
855.00,54.182
856.00,54.196
857.00,54.177
858.00,54.096
859.00,54.114
860.00,54.111
861.00,54.098
862.00,54.038
863.00,54.094
864.00,54.007
865.00,54.067
866.00,54.014
867.00,54.013
868.00,54.007
869.00,53.976
870.00,54.000
871.00,53.978
872.00,53.954
873.00,53.918
874.00,53.979
875.00,53.906
876.00,53.938
877.00,53.899
878.00,53.919
879.00,53.879
880.00,53.885
881.00,53.861
882.00,53.865
883.00,53.820
884.00,53.792
885.00,53.783
886.00,53.787
887.00,53.754
888.00,53.760
889.00,53.743
890.00,53.744
891.00,53.689
892.00,53.647
893.00,53.617
894.00,53.650
895.00,53.609
896.00,53.593
897.00,53.579
898.00,53.544
899.00,53.553
900.00,53.502
901.00,53.522
902.00,53.537
903.00,53.481
904.00,53.494
905.00,53.471
906.00,53.488
907.00,53.418
908.00,53.402
909.00,53.401
910.00,53.369
911.00,53.326
912.00,53.363
913.00,53.293
914.00,53.284
915.00,53.266
916.00,53.234
917.00,53.215
918.00,53.224
919.00,53.187
920.00,53.146
921.00,53.154
922.00,53.141
923.00,53.111
924.00,53.090
925.00,53.098
926.00,53.093
927.00,53.065
928.00,53.009
929.00,53.042
930.00,53.010
931.00,53.002
932.00,52.938
933.00,52.966
934.00,52.937
935.00,52.931
936.00,52.903
937.00,52.858
938.00,52.986
939.00,52.864
940.00,52.826
941.00,52.825
942.00,52.801
943.00,52.780
944.00,52.730
945.00,52.759
946.00,52.755
947.00,52.684
948.00,52.678
949.00,52.667
950.00,52.657
951.00,52.646
952.00,52.621
953.00,52.570
954.00,52.613
955.00,52.514
956.00,52.527
957.00,52.473
958.00,52.475
959.00,52.422
960.00,52.435
961.00,52.412
962.00,52.418
963.00,52.374
964.00,52.374
965.00,52.374
966.00,52.335
967.00,52.348
968.00,52.305
969.00,52.344
970.00,52.315
971.00,52.335
972.00,52.276
973.00,52.324
974.00,52.326
975.00,52.299
976.00,52.326
977.00,52.310
978.00,52.363
979.00,52.293
980.00,52.311
981.00,52.333
982.00,52.294
983.00,52.325
984.00,52.289
985.00,52.308
986.00,52.253
987.00,52.294
988.00,52.250
989.00,52.240
990.00,52.244
991.00,52.205
992.00,52.235
993.00,52.198
994.00,52.190
995.00,52.167
996.00,52.155
997.00,52.153
998.00,52.129
999.00,52.142
1000.00,52.093
1001.00,52.113
1002.00,52.095
1003.00,52.097
1004.00,52.089
1005.00,52.043
1006.00,52.086
1007.00,52.030
1008.00,52.030
1009.00,51.996
1010.00,51.977
1011.00,51.985
1012.00,51.971
1013.00,51.953
1014.00,51.923
1015.00,51.969
1016.00,51.892
1017.00,51.895
1018.00,51.892
1019.00,51.845
1020.00,51.855
1021.00,51.812
1022.00,51.831
1023.00,51.789
1024.00,51.778
1025.00,51.767
1026.00,51.765
1027.00,51.742
1028.00,51.729
1029.00,51.721
1030.00,51.700
1031.00,51.706
1032.00,51.665
1033.00,51.668
1034.00,51.641
1035.00,51.591
1036.00,51.565
1037.00,51.550
1038.00,51.533
1039.00,51.498
1040.00,51.479
1041.00,51.444
1042.00,51.437
1043.00,51.425
1044.00,51.468
1045.00,51.461
1046.00,51.429
1047.00,51.460
1048.00,51.487
1049.00,51.484
1050.00,51.482
1051.00,51.515
1052.00,51.502
1053.00,51.511
1054.00,51.497
1055.00,51.538
1056.00,51.555
1057.00,51.531
1058.00,51.519
1059.00,51.529
1060.00,51.534
1061.00,51.516
1062.00,51.508
1063.00,51.506
1064.00,51.514
1065.00,51.491
1066.00,51.479
1067.00,51.493
1068.00,51.494
1069.00,51.462
1070.00,51.460
1071.00,51.424
1072.00,51.447
1073.00,51.433
1074.00,51.419
1075.00,51.414
1076.00,51.427
1077.00,51.398
1078.00,51.381
1079.00,51.369
1080.00,51.367
1081.00,51.357
1082.00,51.346
1083.00,51.347
1084.00,51.332
1085.00,51.334
1086.00,51.321
1087.00,51.312
1088.00,51.311
1089.00,51.298
1090.00,51.287
1091.00,51.318
1092.00,51.288
1093.00,51.263
1094.00,51.251
1095.00,51.250
1096.00,51.209
1097.00,51.213
1098.00,51.194
1099.00,51.187
1100.00,51.182
1101.00,51.163
1102.00,51.162
1103.00,51.171
1104.00,51.156
1105.00,51.150
1106.00,51.134
1107.00,51.141
1108.00,51.126
1109.00,51.119
1110.00,51.108
1111.00,51.097
1112.00,51.073
1113.00,51.076
1114.00,51.070
1115.00,51.061
1116.00,51.054
1117.00,51.025
1118.00,51.015
1119.00,51.014
1120.00,51.014
1121.00,51.036
1122.00,51.014
1123.00,51.002
1124.00,50.991
1125.00,51.006
1126.00,50.981
1127.00,50.979
1128.00,50.963
1129.00,50.945
1130.00,50.932
1131.00,50.935
1132.00,50.929
1133.00,50.911
1134.00,50.920
1135.00,50.899
1136.00,50.929
1137.00,50.936
1138.00,50.908
1139.00,50.925
1140.00,50.919
1141.00,50.897
1142.00,50.911
1143.00,50.908
1144.00,50.866
1145.00,50.861
1146.00,50.865
1147.00,50.862
1148.00,50.848
1149.00,50.864
1150.00,50.853
1151.00,50.858
1152.00,50.844
1153.00,50.836
1154.00,50.836
1155.00,50.849
1156.00,50.825
1157.00,50.827
1158.00,50.837
1159.00,50.823
1160.00,50.809
1161.00,50.816
1162.00,50.799
1163.00,50.799
1164.00,50.803
1165.00,50.805
1166.00,50.813
1167.00,50.785
1168.00,50.809
1169.00,50.805
1170.00,50.807
1171.00,50.781
1172.00,50.791
1173.00,50.776
1174.00,50.780
1175.00,50.783
1176.00,50.777
1177.00,50.770
1178.00,50.754
1179.00,50.770
1180.00,50.767
1181.00,50.773
1182.00,50.770
1183.00,50.776
1184.00,50.778
1185.00,50.757
1186.00,50.746
1187.00,50.745
1188.00,50.746
1189.00,50.752
1190.00,50.749
1191.00,50.748
1192.00,50.765
1193.00,50.750
1194.00,50.747
1195.00,50.718
1196.00,50.757
1197.00,50.745
1198.00,50.745
1199.00,50.758
1200.00,50.731
1201.00,50.762
1202.00,50.745
1203.00,50.746
1204.00,50.727
1205.00,50.744
1206.00,50.727
1207.00,50.741
1208.00,50.717
1209.00,50.722
1210.00,50.731
1211.00,50.727
1212.00,50.746
1213.00,50.716
1214.00,50.723
1215.00,50.718
1216.00,50.717
1217.00,50.730
1218.00,50.727
1219.00,50.732
1220.00,50.710
1221.00,50.726
1222.00,50.702
1223.00,50.719
1224.00,50.723
1225.00,50.700
1226.00,50.713
1227.00,50.694
1228.00,50.705
1229.00,50.714
1230.00,50.736
1231.00,50.735
1232.00,50.763
1233.00,50.743
1234.00,50.752
1235.00,50.764
1236.00,50.749
1237.00,50.758
1238.00,50.764
1239.00,50.765
1240.00,50.755
1241.00,50.754
1242.00,50.754
1243.00,50.775
1244.00,50.738
1245.00,50.781
1246.00,50.796
1247.00,50.768
1248.00,50.766
1249.00,50.775
1250.00,50.791
1251.00,50.767
1252.00,50.767
1253.00,50.764
1254.00,50.801
1255.00,50.777
1256.00,50.761
1257.00,50.767
1258.00,50.809
1259.00,50.802
1260.00,50.824
1261.00,50.823
1262.00,50.809
1263.00,50.811
1264.00,50.817
1265.00,50.831
1266.00,50.811
1267.00,50.838
1268.00,50.843
1269.00,50.845
1270.00,50.865
1271.00,50.871
1272.00,50.864
1273.00,50.876
1274.00,50.869
1275.00,50.877
1276.00,50.879
1277.00,50.864
1278.00,50.885
1279.00,50.887
1280.00,50.877
1281.00,50.896
1282.00,50.898
1283.00,50.900
1284.00,50.895
1285.00,50.886
1286.00,50.898
1287.00,50.911
1288.00,50.900
1289.00,50.901
1290.00,50.948
1291.00,50.935
1292.00,50.932
1293.00,50.933
1294.00,50.953
1295.00,50.947
1296.00,50.940
1297.00,50.959
1298.00,50.975
1299.00,50.940
1300.00,50.948
1301.00,50.960
1302.00,50.962
1303.00,50.962
1304.00,50.954
1305.00,50.970
1306.00,50.981
1307.00,50.994
1308.00,50.997
1309.00,51.001
1310.00,50.987
1311.00,50.984
1312.00,50.989
1313.00,51.001
1314.00,51.017
1315.00,51.036
1316.00,51.022
1317.00,51.053
1318.00,51.056
1319.00,51.047
1320.00,51.061
1321.00,51.206
1322.00,51.210
1323.00,51.213
1324.00,51.184
1325.00,51.181
1326.00,51.223
1327.00,51.195
1328.00,51.192
1329.00,51.202
1330.00,51.196
1331.00,51.182
1332.00,51.169
1333.00,51.189
1334.00,51.255
1335.00,51.217
1336.00,51.268
1337.00,51.305
1338.00,51.358
1339.00,51.401
1340.00,51.476
1341.00,51.511
1342.00,51.578
1343.00,51.628
1344.00,51.667
1345.00,51.737
1346.00,51.773
1347.00,51.792
1348.00,51.826
1349.00,51.835
1350.00,51.860
1351.00,51.874
1352.00,51.871
1353.00,51.950
1354.00,51.907
1355.00,51.852
1356.00,51.942
1357.00,51.909
1358.00,51.898
1359.00,51.940
1360.00,51.864
1361.00,51.984
1362.00,51.897
1363.00,51.959
1364.00,52.031
1365.00,51.952
1366.00,52.143
1367.00,51.880
1368.00,51.904
1369.00,51.917
1370.00,51.888
1371.00,51.838
1372.00,51.883
1373.00,51.912
1374.00,51.916
1375.00,51.881
1376.00,51.885
1377.00,51.877
1378.00,51.939
1379.00,51.907
1380.00,51.865
1381.00,51.904
1382.00,51.849
1383.00,51.900
1384.00,51.947
1385.00,51.933
1386.00,51.907
1387.00,51.869
1388.00,51.837
1389.00,51.824
1390.00,51.886
1391.00,51.860
1392.00,51.866
1393.00,51.892
1394.00,51.899
1395.00,51.868
1396.00,51.810
1397.00,51.812
1398.00,51.874
1399.00,51.916
1400.00,51.811
1401.00,51.849
1402.00,51.886
1403.00,51.870
1404.00,51.880
1405.00,51.932
1406.00,51.929
1407.00,51.917
1408.00,51.936
1409.00,51.927
1410.00,51.927
1411.00,51.981
1412.00,52.107
1413.00,51.919
1414.00,51.914
1415.00,51.948
1416.00,51.980
1417.00,52.012
1418.00,51.951
1419.00,51.973
1420.00,51.985
1421.00,52.020
1422.00,52.035
1423.00,52.035
1424.00,52.036
1425.00,52.057
1426.00,52.059
1427.00,52.104
1428.00,52.091
1429.00,52.088
1430.00,52.117
1431.00,52.115
1432.00,52.143
1433.00,52.176
1434.00,52.159
1435.00,52.205
1436.00,52.212
1437.00,52.180
1438.00,52.206
1439.00,52.248
1440.00,52.247
1441.00,52.254
1442.00,52.277
1443.00,52.250
1444.00,52.357
1445.00,52.303
1446.00,52.313
1447.00,52.366
1448.00,52.376
1449.00,52.389
1450.00,52.407
1451.00,52.395
1452.00,52.422
1453.00,52.422
1454.00,52.454
1455.00,52.478
1456.00,52.492
1457.00,52.489
1458.00,52.524
1459.00,52.524
1460.00,52.553
1461.00,52.548
1462.00,52.581
1463.00,52.583
1464.00,52.584
1465.00,52.593
1466.00,52.604
1467.00,52.636
1468.00,52.664
1469.00,52.661
1470.00,52.662
1471.00,52.693
1472.00,52.703
1473.00,52.709
1474.00,52.728
1475.00,52.709
1476.00,52.741
1477.00,52.735
1478.00,52.748
1479.00,52.791
1480.00,52.790
1481.00,52.798
1482.00,52.840
1483.00,52.839
1484.00,52.853
1485.00,52.840
1486.00,52.851
1487.00,52.880
1488.00,52.899
1489.00,52.889
1490.00,52.904
1491.00,52.923
1492.00,52.949
1493.00,52.932
1494.00,52.970
1495.00,52.954
1496.00,52.978
1497.00,52.960
1498.00,52.978
1499.00,53.006
1500.00,53.014
1501.00, 
1502.00, 
1503.00, 
1504.00, 
1505.00, 
1506.00, 
1507.00, 
1508.00, 
1509.00, 
1510.00, 
1511.00, 
1512.00, 
1513.00, 
1514.00, 
1515.00, 
1516.00, 
1517.00, 
1518.00, 
1519.00, 
1520.00, 
1521.00, 
1522.00, 
1523.00, 
1524.00, 
1525.00, 
1526.00, 
1527.00, 
1528.00, 
1529.00, 
1530.00, 
1531.00, 
1532.00, 
1533.00, 
1534.00, 
1535.00, 
1536.00, 
1537.00, 
1538.00, 
1539.00, 
1540.00, 
1541.00, 
1542.00, 
1543.00, 
1544.00, 
1545.00, 
1546.00, 
1547.00, 
1548.00, 
1549.00, 
1550.00, 
1551.00, 
1552.00, 
1553.00, 
1554.00, 
1555.00, 
1556.00, 
1557.00, 
1558.00, 
1559.00, 
1560.00, 
1561.00, 
1562.00, 
1563.00, 
1564.00, 
1565.00, 
1566.00, 
1567.00, 
1568.00, 
1569.00, 
1570.00, 
1571.00, 
1572.00, 
1573.00, 
1574.00, 
1575.00, 
1576.00, 
1577.00, 
1578.00, 
1579.00, 
1580.00, 
1581.00, 
1582.00, 
1583.00, 
1584.00, 
1585.00, 
1586.00, 
1587.00, 
1588.00, 
1589.00, 
1590.00, 
1591.00, 
1592.00, 
1593.00, 
1594.00, 
1595.00, 
1596.00, 
1597.00, 
1598.00, 
1599.00, 
1600.00, 
1601.00, 
1602.00, 
1603.00, 
1604.00, 
1605.00, 
1606.00, 
1607.00, 
1608.00, 
1609.00, 
1610.00, 
1611.00, 
1612.00, 
1613.00, 
1614.00, 
1615.00, 
1616.00, 
1617.00, 
1618.00, 
1619.00, 
1620.00, 
1621.00, 
1622.00, 
1623.00, 
1624.00, 
1625.00, 
1626.00, 
1627.00, 
1628.00, 
1629.00, 
1630.00, 
1631.00, 
1632.00, 
1633.00, 
1634.00, 
1635.00, 
1636.00, 
1637.00, 
1638.00, 
1639.00, 
1640.00, 
1641.00, 
1642.00, 
1643.00, 
1644.00, 
1645.00, 
1646.00, 
1647.00, 
1648.00, 
1649.00, 
1650.00, 
1651.00, 
1652.00, 
1653.00, 
1654.00, 
1655.00, 
1656.00, 
1657.00, 
1658.00, 
1659.00, 
1660.00, 
1661.00, 
1662.00, 
1663.00, 
1664.00, 
1665.00, 
1666.00, 
1667.00, 
1668.00, 
1669.00, 
1670.00, 
1671.00, 
1672.00, 
1673.00, 
1674.00, 
1675.00, 
1676.00, 
1677.00, 
1678.00, 
1679.00, 
1680.00, 
1681.00, 
1682.00, 
1683.00, 
1684.00, 
1685.00, 
1686.00, 
1687.00, 
1688.00, 
1689.00, 
1690.00, 
1691.00, 
1692.00, 
1693.00, 
1694.00, 
1695.00, 
1696.00, 
1697.00, 
1698.00, 
1699.00, 
1700.00, 
1701.00, 
1702.00, 
1703.00, 
1704.00, 
1705.00, 
1706.00, 
1707.00, 
1708.00, 
1709.00, 
1710.00, 
1711.00, 
1712.00, 
1713.00, 
1714.00, 
1715.00, 
1716.00, 
1717.00, 
1718.00, 
1719.00, 
1720.00, 
1721.00, 
1722.00, 
1723.00, 
1724.00, 
1725.00, 
1726.00, 
1727.00, 
1728.00, 
1729.00, 
1730.00, 
1731.00, 
1732.00, 
1733.00, 
1734.00, 
1735.00, 
1736.00, 
1737.00, 
1738.00, 
1739.00, 
1740.00, 
1741.00, 
1742.00, 
1743.00, 
1744.00, 
1745.00, 
1746.00, 
1747.00, 
1748.00, 
1749.00, 
1750.00, 
1751.00, 
1752.00, 
1753.00, 
1754.00, 
1755.00, 
1756.00, 
1757.00, 
1758.00, 
1759.00, 
1760.00, 
1761.00, 
1762.00, 
1763.00, 
1764.00, 
1765.00, 
1766.00, 
1767.00, 
1768.00, 
1769.00, 
1770.00, 
1771.00, 
1772.00, 
1773.00, 
1774.00, 
1775.00, 
1776.00, 
1777.00, 
1778.00, 
1779.00, 
1780.00, 
1781.00, 
1782.00, 
1783.00, 
1784.00, 
1785.00, 
1786.00, 
1787.00, 
1788.00, 
1789.00, 
1790.00, 
1791.00, 
1792.00, 
1793.00, 
1794.00, 
1795.00, 
1796.00, 
1797.00, 
1798.00, 
1799.00, 
1800.00, 
1801.00, 
1802.00, 
1803.00, 
1804.00, 
1805.00, 
1806.00, 
1807.00, 
1808.00, 
1809.00, 
1810.00, 
1811.00, 
1812.00, 
1813.00, 
1814.00, 
1815.00, 
1816.00, 
1817.00, 
1818.00, 
1819.00, 
1820.00, 
1821.00, 
1822.00, 
1823.00, 
1824.00, 
1825.00, 
1826.00, 
1827.00, 
1828.00, 
1829.00, 
1830.00, 
1831.00, 
1832.00, 
1833.00, 
1834.00, 
1835.00, 
1836.00, 
1837.00, 
1838.00, 
1839.00, 
1840.00, 
1841.00, 
1842.00, 
1843.00, 
1844.00, 
1845.00, 
1846.00, 
1847.00, 
1848.00, 
1849.00, 
1850.00, 
1851.00, 
1852.00, 
1853.00, 
1854.00, 
1855.00, 
1856.00, 
1857.00, 
1858.00, 
1859.00, 
1860.00, 
1861.00, 
1862.00, 
1863.00, 
1864.00, 
1865.00, 
1866.00, 
1867.00, 
1868.00, 
1869.00, 
1870.00, 
1871.00, 
1872.00, 
1873.00, 
1874.00, 
1875.00, 
1876.00, 
1877.00, 
1878.00, 
1879.00, 
1880.00, 
1881.00, 
1882.00, 
1883.00, 
1884.00, 
1885.00, 
1886.00, 
1887.00, 
1888.00, 
1889.00, 
1890.00, 
1891.00, 
1892.00, 
1893.00, 
1894.00, 
1895.00, 
1896.00, 
1897.00, 
1898.00, 
1899.00, 
1900.00, 
1901.00, 
1902.00, 
1903.00, 
1904.00, 
1905.00, 
1906.00, 
1907.00, 
1908.00, 
1909.00, 
1910.00, 
1911.00, 
1912.00, 
1913.00, 
1914.00, 
1915.00, 
1916.00, 
1917.00, 
1918.00, 
1919.00, 
1920.00, 
1921.00, 
1922.00, 
1923.00, 
1924.00, 
1925.00, 
1926.00, 
1927.00, 
1928.00, 
1929.00, 
1930.00, 
1931.00, 
1932.00, 
1933.00, 
1934.00, 
1935.00, 
1936.00, 
1937.00, 
1938.00, 
1939.00, 
1940.00, 
1941.00, 
1942.00, 
1943.00, 
1944.00, 
1945.00, 
1946.00, 
1947.00, 
1948.00, 
1949.00, 
1950.00, 
1951.00, 
1952.00, 
1953.00, 
1954.00, 
1955.00, 
1956.00, 
1957.00, 
1958.00, 
1959.00, 
1960.00, 
1961.00, 
1962.00, 
1963.00, 
1964.00, 
1965.00, 
1966.00, 
1967.00, 
1968.00, 
1969.00, 
1970.00, 
1971.00, 
1972.00, 
1973.00, 
1974.00, 
1975.00, 
1976.00, 
1977.00, 
1978.00, 
1979.00, 
1980.00, 
1981.00, 
1982.00, 
1983.00, 
1984.00, 
1985.00, 
1986.00, 
1987.00, 
1988.00, 
1989.00, 
1990.00, 
1991.00, 
1992.00, 
1993.00, 
1994.00, 
1995.00, 
1996.00, 
1997.00, 
1998.00, 
1999.00, 
2000.00, 
2001.00, 
2002.00, 
2003.00, 
2004.00, 
2005.00, 
2006.00, 
2007.00, 
2008.00, 
2009.00, 
2010.00, 
2011.00, 
2012.00, 
2013.00, 
2014.00, 
2015.00, 
2016.00, 
2017.00, 
2018.00, 
2019.00, 
2020.00, 
2021.00, 
2022.00, 
2023.00, 
2024.00, 
2025.00, 
2026.00, 
2027.00, 
2028.00, 
2029.00, 
2030.00, 
2031.00, 
2032.00, 
2033.00, 
2034.00, 
2035.00, 
2036.00, 
2037.00, 
2038.00, 
2039.00, 
2040.00, 
2041.00, 
2042.00, 
2043.00, 
2044.00, 
2045.00, 
2046.00, 
2047.00, 
2048.00, 
2049.00, 
2050.00, 
2051.00, 
2052.00, 
2053.00, 
2054.00, 
2055.00, 
2056.00, 
2057.00, 
2058.00, 
2059.00, 
2060.00, 
2061.00, 
2062.00, 
2063.00, 
2064.00, 
2065.00, 
2066.00, 
2067.00, 
2068.00, 
2069.00, 
2070.00, 
2071.00, 
2072.00, 
2073.00, 
2074.00, 
2075.00, 
2076.00, 
2077.00, 
2078.00, 
2079.00, 
2080.00, 
2081.00, 
2082.00, 
2083.00, 
2084.00, 
2085.00, 
2086.00, 
2087.00, 
2088.00, 
2089.00, 
2090.00, 
2091.00, 
2092.00, 
2093.00, 
2094.00, 
2095.00, 
2096.00, 
2097.00, 
2098.00, 
2099.00, 
2100.00, 
2101.00, 
2102.00, 
2103.00, 
2104.00, 
2105.00, 
2106.00, 
2107.00, 
2108.00, 
2109.00, 
2110.00, 
2111.00, 
2112.00, 
2113.00, 
2114.00, 
2115.00, 
2116.00, 
2117.00, 
2118.00, 
2119.00, 
2120.00, 
2121.00, 
2122.00, 
2123.00, 
2124.00, 
2125.00, 
2126.00, 
2127.00, 
2128.00, 
2129.00, 
2130.00, 
2131.00, 
2132.00, 
2133.00, 
2134.00, 
2135.00, 
2136.00, 
2137.00, 
2138.00, 
2139.00, 
2140.00, 
2141.00, 
2142.00, 
2143.00, 
2144.00, 
2145.00, 
2146.00, 
2147.00, 
2148.00, 
2149.00, 
2150.00, 
2151.00, 
2152.00, 
2153.00, 
2154.00, 
2155.00, 
2156.00, 
2157.00, 
2158.00, 
2159.00, 
2160.00, 
2161.00, 
2162.00, 
2163.00, 
2164.00, 
2165.00, 
2166.00, 
2167.00, 
2168.00, 
2169.00, 
2170.00, 
2171.00, 
2172.00, 
2173.00, 
2174.00, 
2175.00, 
2176.00, 
2177.00, 
2178.00, 
2179.00, 
2180.00, 
2181.00, 
2182.00, 
2183.00, 
2184.00, 
2185.00, 
2186.00, 
2187.00, 
2188.00, 
2189.00, 
2190.00, 
2191.00, 
2192.00, 
2193.00, 
2194.00, 
2195.00, 
2196.00, 
2197.00, 
2198.00, 
2199.00, 
2200.00, 
2201.00, 
2202.00, 
2203.00, 
2204.00, 
2205.00, 
2206.00, 
2207.00, 
2208.00, 
2209.00, 
2210.00, 
2211.00, 
2212.00, 
2213.00, 
2214.00, 
2215.00, 
2216.00, 
2217.00, 
2218.00, 
2219.00, 
2220.00, 
2221.00, 
2222.00, 
2223.00, 
2224.00, 
2225.00, 
2226.00, 
2227.00, 
2228.00, 
2229.00, 
2230.00, 
2231.00, 
2232.00, 
2233.00, 
2234.00, 
2235.00, 
2236.00, 
2237.00, 
2238.00, 
2239.00, 
2240.00, 
2241.00, 
2242.00, 
2243.00, 
2244.00, 
2245.00, 
2246.00, 
2247.00, 
2248.00, 
2249.00, 
2250.00, 
2251.00, 
2252.00, 
2253.00, 
2254.00, 
2255.00, 
2256.00, 
2257.00, 
2258.00, 
2259.00, 
2260.00, 
2261.00, 
2262.00, 
2263.00, 
2264.00, 
2265.00, 
2266.00, 
2267.00, 
2268.00, 
2269.00, 
2270.00, 
2271.00, 
2272.00, 
2273.00, 
2274.00, 
2275.00, 
2276.00, 
2277.00, 
2278.00, 
2279.00, 
2280.00, 
2281.00, 
2282.00, 
2283.00, 
2284.00, 
2285.00, 
2286.00, 
2287.00, 
2288.00, 
2289.00, 
2290.00, 
2291.00, 
2292.00, 
2293.00, 
2294.00, 
2295.00, 
2296.00, 
2297.00, 
2298.00, 
2299.00, 
2300.00, 
2301.00, 
2302.00, 
2303.00, 
2304.00, 
2305.00, 
2306.00, 
2307.00, 
2308.00, 
2309.00, 
2310.00, 
2311.00, 
2312.00, 
2313.00, 
2314.00, 
2315.00, 
2316.00, 
2317.00, 
2318.00, 
2319.00, 
2320.00, 
2321.00, 
2322.00, 
2323.00, 
2324.00, 
2325.00, 
2326.00, 
2327.00, 
2328.00, 
2329.00, 
2330.00, 
2331.00, 
2332.00, 
2333.00, 
2334.00, 
2335.00, 
2336.00, 
2337.00, 
2338.00, 
2339.00, 
2340.00, 
2341.00, 
2342.00, 
2343.00, 
2344.00, 
2345.00, 
2346.00, 
2347.00, 
2348.00, 
2349.00, 
2350.00, 
2351.00, 
2352.00, 
2353.00, 
2354.00, 
2355.00, 
2356.00, 
2357.00, 
2358.00, 
2359.00, 
2360.00, 
2361.00, 
2362.00, 
2363.00, 
2364.00, 
2365.00, 
2366.00, 
2367.00, 
2368.00, 
2369.00, 
2370.00, 
2371.00, 
2372.00, 
2373.00, 
2374.00, 
2375.00, 
2376.00, 
2377.00, 
2378.00, 
2379.00, 
2380.00, 
2381.00, 
2382.00, 
2383.00, 
2384.00, 
2385.00, 
2386.00, 
2387.00, 
2388.00, 
2389.00, 
2390.00, 
2391.00, 
2392.00, 
2393.00, 
2394.00, 
2395.00, 
2396.00, 
2397.00, 
2398.00, 
2399.00, 
2400.00, 
2401.00, 
2402.00, 
2403.00, 
2404.00, 
2405.00, 
2406.00, 
2407.00, 
2408.00, 
2409.00, 
2410.00, 
2411.00, 
2412.00, 
2413.00, 
2414.00, 
2415.00, 
2416.00, 
2417.00, 
2418.00, 
2419.00, 
2420.00, 
2421.00, 
2422.00, 
2423.00, 
2424.00, 
2425.00, 
2426.00, 
2427.00, 
2428.00, 
2429.00, 
2430.00, 
2431.00, 
2432.00, 
2433.00, 
2434.00, 
2435.00, 
2436.00, 
2437.00, 
2438.00, 
2439.00, 
2440.00, 
2441.00, 
2442.00, 
2443.00, 
2444.00, 
2445.00, 
2446.00, 
2447.00, 
2448.00, 
2449.00, 
2450.00, 
2451.00, 
2452.00, 
2453.00, 
2454.00, 
2455.00, 
2456.00, 
2457.00, 
2458.00, 
2459.00, 
2460.00, 
2461.00, 
2462.00, 
2463.00, 
2464.00, 
2465.00, 
2466.00, 
2467.00, 
2468.00, 
2469.00, 
2470.00, 
2471.00, 
2472.00, 
2473.00, 
2474.00, 
2475.00, 
2476.00, 
2477.00, 
2478.00, 
2479.00, 
2480.00, 
2481.00, 
2482.00, 
2483.00, 
2484.00, 
2485.00, 
2486.00, 
2487.00, 
2488.00, 
2489.00, 
2490.00, 
2491.00, 
2492.00, 
2493.00, 
2494.00, 
2495.00, 
2496.00, 
2497.00, 
2498.00, 
2499.00, 
2500.00, 
2501.00, 
2502.00, 
2503.00, 
2504.00, 
2505.00, 
2506.00, 
2507.00, 
2508.00, 
2509.00, 
2510.00, 
2511.00, 
2512.00, 
2513.00, 
2514.00, 
2515.00, 
2516.00, 
2517.00, 
2518.00, 
2519.00, 
2520.00, 
2521.00, 
2522.00, 
2523.00, 
2524.00, 
2525.00, 
2526.00, 
2527.00, 
2528.00, 
2529.00, 
2530.00, 
2531.00, 
2532.00, 
2533.00, 
2534.00, 
2535.00, 
2536.00, 
2537.00, 
2538.00, 
2539.00, 
2540.00, 
2541.00, 
2542.00, 
2543.00, 
2544.00, 
2545.00, 
2546.00, 
2547.00, 
2548.00, 
2549.00, 
2550.00, 
2551.00, 
2552.00, 
2553.00, 
2554.00, 
2555.00, 
2556.00, 
2557.00, 
2558.00, 
2559.00, 
2560.00, 
2561.00, 
2562.00, 
2563.00, 
2564.00, 
2565.00, 
2566.00, 
2567.00, 
2568.00, 
2569.00, 
2570.00, 
2571.00, 
2572.00, 
2573.00, 
2574.00, 
2575.00, 
2576.00, 
2577.00, 
2578.00, 
2579.00, 
2580.00, 
2581.00, 
2582.00, 
2583.00, 
2584.00, 
2585.00, 
2586.00, 
2587.00, 
2588.00, 
2589.00, 
2590.00, 
2591.00, 
2592.00, 
2593.00, 
2594.00, 
2595.00, 
2596.00, 
2597.00, 
2598.00, 
2599.00, 
2600.00, 
