"2cP2 - RawData"
"Wavelength nm.","T%"
200.00,0.001
201.00,-0.000
202.00,0.003
203.00,-0.000
204.00,0.001
205.00,0.002
206.00,0.001
207.00,0.002
208.00,0.003
209.00,0.003
210.00,0.004
211.00,0.003
212.00,0.001
213.00,0.003
214.00,0.001
215.00,0.001
216.00,0.001
217.00,0.001
218.00,0.001
219.00,0.001
220.00,-0.001
221.00,-0.000
222.00,0.001
223.00,-0.003
224.00,0.002
225.00,0.001
226.00,-0.002
227.00,0.001
228.00,0.002
229.00,-0.000
230.00,0.001
231.00,0.002
232.00,0.002
233.00,0.001
234.00,0.002
235.00,0.002
236.00,0.001
237.00,0.001
238.00,-0.000
239.00,-0.001
240.00,0.001
241.00,-0.001
242.00,0.001
243.00,0.002
244.00,0.003
245.00,0.000
246.00,-0.000
247.00,0.002
248.00,-0.001
249.00,0.002
250.00,0.001
251.00,0.001
252.00,0.000
253.00,0.001
254.00,0.001
255.00,-0.000
256.00,0.000
257.00,-0.001
258.00,0.002
259.00,-0.002
260.00,-0.000
261.00,0.001
262.00,0.001
263.00,-0.001
264.00,0.003
265.00,0.002
266.00,0.000
267.00,-0.002
268.00,0.000
269.00,0.001
270.00,-0.001
271.00,-0.000
272.00,0.001
273.00,0.000
274.00,0.001
275.00,-0.000
276.00,0.000
277.00,0.000
278.00,-0.001
279.00,0.001
280.00,-0.001
281.00,0.001
282.00,0.000
283.00,-0.001
284.00,0.001
285.00,0.002
286.00,0.000
287.00,0.000
288.00,-0.000
289.00,-0.000
290.00,-0.001
291.00,-0.000
292.00,0.002
293.00,-0.001
294.00,-0.001
295.00,-0.001
296.00,-0.000
297.00,-0.000
298.00,0.002
299.00,0.001
300.00,0.003
301.00,0.007
302.00,0.009
303.00,0.013
304.00,0.022
305.00,0.033
306.00,0.050
307.00,0.075
308.00,0.116
309.00,0.182
310.00,0.259
311.00,0.359
312.00,0.479
313.00,0.648
314.00,0.857
315.00,1.125
316.00,1.427
317.00,1.805
318.00,2.226
319.00,2.760
320.00,3.335
321.00,3.999
322.00,4.744
323.00,5.587
324.00,6.480
325.00,7.335
326.00,8.302
327.00,9.422
328.00,10.491
329.00,11.586
330.00,12.822
331.00,14.021
332.00,15.225
333.00,16.479
334.00,17.698
335.00,18.968
336.00,20.244
337.00,21.514
338.00,22.713
339.00,23.859
340.00,25.095
341.00,26.219
342.00,27.296
343.00,28.353
344.00,29.359
345.00,30.328
346.00,31.192
347.00,32.120
348.00,32.942
349.00,33.787
350.00,34.533
351.00,35.194
352.00,35.870
353.00,36.487
354.00,37.057
355.00,37.664
356.00,38.216
357.00,38.793
358.00,39.204
359.00,39.672
360.00,40.100
361.00,40.446
362.00,40.769
363.00,41.245
364.00,41.452
365.00,41.845
366.00,42.095
367.00,42.268
368.00,42.525
369.00,42.640
370.00,42.879
371.00,43.020
372.00,43.192
373.00,43.205
374.00,43.275
375.00,43.247
376.00,43.309
377.00,43.323
378.00,43.307
379.00,43.265
380.00,43.266
381.00,43.363
382.00,43.446
383.00,43.552
384.00,43.657
385.00,43.803
386.00,44.013
387.00,44.105
388.00,44.257
389.00,44.331
390.00,44.488
391.00,44.518
392.00,44.822
393.00,44.993
394.00,44.989
395.00,45.018
396.00,45.100
397.00,45.159
398.00,45.219
399.00,45.216
400.00,45.357
401.00,45.384
402.00,45.427
403.00,45.468
404.00,45.470
405.00,45.511
406.00,45.446
407.00,45.418
408.00,45.433
409.00,45.412
410.00,45.379
411.00,45.331
412.00,45.273
413.00,45.180
414.00,45.225
415.00,45.129
416.00,45.356
417.00,45.327
418.00,45.393
419.00,45.372
420.00,45.385
421.00,45.589
422.00,45.544
423.00,45.567
424.00,45.563
425.00,45.620
426.00,45.638
427.00,45.644
428.00,45.669
429.00,45.675
430.00,45.718
431.00,45.731
432.00,45.739
433.00,45.781
434.00,45.716
435.00,45.849
436.00,45.916
437.00,45.887
438.00,45.891
439.00,46.012
440.00,46.030
441.00,46.050
442.00,46.048
443.00,46.138
444.00,46.154
445.00,46.192
446.00,46.242
447.00,46.387
448.00,46.399
449.00,46.448
450.00,46.544
451.00,46.540
452.00,46.625
453.00,46.656
454.00,46.693
455.00,46.777
456.00,46.826
457.00,46.853
458.00,46.868
459.00,46.981
460.00,47.042
461.00,47.078
462.00,47.157
463.00,47.188
464.00,47.233
465.00,47.258
466.00,47.367
467.00,47.464
468.00,47.393
469.00,47.471
470.00,47.454
471.00,47.422
472.00,47.494
473.00,47.515
474.00,47.532
475.00,47.508
476.00,47.552
477.00,47.662
478.00,47.564
479.00,47.667
480.00,47.723
481.00,47.833
482.00,47.970
483.00,48.017
484.00,48.090
485.00,48.168
486.00,48.157
487.00,48.290
488.00,48.362
489.00,48.466
490.00,48.539
491.00,48.575
492.00,48.754
493.00,48.693
494.00,48.618
495.00,48.716
496.00,48.765
497.00,48.791
498.00,48.887
499.00,48.898
500.00,49.004
501.00,49.076
502.00,49.091
503.00,49.168
504.00,49.108
505.00,49.176
506.00,49.303
507.00,49.351
508.00,49.348
509.00,49.423
510.00,49.494
511.00,49.490
512.00,49.624
513.00,49.603
514.00,49.675
515.00,49.688
516.00,49.729
517.00,49.872
518.00,49.824
519.00,49.784
520.00,49.851
521.00,49.859
522.00,49.858
523.00,49.924
524.00,49.928
525.00,50.022
526.00,50.026
527.00,50.060
528.00,49.991
529.00,50.080
530.00,50.089
531.00,50.350
532.00,50.220
533.00,50.292
534.00,50.385
535.00,50.285
536.00,50.516
537.00,50.470
538.00,50.517
539.00,50.548
540.00,50.552
541.00,50.589
542.00,50.578
543.00,50.617
544.00,50.632
545.00,50.635
546.00,50.572
547.00,50.575
548.00,50.642
549.00,50.642
550.00,50.900
551.00,50.920
552.00,50.947
553.00,51.049
554.00,51.076
555.00,51.043
556.00,51.077
557.00,51.098
558.00,51.116
559.00,51.093
560.00,51.133
561.00,51.178
562.00,51.196
563.00,51.213
564.00,51.261
565.00,51.202
566.00,51.172
567.00,51.185
568.00,51.188
569.00,51.206
570.00,51.186
571.00,51.253
572.00,51.201
573.00,51.236
574.00,51.278
575.00,51.265
576.00,51.291
577.00,51.259
578.00,51.340
579.00,51.323
580.00,51.333
581.00,51.292
582.00,51.528
583.00,51.615
584.00,51.615
585.00,51.670
586.00,51.683
587.00,51.760
588.00,51.777
589.00,51.758
590.00,51.797
591.00,51.870
592.00,51.775
593.00,51.780
594.00,51.730
595.00,51.781
596.00,51.877
597.00,52.101
598.00,52.030
599.00,51.951
600.00,51.999
601.00,52.012
602.00,51.966
603.00,52.013
604.00,51.999
605.00,52.029
606.00,52.011
607.00,51.928
608.00,52.024
609.00,51.963
610.00,52.013
611.00,52.069
612.00,52.068
613.00,51.935
614.00,52.037
615.00,52.032
616.00,51.994
617.00,52.056
618.00,52.100
619.00,52.052
620.00,52.008
621.00,52.009
622.00,52.011
623.00,52.100
624.00,52.087
625.00,52.130
626.00,52.109
627.00,52.155
628.00,52.132
629.00,52.149
630.00,52.138
631.00,52.113
632.00,52.160
633.00,52.116
634.00,52.141
635.00,52.134
636.00,52.068
637.00,52.096
638.00,52.107
639.00,52.269
640.00,52.212
641.00,52.153
642.00,52.178
643.00,52.183
644.00,52.253
645.00,52.214
646.00,52.262
647.00,52.277
648.00,52.237
649.00,52.341
650.00,52.261
651.00,52.293
652.00,52.317
653.00,52.305
654.00,52.329
655.00,52.264
656.00,52.279
657.00,52.174
658.00,52.263
659.00,52.301
660.00,52.244
661.00,52.238
662.00,52.318
663.00,52.311
664.00,52.380
665.00,52.295
666.00,52.299
667.00,52.408
668.00,52.369
669.00,52.331
670.00,52.391
671.00,52.379
672.00,52.452
673.00,52.454
674.00,52.365
675.00,52.332
676.00,52.448
677.00,52.339
678.00,52.307
679.00,52.329
680.00,52.243
681.00,52.312
682.00,52.272
683.00,52.123
684.00,52.479
685.00,52.422
686.00,52.347
687.00,52.331
688.00,52.289
689.00,52.158
690.00,52.391
691.00,52.330
692.00,52.210
693.00,52.275
694.00,52.332
695.00,52.166
696.00,52.235
697.00,52.291
698.00,52.152
699.00,52.256
700.00,52.493
701.00,52.247
702.00,52.061
703.00,52.210
704.00,52.337
705.00,52.230
706.00,52.332
707.00,52.252
708.00,52.126
709.00,52.164
710.00,52.324
711.00,52.094
712.00,52.131
713.00,52.119
714.00,52.085
715.00,52.016
716.00,52.043
717.00,52.075
718.00,52.078
719.00,52.048
720.00,51.886
721.00,56.365
722.00,56.186
723.00,56.213
724.00,56.166
725.00,56.089
726.00,56.024
727.00,55.935
728.00,55.849
729.00,55.865
730.00,55.829
731.00,55.796
732.00,55.714
733.00,55.641
734.00,55.663
735.00,55.650
736.00,55.624
737.00,55.559
738.00,55.452
739.00,55.423
740.00,55.425
741.00,55.390
742.00,55.357
743.00,55.247
744.00,55.251
745.00,55.126
746.00,55.141
747.00,55.024
748.00,54.940
749.00,54.890
750.00,54.802
751.00,54.801
752.00,54.742
753.00,54.705
754.00,54.592
755.00,54.650
756.00,54.535
757.00,54.555
758.00,54.462
759.00,54.483
760.00,54.405
761.00,54.324
762.00,54.321
763.00,54.307
764.00,54.233
765.00,54.240
766.00,54.181
767.00,54.116
768.00,54.116
769.00,54.107
770.00,54.127
771.00,53.982
772.00,53.997
773.00,54.054
774.00,53.930
775.00,53.927
776.00,53.896
777.00,53.905
778.00,53.803
779.00,53.850
780.00,53.740
781.00,53.753
782.00,53.718
783.00,53.569
784.00,53.611
785.00,53.480
786.00,53.562
787.00,53.520
788.00,53.464
789.00,53.400
790.00,53.332
791.00,53.353
792.00,53.281
793.00,53.262
794.00,53.178
795.00,53.198
796.00,53.203
797.00,53.066
798.00,53.063
799.00,53.048
800.00,53.055
801.00,52.941
802.00,52.927
803.00,52.824
804.00,52.794
805.00,52.775
806.00,52.746
807.00,52.687
808.00,52.669
809.00,52.689
810.00,52.646
811.00,52.593
812.00,52.705
813.00,52.509
814.00,52.549
815.00,52.487
816.00,52.486
817.00,52.392
818.00,52.376
819.00,52.340
820.00,52.270
821.00,52.291
822.00,52.173
823.00,52.219
824.00,52.176
825.00,52.237
826.00,52.121
827.00,52.211
828.00,52.130
829.00,52.087
830.00,52.028
831.00,54.624
832.00,54.602
833.00,54.538
834.00,54.534
835.00,54.421
836.00,54.517
837.00,54.401
838.00,54.390
839.00,54.356
840.00,54.314
841.00,54.296
842.00,54.360
843.00,54.270
844.00,54.267
845.00,54.149
846.00,54.166
847.00,54.104
848.00,53.957
849.00,54.048
850.00,54.026
851.00,53.910
852.00,53.915
853.00,54.013
854.00,53.834
855.00,53.791
856.00,53.743
857.00,53.726
858.00,53.668
859.00,53.626
860.00,53.623
861.00,53.620
862.00,53.555
863.00,53.590
864.00,53.503
865.00,53.526
866.00,53.457
867.00,53.473
868.00,53.439
869.00,53.413
870.00,53.409
871.00,53.387
872.00,53.349
873.00,53.328
874.00,53.348
875.00,53.318
876.00,53.305
877.00,53.297
878.00,53.259
879.00,53.228
880.00,53.242
881.00,53.193
882.00,53.175
883.00,53.158
884.00,53.123
885.00,53.108
886.00,53.081
887.00,53.033
888.00,53.030
889.00,52.981
890.00,52.988
891.00,52.960
892.00,52.929
893.00,52.887
894.00,52.898
895.00,52.842
896.00,52.833
897.00,52.815
898.00,52.767
899.00,52.792
900.00,52.769
901.00,52.729
902.00,52.722
903.00,52.695
904.00,52.682
905.00,52.654
906.00,52.644
907.00,52.604
908.00,52.596
909.00,52.561
910.00,52.552
911.00,52.501
912.00,52.528
913.00,52.461
914.00,52.437
915.00,52.432
916.00,52.394
917.00,52.352
918.00,52.345
919.00,52.334
920.00,52.291
921.00,52.277
922.00,52.294
923.00,52.243
924.00,52.180
925.00,52.206
926.00,52.198
927.00,52.155
928.00,52.142
929.00,52.138
930.00,52.062
931.00,52.097
932.00,52.034
933.00,52.047
934.00,52.013
935.00,52.006
936.00,51.953
937.00,51.952
938.00,51.928
939.00,51.927
940.00,51.877
941.00,51.866
942.00,51.838
943.00,51.831
944.00,51.789
945.00,51.788
946.00,51.784
947.00,51.733
948.00,51.713
949.00,51.694
950.00,51.674
951.00,51.665
952.00,51.615
953.00,51.602
954.00,51.644
955.00,51.526
956.00,51.533
957.00,51.491
958.00,51.479
959.00,51.445
960.00,51.431
961.00,51.404
962.00,51.424
963.00,51.368
964.00,51.357
965.00,51.359
966.00,51.341
967.00,51.348
968.00,51.293
969.00,51.330
970.00,51.304
971.00,51.307
972.00,51.261
973.00,51.293
974.00,51.297
975.00,51.298
976.00,51.330
977.00,51.288
978.00,51.375
979.00,51.409
980.00,51.310
981.00,51.325
982.00,51.284
983.00,51.290
984.00,51.262
985.00,51.282
986.00,51.236
987.00,51.266
988.00,51.224
989.00,51.213
990.00,51.210
991.00,51.179
992.00,51.215
993.00,51.172
994.00,51.166
995.00,51.145
996.00,51.124
997.00,51.124
998.00,51.078
999.00,51.097
1000.00,51.052
1001.00,51.066
1002.00,51.050
1003.00,51.036
1004.00,51.031
1005.00,51.001
1006.00,51.030
1007.00,50.982
1008.00,50.988
1009.00,50.967
1010.00,50.953
1011.00,50.944
1012.00,50.914
1013.00,50.906
1014.00,50.875
1015.00,50.908
1016.00,50.834
1017.00,50.840
1018.00,50.832
1019.00,50.787
1020.00,50.794
1021.00,50.764
1022.00,50.778
1023.00,50.730
1024.00,50.725
1025.00,50.727
1026.00,50.709
1027.00,50.673
1028.00,50.664
1029.00,50.650
1030.00,50.619
1031.00,50.632
1032.00,50.594
1033.00,50.608
1034.00,50.559
1035.00,50.525
1036.00,50.510
1037.00,50.494
1038.00,50.463
1039.00,50.443
1040.00,50.432
1041.00,50.406
1042.00,50.391
1043.00,50.358
1044.00,50.401
1045.00,50.384
1046.00,50.361
1047.00,50.390
1048.00,50.390
1049.00,50.391
1050.00,50.405
1051.00,50.427
1052.00,50.436
1053.00,50.443
1054.00,50.424
1055.00,50.458
1056.00,50.476
1057.00,50.468
1058.00,50.470
1059.00,50.453
1060.00,50.473
1061.00,50.490
1062.00,50.429
1063.00,50.441
1064.00,50.426
1065.00,50.410
1066.00,50.407
1067.00,50.395
1068.00,50.403
1069.00,50.375
1070.00,50.355
1071.00,50.336
1072.00,50.344
1073.00,50.319
1074.00,50.332
1075.00,50.319
1076.00,50.307
1077.00,50.301
1078.00,50.287
1079.00,50.259
1080.00,50.269
1081.00,50.230
1082.00,50.237
1083.00,50.245
1084.00,50.231
1085.00,50.233
1086.00,50.238
1087.00,50.211
1088.00,50.211
1089.00,50.198
1090.00,50.192
1091.00,50.188
1092.00,50.177
1093.00,50.146
1094.00,50.136
1095.00,50.117
1096.00,50.111
1097.00,50.111
1098.00,50.106
1099.00,50.108
1100.00,50.096
1101.00,50.075
1102.00,50.077
1103.00,50.060
1104.00,50.047
1105.00,50.041
1106.00,50.045
1107.00,50.038
1108.00,50.030
1109.00,50.009
1110.00,50.012
1111.00,49.992
1112.00,49.976
1113.00,49.975
1114.00,49.975
1115.00,49.961
1116.00,49.964
1117.00,49.933
1118.00,49.947
1119.00,49.947
1120.00,49.939
1121.00,49.943
1122.00,49.916
1123.00,49.900
1124.00,49.907
1125.00,49.900
1126.00,49.884
1127.00,49.878
1128.00,49.868
1129.00,49.847
1130.00,49.841
1131.00,49.832
1132.00,49.840
1133.00,49.822
1134.00,49.824
1135.00,49.799
1136.00,49.799
1137.00,49.816
1138.00,49.803
1139.00,49.803
1140.00,49.794
1141.00,49.771
1142.00,49.806
1143.00,49.801
1144.00,49.766
1145.00,49.754
1146.00,49.779
1147.00,49.750
1148.00,49.750
1149.00,49.796
1150.00,49.775
1151.00,49.759
1152.00,49.745
1153.00,49.737
1154.00,49.742
1155.00,49.740
1156.00,49.714
1157.00,49.730
1158.00,49.725
1159.00,49.715
1160.00,49.718
1161.00,49.718
1162.00,49.702
1163.00,49.711
1164.00,49.698
1165.00,49.700
1166.00,49.697
1167.00,49.684
1168.00,49.713
1169.00,49.694
1170.00,49.696
1171.00,49.676
1172.00,49.680
1173.00,49.686
1174.00,49.688
1175.00,49.691
1176.00,49.695
1177.00,49.683
1178.00,49.675
1179.00,49.691
1180.00,49.691
1181.00,49.682
1182.00,49.691
1183.00,49.684
1184.00,49.674
1185.00,49.683
1186.00,49.664
1187.00,49.675
1188.00,49.660
1189.00,49.666
1190.00,49.666
1191.00,49.660
1192.00,49.661
1193.00,49.657
1194.00,49.657
1195.00,49.632
1196.00,49.662
1197.00,49.650
1198.00,49.651
1199.00,49.644
1200.00,49.624
1201.00,49.657
1202.00,49.637
1203.00,49.644
1204.00,49.632
1205.00,49.643
1206.00,49.633
1207.00,49.654
1208.00,49.623
1209.00,49.630
1210.00,49.639
1211.00,49.617
1212.00,49.641
1213.00,49.604
1214.00,49.621
1215.00,49.634
1216.00,49.607
1217.00,49.638
1218.00,49.638
1219.00,49.633
1220.00,49.621
1221.00,49.629
1222.00,49.607
1223.00,49.645
1224.00,49.631
1225.00,49.613
1226.00,49.626
1227.00,49.601
1228.00,49.627
1229.00,49.639
1230.00,49.659
1231.00,49.669
1232.00,49.670
1233.00,49.653
1234.00,49.678
1235.00,49.664
1236.00,49.659
1237.00,49.653
1238.00,49.654
1239.00,49.671
1240.00,49.676
1241.00,49.674
1242.00,49.685
1243.00,49.707
1244.00,49.684
1245.00,49.705
1246.00,49.702
1247.00,49.684
1248.00,49.688
1249.00,49.691
1250.00,49.717
1251.00,49.708
1252.00,49.714
1253.00,49.714
1254.00,49.735
1255.00,49.722
1256.00,49.711
1257.00,49.695
1258.00,49.735
1259.00,49.730
1260.00,49.737
1261.00,49.744
1262.00,49.739
1263.00,49.724
1264.00,49.755
1265.00,49.747
1266.00,49.737
1267.00,49.754
1268.00,49.765
1269.00,49.752
1270.00,49.763
1271.00,49.764
1272.00,49.771
1273.00,49.773
1274.00,49.765
1275.00,49.782
1276.00,49.776
1277.00,49.771
1278.00,49.808
1279.00,49.792
1280.00,49.796
1281.00,49.796
1282.00,49.805
1283.00,49.808
1284.00,49.805
1285.00,49.802
1286.00,49.817
1287.00,49.812
1288.00,49.815
1289.00,49.830
1290.00,49.846
1291.00,49.840
1292.00,49.858
1293.00,49.844
1294.00,49.875
1295.00,49.884
1296.00,49.868
1297.00,49.887
1298.00,49.900
1299.00,49.876
1300.00,49.903
1301.00,49.908
1302.00,49.899
1303.00,49.925
1304.00,49.909
1305.00,49.922
1306.00,49.931
1307.00,49.933
1308.00,49.941
1309.00,49.941
1310.00,49.934
1311.00,49.944
1312.00,49.943
1313.00,49.941
1314.00,49.958
1315.00,49.966
1316.00,49.969
1317.00,49.980
1318.00,49.970
1319.00,49.979
1320.00,50.008
1321.00,50.139
1322.00,50.167
1323.00,50.148
1324.00,50.133
1325.00,50.130
1326.00,50.157
1327.00,50.134
1328.00,50.135
1329.00,50.145
1330.00,50.134
1331.00,50.135
1332.00,50.126
1333.00,50.184
1334.00,50.166
1335.00,50.182
1336.00,50.232
1337.00,50.249
1338.00,50.311
1339.00,50.355
1340.00,50.416
1341.00,50.474
1342.00,50.550
1343.00,50.605
1344.00,50.644
1345.00,50.703
1346.00,50.737
1347.00,50.749
1348.00,50.774
1349.00,50.796
1350.00,50.805
1351.00,50.823
1352.00,50.844
1353.00,50.934
1354.00,50.861
1355.00,50.814
1356.00,50.880
1357.00,50.885
1358.00,50.886
1359.00,50.941
1360.00,50.880
1361.00,50.940
1362.00,50.851
1363.00,50.948
1364.00,51.013
1365.00,50.878
1366.00,50.935
1367.00,50.849
1368.00,50.838
1369.00,50.900
1370.00,50.841
1371.00,50.792
1372.00,50.847
1373.00,50.867
1374.00,50.872
1375.00,50.858
1376.00,50.845
1377.00,50.834
1378.00,50.855
1379.00,50.852
1380.00,50.852
1381.00,50.844
1382.00,50.775
1383.00,50.843
1384.00,50.847
1385.00,50.879
1386.00,50.872
1387.00,50.770
1388.00,50.799
1389.00,50.782
1390.00,50.868
1391.00,50.808
1392.00,50.828
1393.00,50.816
1394.00,50.792
1395.00,50.741
1396.00,50.766
1397.00,50.833
1398.00,50.892
1399.00,50.821
1400.00,50.747
1401.00,50.805
1402.00,50.909
1403.00,50.822
1404.00,50.819
1405.00,50.880
1406.00,50.846
1407.00,50.889
1408.00,50.886
1409.00,50.777
1410.00,50.902
1411.00,50.909
1412.00,50.930
1413.00,50.915
1414.00,50.888
1415.00,50.928
1416.00,50.957
1417.00,50.980
1418.00,50.935
1419.00,50.961
1420.00,50.981
1421.00,50.994
1422.00,51.042
1423.00,51.016
1424.00,51.033
1425.00,51.034
1426.00,51.032
1427.00,51.075
1428.00,51.075
1429.00,51.086
1430.00,51.102
1431.00,51.100
1432.00,51.127
1433.00,51.147
1434.00,51.121
1435.00,51.185
1436.00,51.174
1437.00,51.156
1438.00,51.183
1439.00,51.233
1440.00,51.241
1441.00,51.252
1442.00,51.250
1443.00,51.300
1444.00,51.325
1445.00,51.285
1446.00,51.316
1447.00,51.347
1448.00,51.361
1449.00,51.387
1450.00,51.369
1451.00,51.376
1452.00,51.402
1453.00,51.420
1454.00,51.439
1455.00,51.447
1456.00,51.470
1457.00,51.474
1458.00,51.495
1459.00,51.506
1460.00,51.531
1461.00,51.536
1462.00,51.552
1463.00,51.578
1464.00,51.569
1465.00,51.590
1466.00,51.593
1467.00,51.613
1468.00,51.658
1469.00,51.650
1470.00,51.634
1471.00,51.658
1472.00,51.680
1473.00,51.698
1474.00,51.737
1475.00,51.720
1476.00,51.750
1477.00,51.733
1478.00,51.751
1479.00,51.791
1480.00,51.781
1481.00,51.782
1482.00,51.815
1483.00,51.835
1484.00,51.839
1485.00,51.861
1486.00,51.860
1487.00,51.877
1488.00,51.883
1489.00,51.888
1490.00,51.905
1491.00,51.904
1492.00,51.915
1493.00,51.934
1494.00,51.944
1495.00,51.948
1496.00,51.955
1497.00,51.945
1498.00,51.963
1499.00,51.986
1500.00,51.996
1501.00, 
1502.00, 
1503.00, 
1504.00, 
1505.00, 
1506.00, 
1507.00, 
1508.00, 
1509.00, 
1510.00, 
1511.00, 
1512.00, 
1513.00, 
1514.00, 
1515.00, 
1516.00, 
1517.00, 
1518.00, 
1519.00, 
1520.00, 
1521.00, 
1522.00, 
1523.00, 
1524.00, 
1525.00, 
1526.00, 
1527.00, 
1528.00, 
1529.00, 
1530.00, 
1531.00, 
1532.00, 
1533.00, 
1534.00, 
1535.00, 
1536.00, 
1537.00, 
1538.00, 
1539.00, 
1540.00, 
1541.00, 
1542.00, 
1543.00, 
1544.00, 
1545.00, 
1546.00, 
1547.00, 
1548.00, 
1549.00, 
1550.00, 
1551.00, 
1552.00, 
1553.00, 
1554.00, 
1555.00, 
1556.00, 
1557.00, 
1558.00, 
1559.00, 
1560.00, 
1561.00, 
1562.00, 
1563.00, 
1564.00, 
1565.00, 
1566.00, 
1567.00, 
1568.00, 
1569.00, 
1570.00, 
1571.00, 
1572.00, 
1573.00, 
1574.00, 
1575.00, 
1576.00, 
1577.00, 
1578.00, 
1579.00, 
1580.00, 
1581.00, 
1582.00, 
1583.00, 
1584.00, 
1585.00, 
1586.00, 
1587.00, 
1588.00, 
1589.00, 
1590.00, 
1591.00, 
1592.00, 
1593.00, 
1594.00, 
1595.00, 
1596.00, 
1597.00, 
1598.00, 
1599.00, 
1600.00, 
1601.00, 
1602.00, 
1603.00, 
1604.00, 
1605.00, 
1606.00, 
1607.00, 
1608.00, 
1609.00, 
1610.00, 
1611.00, 
1612.00, 
1613.00, 
1614.00, 
1615.00, 
1616.00, 
1617.00, 
1618.00, 
1619.00, 
1620.00, 
1621.00, 
1622.00, 
1623.00, 
1624.00, 
1625.00, 
1626.00, 
1627.00, 
1628.00, 
1629.00, 
1630.00, 
1631.00, 
1632.00, 
1633.00, 
1634.00, 
1635.00, 
1636.00, 
1637.00, 
1638.00, 
1639.00, 
1640.00, 
1641.00, 
1642.00, 
1643.00, 
1644.00, 
1645.00, 
1646.00, 
1647.00, 
1648.00, 
1649.00, 
1650.00, 
1651.00, 
1652.00, 
1653.00, 
1654.00, 
1655.00, 
1656.00, 
1657.00, 
1658.00, 
1659.00, 
1660.00, 
1661.00, 
1662.00, 
1663.00, 
1664.00, 
1665.00, 
1666.00, 
1667.00, 
1668.00, 
1669.00, 
1670.00, 
1671.00, 
1672.00, 
1673.00, 
1674.00, 
1675.00, 
1676.00, 
1677.00, 
1678.00, 
1679.00, 
1680.00, 
1681.00, 
1682.00, 
1683.00, 
1684.00, 
1685.00, 
1686.00, 
1687.00, 
1688.00, 
1689.00, 
1690.00, 
1691.00, 
1692.00, 
1693.00, 
1694.00, 
1695.00, 
1696.00, 
1697.00, 
1698.00, 
1699.00, 
1700.00, 
1701.00, 
1702.00, 
1703.00, 
1704.00, 
1705.00, 
1706.00, 
1707.00, 
1708.00, 
1709.00, 
1710.00, 
1711.00, 
1712.00, 
1713.00, 
1714.00, 
1715.00, 
1716.00, 
1717.00, 
1718.00, 
1719.00, 
1720.00, 
1721.00, 
1722.00, 
1723.00, 
1724.00, 
1725.00, 
1726.00, 
1727.00, 
1728.00, 
1729.00, 
1730.00, 
1731.00, 
1732.00, 
1733.00, 
1734.00, 
1735.00, 
1736.00, 
1737.00, 
1738.00, 
1739.00, 
1740.00, 
1741.00, 
1742.00, 
1743.00, 
1744.00, 
1745.00, 
1746.00, 
1747.00, 
1748.00, 
1749.00, 
1750.00, 
1751.00, 
1752.00, 
1753.00, 
1754.00, 
1755.00, 
1756.00, 
1757.00, 
1758.00, 
1759.00, 
1760.00, 
1761.00, 
1762.00, 
1763.00, 
1764.00, 
1765.00, 
1766.00, 
1767.00, 
1768.00, 
1769.00, 
1770.00, 
1771.00, 
1772.00, 
1773.00, 
1774.00, 
1775.00, 
1776.00, 
1777.00, 
1778.00, 
1779.00, 
1780.00, 
1781.00, 
1782.00, 
1783.00, 
1784.00, 
1785.00, 
1786.00, 
1787.00, 
1788.00, 
1789.00, 
1790.00, 
1791.00, 
1792.00, 
1793.00, 
1794.00, 
1795.00, 
1796.00, 
1797.00, 
1798.00, 
1799.00, 
1800.00, 
1801.00, 
1802.00, 
1803.00, 
1804.00, 
1805.00, 
1806.00, 
1807.00, 
1808.00, 
1809.00, 
1810.00, 
1811.00, 
1812.00, 
1813.00, 
1814.00, 
1815.00, 
1816.00, 
1817.00, 
1818.00, 
1819.00, 
1820.00, 
1821.00, 
1822.00, 
1823.00, 
1824.00, 
1825.00, 
1826.00, 
1827.00, 
1828.00, 
1829.00, 
1830.00, 
1831.00, 
1832.00, 
1833.00, 
1834.00, 
1835.00, 
1836.00, 
1837.00, 
1838.00, 
1839.00, 
1840.00, 
1841.00, 
1842.00, 
1843.00, 
1844.00, 
1845.00, 
1846.00, 
1847.00, 
1848.00, 
1849.00, 
1850.00, 
1851.00, 
1852.00, 
1853.00, 
1854.00, 
1855.00, 
1856.00, 
1857.00, 
1858.00, 
1859.00, 
1860.00, 
1861.00, 
1862.00, 
1863.00, 
1864.00, 
1865.00, 
1866.00, 
1867.00, 
1868.00, 
1869.00, 
1870.00, 
1871.00, 
1872.00, 
1873.00, 
1874.00, 
1875.00, 
1876.00, 
1877.00, 
1878.00, 
1879.00, 
1880.00, 
1881.00, 
1882.00, 
1883.00, 
1884.00, 
1885.00, 
1886.00, 
1887.00, 
1888.00, 
1889.00, 
1890.00, 
1891.00, 
1892.00, 
1893.00, 
1894.00, 
1895.00, 
1896.00, 
1897.00, 
1898.00, 
1899.00, 
1900.00, 
1901.00, 
1902.00, 
1903.00, 
1904.00, 
1905.00, 
1906.00, 
1907.00, 
1908.00, 
1909.00, 
1910.00, 
1911.00, 
1912.00, 
1913.00, 
1914.00, 
1915.00, 
1916.00, 
1917.00, 
1918.00, 
1919.00, 
1920.00, 
1921.00, 
1922.00, 
1923.00, 
1924.00, 
1925.00, 
1926.00, 
1927.00, 
1928.00, 
1929.00, 
1930.00, 
1931.00, 
1932.00, 
1933.00, 
1934.00, 
1935.00, 
1936.00, 
1937.00, 
1938.00, 
1939.00, 
1940.00, 
1941.00, 
1942.00, 
1943.00, 
1944.00, 
1945.00, 
1946.00, 
1947.00, 
1948.00, 
1949.00, 
1950.00, 
1951.00, 
1952.00, 
1953.00, 
1954.00, 
1955.00, 
1956.00, 
1957.00, 
1958.00, 
1959.00, 
1960.00, 
1961.00, 
1962.00, 
1963.00, 
1964.00, 
1965.00, 
1966.00, 
1967.00, 
1968.00, 
1969.00, 
1970.00, 
1971.00, 
1972.00, 
1973.00, 
1974.00, 
1975.00, 
1976.00, 
1977.00, 
1978.00, 
1979.00, 
1980.00, 
1981.00, 
1982.00, 
1983.00, 
1984.00, 
1985.00, 
1986.00, 
1987.00, 
1988.00, 
1989.00, 
1990.00, 
1991.00, 
1992.00, 
1993.00, 
1994.00, 
1995.00, 
1996.00, 
1997.00, 
1998.00, 
1999.00, 
2000.00, 
2001.00, 
2002.00, 
2003.00, 
2004.00, 
2005.00, 
2006.00, 
2007.00, 
2008.00, 
2009.00, 
2010.00, 
2011.00, 
2012.00, 
2013.00, 
2014.00, 
2015.00, 
2016.00, 
2017.00, 
2018.00, 
2019.00, 
2020.00, 
2021.00, 
2022.00, 
2023.00, 
2024.00, 
2025.00, 
2026.00, 
2027.00, 
2028.00, 
2029.00, 
2030.00, 
2031.00, 
2032.00, 
2033.00, 
2034.00, 
2035.00, 
2036.00, 
2037.00, 
2038.00, 
2039.00, 
2040.00, 
2041.00, 
2042.00, 
2043.00, 
2044.00, 
2045.00, 
2046.00, 
2047.00, 
2048.00, 
2049.00, 
2050.00, 
2051.00, 
2052.00, 
2053.00, 
2054.00, 
2055.00, 
2056.00, 
2057.00, 
2058.00, 
2059.00, 
2060.00, 
2061.00, 
2062.00, 
2063.00, 
2064.00, 
2065.00, 
2066.00, 
2067.00, 
2068.00, 
2069.00, 
2070.00, 
2071.00, 
2072.00, 
2073.00, 
2074.00, 
2075.00, 
2076.00, 
2077.00, 
2078.00, 
2079.00, 
2080.00, 
2081.00, 
2082.00, 
2083.00, 
2084.00, 
2085.00, 
2086.00, 
2087.00, 
2088.00, 
2089.00, 
2090.00, 
2091.00, 
2092.00, 
2093.00, 
2094.00, 
2095.00, 
2096.00, 
2097.00, 
2098.00, 
2099.00, 
2100.00, 
2101.00, 
2102.00, 
2103.00, 
2104.00, 
2105.00, 
2106.00, 
2107.00, 
2108.00, 
2109.00, 
2110.00, 
2111.00, 
2112.00, 
2113.00, 
2114.00, 
2115.00, 
2116.00, 
2117.00, 
2118.00, 
2119.00, 
2120.00, 
2121.00, 
2122.00, 
2123.00, 
2124.00, 
2125.00, 
2126.00, 
2127.00, 
2128.00, 
2129.00, 
2130.00, 
2131.00, 
2132.00, 
2133.00, 
2134.00, 
2135.00, 
2136.00, 
2137.00, 
2138.00, 
2139.00, 
2140.00, 
2141.00, 
2142.00, 
2143.00, 
2144.00, 
2145.00, 
2146.00, 
2147.00, 
2148.00, 
2149.00, 
2150.00, 
2151.00, 
2152.00, 
2153.00, 
2154.00, 
2155.00, 
2156.00, 
2157.00, 
2158.00, 
2159.00, 
2160.00, 
2161.00, 
2162.00, 
2163.00, 
2164.00, 
2165.00, 
2166.00, 
2167.00, 
2168.00, 
2169.00, 
2170.00, 
2171.00, 
2172.00, 
2173.00, 
2174.00, 
2175.00, 
2176.00, 
2177.00, 
2178.00, 
2179.00, 
2180.00, 
2181.00, 
2182.00, 
2183.00, 
2184.00, 
2185.00, 
2186.00, 
2187.00, 
2188.00, 
2189.00, 
2190.00, 
2191.00, 
2192.00, 
2193.00, 
2194.00, 
2195.00, 
2196.00, 
2197.00, 
2198.00, 
2199.00, 
2200.00, 
2201.00, 
2202.00, 
2203.00, 
2204.00, 
2205.00, 
2206.00, 
2207.00, 
2208.00, 
2209.00, 
2210.00, 
2211.00, 
2212.00, 
2213.00, 
2214.00, 
2215.00, 
2216.00, 
2217.00, 
2218.00, 
2219.00, 
2220.00, 
2221.00, 
2222.00, 
2223.00, 
2224.00, 
2225.00, 
2226.00, 
2227.00, 
2228.00, 
2229.00, 
2230.00, 
2231.00, 
2232.00, 
2233.00, 
2234.00, 
2235.00, 
2236.00, 
2237.00, 
2238.00, 
2239.00, 
2240.00, 
2241.00, 
2242.00, 
2243.00, 
2244.00, 
2245.00, 
2246.00, 
2247.00, 
2248.00, 
2249.00, 
2250.00, 
2251.00, 
2252.00, 
2253.00, 
2254.00, 
2255.00, 
2256.00, 
2257.00, 
2258.00, 
2259.00, 
2260.00, 
2261.00, 
2262.00, 
2263.00, 
2264.00, 
2265.00, 
2266.00, 
2267.00, 
2268.00, 
2269.00, 
2270.00, 
2271.00, 
2272.00, 
2273.00, 
2274.00, 
2275.00, 
2276.00, 
2277.00, 
2278.00, 
2279.00, 
2280.00, 
2281.00, 
2282.00, 
2283.00, 
2284.00, 
2285.00, 
2286.00, 
2287.00, 
2288.00, 
2289.00, 
2290.00, 
2291.00, 
2292.00, 
2293.00, 
2294.00, 
2295.00, 
2296.00, 
2297.00, 
2298.00, 
2299.00, 
2300.00, 
2301.00, 
2302.00, 
2303.00, 
2304.00, 
2305.00, 
2306.00, 
2307.00, 
2308.00, 
2309.00, 
2310.00, 
2311.00, 
2312.00, 
2313.00, 
2314.00, 
2315.00, 
2316.00, 
2317.00, 
2318.00, 
2319.00, 
2320.00, 
2321.00, 
2322.00, 
2323.00, 
2324.00, 
2325.00, 
2326.00, 
2327.00, 
2328.00, 
2329.00, 
2330.00, 
2331.00, 
2332.00, 
2333.00, 
2334.00, 
2335.00, 
2336.00, 
2337.00, 
2338.00, 
2339.00, 
2340.00, 
2341.00, 
2342.00, 
2343.00, 
2344.00, 
2345.00, 
2346.00, 
2347.00, 
2348.00, 
2349.00, 
2350.00, 
2351.00, 
2352.00, 
2353.00, 
2354.00, 
2355.00, 
2356.00, 
2357.00, 
2358.00, 
2359.00, 
2360.00, 
2361.00, 
2362.00, 
2363.00, 
2364.00, 
2365.00, 
2366.00, 
2367.00, 
2368.00, 
2369.00, 
2370.00, 
2371.00, 
2372.00, 
2373.00, 
2374.00, 
2375.00, 
2376.00, 
2377.00, 
2378.00, 
2379.00, 
2380.00, 
2381.00, 
2382.00, 
2383.00, 
2384.00, 
2385.00, 
2386.00, 
2387.00, 
2388.00, 
2389.00, 
2390.00, 
2391.00, 
2392.00, 
2393.00, 
2394.00, 
2395.00, 
2396.00, 
2397.00, 
2398.00, 
2399.00, 
2400.00, 
2401.00, 
2402.00, 
2403.00, 
2404.00, 
2405.00, 
2406.00, 
2407.00, 
2408.00, 
2409.00, 
2410.00, 
2411.00, 
2412.00, 
2413.00, 
2414.00, 
2415.00, 
2416.00, 
2417.00, 
2418.00, 
2419.00, 
2420.00, 
2421.00, 
2422.00, 
2423.00, 
2424.00, 
2425.00, 
2426.00, 
2427.00, 
2428.00, 
2429.00, 
2430.00, 
2431.00, 
2432.00, 
2433.00, 
2434.00, 
2435.00, 
2436.00, 
2437.00, 
2438.00, 
2439.00, 
2440.00, 
2441.00, 
2442.00, 
2443.00, 
2444.00, 
2445.00, 
2446.00, 
2447.00, 
2448.00, 
2449.00, 
2450.00, 
2451.00, 
2452.00, 
2453.00, 
2454.00, 
2455.00, 
2456.00, 
2457.00, 
2458.00, 
2459.00, 
2460.00, 
2461.00, 
2462.00, 
2463.00, 
2464.00, 
2465.00, 
2466.00, 
2467.00, 
2468.00, 
2469.00, 
2470.00, 
2471.00, 
2472.00, 
2473.00, 
2474.00, 
2475.00, 
2476.00, 
2477.00, 
2478.00, 
2479.00, 
2480.00, 
2481.00, 
2482.00, 
2483.00, 
2484.00, 
2485.00, 
2486.00, 
2487.00, 
2488.00, 
2489.00, 
2490.00, 
2491.00, 
2492.00, 
2493.00, 
2494.00, 
2495.00, 
2496.00, 
2497.00, 
2498.00, 
2499.00, 
2500.00, 
2501.00, 
2502.00, 
2503.00, 
2504.00, 
2505.00, 
2506.00, 
2507.00, 
2508.00, 
2509.00, 
2510.00, 
2511.00, 
2512.00, 
2513.00, 
2514.00, 
2515.00, 
2516.00, 
2517.00, 
2518.00, 
2519.00, 
2520.00, 
2521.00, 
2522.00, 
2523.00, 
2524.00, 
2525.00, 
2526.00, 
2527.00, 
2528.00, 
2529.00, 
2530.00, 
2531.00, 
2532.00, 
2533.00, 
2534.00, 
2535.00, 
2536.00, 
2537.00, 
2538.00, 
2539.00, 
2540.00, 
2541.00, 
2542.00, 
2543.00, 
2544.00, 
2545.00, 
2546.00, 
2547.00, 
2548.00, 
2549.00, 
2550.00, 
2551.00, 
2552.00, 
2553.00, 
2554.00, 
2555.00, 
2556.00, 
2557.00, 
2558.00, 
2559.00, 
2560.00, 
2561.00, 
2562.00, 
2563.00, 
2564.00, 
2565.00, 
2566.00, 
2567.00, 
2568.00, 
2569.00, 
2570.00, 
2571.00, 
2572.00, 
2573.00, 
2574.00, 
2575.00, 
2576.00, 
2577.00, 
2578.00, 
2579.00, 
2580.00, 
2581.00, 
2582.00, 
2583.00, 
2584.00, 
2585.00, 
2586.00, 
2587.00, 
2588.00, 
2589.00, 
2590.00, 
2591.00, 
2592.00, 
2593.00, 
2594.00, 
2595.00, 
2596.00, 
2597.00, 
2598.00, 
2599.00, 
2600.00, 
