"1cP4 - RawData"
"Wavelength nm.","T%"
200.00,0.001
201.00,-0.002
202.00,0.002
203.00,-0.001
204.00,-0.001
205.00,0.001
206.00,-0.000
207.00,0.001
208.00,-0.002
209.00,0.001
210.00,-0.000
211.00,-0.000
212.00,-0.001
213.00,0.000
214.00,0.001
215.00,0.002
216.00,-0.001
217.00,0.002
218.00,0.002
219.00,0.000
220.00,0.001
221.00,-0.003
222.00,0.003
223.00,0.001
224.00,0.004
225.00,0.001
226.00,0.001
227.00,0.003
228.00,0.002
229.00,0.002
230.00,0.001
231.00,0.001
232.00,0.002
233.00,-0.001
234.00,-0.000
235.00,-0.000
236.00,0.001
237.00,0.001
238.00,-0.001
239.00,-0.001
240.00,0.001
241.00,0.001
242.00,0.000
243.00,0.001
244.00,0.000
245.00,-0.001
246.00,-0.002
247.00,0.001
248.00,0.001
249.00,0.000
250.00,0.001
251.00,0.000
252.00,-0.000
253.00,0.001
254.00,0.002
255.00,0.001
256.00,0.001
257.00,0.001
258.00,-0.002
259.00,-0.002
260.00,-0.000
261.00,-0.000
262.00,-0.000
263.00,-0.000
264.00,-0.001
265.00,-0.001
266.00,0.001
267.00,-0.001
268.00,-0.000
269.00,0.000
270.00,0.000
271.00,-0.001
272.00,-0.000
273.00,-0.000
274.00,0.001
275.00,0.001
276.00,-0.001
277.00,0.002
278.00,0.001
279.00,0.000
280.00,0.001
281.00,0.000
282.00,0.001
283.00,-0.001
284.00,0.001
285.00,0.001
286.00,0.003
287.00,-0.001
288.00,-0.001
289.00,0.000
290.00,-0.000
291.00,-0.001
292.00,0.002
293.00,0.001
294.00,0.001
295.00,-0.001
296.00,-0.001
297.00,0.001
298.00,-0.001
299.00,0.001
300.00,0.001
301.00,-0.001
302.00,0.002
303.00,-0.000
304.00,0.000
305.00,0.001
306.00,0.001
307.00,0.003
308.00,0.007
309.00,0.012
310.00,0.015
311.00,0.026
312.00,0.041
313.00,0.063
314.00,0.086
315.00,0.132
316.00,0.189
317.00,0.267
318.00,0.367
319.00,0.490
320.00,0.656
321.00,0.854
322.00,1.090
323.00,1.360
324.00,1.682
325.00,2.041
326.00,2.407
327.00,2.861
328.00,3.336
329.00,3.859
330.00,4.402
331.00,4.984
332.00,5.582
333.00,6.262
334.00,6.894
335.00,7.564
336.00,8.243
337.00,8.943
338.00,9.618
339.00,10.258
340.00,10.953
341.00,11.633
342.00,12.262
343.00,12.888
344.00,13.477
345.00,14.083
346.00,14.591
347.00,15.091
348.00,15.551
349.00,16.035
350.00,16.476
351.00,16.853
352.00,17.244
353.00,17.599
354.00,17.996
355.00,18.272
356.00,18.531
357.00,18.822
358.00,19.055
359.00,19.303
360.00,19.522
361.00,19.672
362.00,19.915
363.00,20.064
364.00,20.151
365.00,20.236
366.00,20.345
367.00,20.460
368.00,20.534
369.00,20.531
370.00,20.590
371.00,20.660
372.00,20.543
373.00,20.554
374.00,20.560
375.00,20.509
376.00,20.465
377.00,20.350
378.00,20.284
379.00,20.183
380.00,20.184
381.00,20.174
382.00,20.108
383.00,20.149
384.00,20.155
385.00,20.223
386.00,20.269
387.00,20.340
388.00,20.423
389.00,20.450
390.00,20.496
391.00,20.537
392.00,20.584
393.00,20.603
394.00,20.603
395.00,20.644
396.00,20.614
397.00,20.628
398.00,20.642
399.00,20.626
400.00,20.633
401.00,20.630
402.00,20.640
403.00,20.619
404.00,20.610
405.00,20.592
406.00,20.578
407.00,20.530
408.00,20.512
409.00,20.487
410.00,20.402
411.00,20.470
412.00,20.376
413.00,20.329
414.00,20.378
415.00,20.335
416.00,20.433
417.00,20.390
418.00,20.441
419.00,20.510
420.00,20.537
421.00,20.536
422.00,20.561
423.00,20.616
424.00,20.664
425.00,20.682
426.00,20.713
427.00,20.766
428.00,20.799
429.00,20.808
430.00,20.873
431.00,20.941
432.00,20.945
433.00,21.015
434.00,21.101
435.00,21.139
436.00,21.212
437.00,21.252
438.00,21.328
439.00,21.401
440.00,21.488
441.00,21.552
442.00,21.628
443.00,21.705
444.00,21.859
445.00,21.906
446.00,22.000
447.00,22.075
448.00,22.175
449.00,22.287
450.00,22.389
451.00,22.507
452.00,22.590
453.00,22.738
454.00,22.791
455.00,22.904
456.00,23.039
457.00,23.195
458.00,23.288
459.00,23.442
460.00,23.544
461.00,23.672
462.00,23.793
463.00,23.908
464.00,24.064
465.00,24.195
466.00,24.354
467.00,24.502
468.00,24.591
469.00,24.682
470.00,24.751
471.00,24.875
472.00,25.007
473.00,25.101
474.00,25.223
475.00,25.353
476.00,25.449
477.00,25.594
478.00,25.743
479.00,25.898
480.00,26.034
481.00,26.153
482.00,26.313
483.00,26.491
484.00,26.603
485.00,26.815
486.00,26.928
487.00,27.011
488.00,27.197
489.00,27.304
490.00,27.544
491.00,27.660
492.00,27.819
493.00,28.047
494.00,28.185
495.00,28.223
496.00,28.503
497.00,28.389
498.00,28.505
499.00,28.760
500.00,28.811
501.00,28.963
502.00,29.123
503.00,29.244
504.00,29.327
505.00,29.458
506.00,29.565
507.00,29.677
508.00,29.848
509.00,29.985
510.00,30.093
511.00,30.208
512.00,30.374
513.00,30.498
514.00,30.600
515.00,30.795
516.00,30.890
517.00,30.931
518.00,31.110
519.00,31.168
520.00,31.222
521.00,31.364
522.00,31.447
523.00,31.483
524.00,31.607
525.00,31.737
526.00,31.875
527.00,31.917
528.00,31.955
529.00,32.202
530.00,32.331
531.00,32.413
532.00,32.497
533.00,32.619
534.00,32.672
535.00,32.786
536.00,32.836
537.00,32.952
538.00,33.030
539.00,33.049
540.00,33.135
541.00,33.203
542.00,33.258
543.00,33.364
544.00,33.422
545.00,33.471
546.00,33.525
547.00,33.626
548.00,33.706
549.00,33.787
550.00,33.835
551.00,33.966
552.00,34.015
553.00,34.029
554.00,34.154
555.00,34.151
556.00,34.195
557.00,34.233
558.00,34.387
559.00,34.485
560.00,34.514
561.00,34.557
562.00,34.672
563.00,34.685
564.00,34.758
565.00,34.754
566.00,34.849
567.00,34.830
568.00,34.880
569.00,34.940
570.00,34.992
571.00,35.054
572.00,35.027
573.00,35.014
574.00,35.106
575.00,35.112
576.00,35.144
577.00,35.269
578.00,35.281
579.00,35.324
580.00,35.340
581.00,35.517
582.00,35.554
583.00,35.583
584.00,35.698
585.00,35.733
586.00,35.780
587.00,35.881
588.00,35.841
589.00,35.825
590.00,35.969
591.00,35.991
592.00,35.997
593.00,35.977
594.00,36.123
595.00,36.147
596.00,36.201
597.00,36.268
598.00,36.352
599.00,36.343
600.00,36.425
601.00,36.397
602.00,36.324
603.00,36.459
604.00,36.513
605.00,36.669
606.00,36.624
607.00,36.663
608.00,36.838
609.00,36.916
610.00,36.820
611.00,36.838
612.00,36.896
613.00,36.985
614.00,37.022
615.00,37.092
616.00,37.198
617.00,37.177
618.00,37.172
619.00,37.282
620.00,37.333
621.00,37.395
622.00,37.451
623.00,37.487
624.00,37.586
625.00,37.686
626.00,37.676
627.00,37.773
628.00,37.784
629.00,37.852
630.00,37.926
631.00,37.951
632.00,38.103
633.00,38.163
634.00,38.283
635.00,38.371
636.00,38.459
637.00,38.404
638.00,38.541
639.00,38.664
640.00,38.703
641.00,38.789
642.00,38.892
643.00,38.857
644.00,39.012
645.00,39.079
646.00,39.234
647.00,39.243
648.00,39.349
649.00,39.322
650.00,39.397
651.00,39.576
652.00,39.646
653.00,39.620
654.00,39.743
655.00,39.882
656.00,40.161
657.00,40.211
658.00,39.858
659.00,40.499
660.00,40.449
661.00,40.427
662.00,40.444
663.00,40.690
664.00,40.868
665.00,41.069
666.00,41.090
667.00,41.130
668.00,41.215
669.00,41.337
670.00,41.595
671.00,41.424
672.00,41.590
673.00,41.735
674.00,41.802
675.00,41.835
676.00,42.041
677.00,42.211
678.00,42.035
679.00,42.229
680.00,42.373
681.00,42.553
682.00,42.612
683.00,42.563
684.00,42.803
685.00,42.873
686.00,42.824
687.00,42.982
688.00,43.017
689.00,43.051
690.00,43.412
691.00,43.607
692.00,43.358
693.00,43.364
694.00,43.581
695.00,43.853
696.00,43.875
697.00,43.788
698.00,43.932
699.00,44.217
700.00,44.274
701.00,44.306
702.00,44.361
703.00,44.537
704.00,44.593
705.00,44.559
706.00,44.676
707.00,44.732
708.00,44.693
709.00,45.034
710.00,45.395
711.00,44.870
712.00,44.953
713.00,45.396
714.00,45.516
715.00,45.433
716.00,45.388
717.00,45.544
718.00,45.704
719.00,45.729
720.00,45.782
721.00,50.169
722.00,50.253
723.00,50.277
724.00,50.311
725.00,50.298
726.00,50.341
727.00,50.395
728.00,50.391
729.00,50.456
730.00,50.456
731.00,50.480
732.00,50.600
733.00,50.628
734.00,50.603
735.00,50.716
736.00,50.687
737.00,50.719
738.00,50.793
739.00,50.796
740.00,50.898
741.00,50.879
742.00,50.895
743.00,50.937
744.00,50.901
745.00,50.962
746.00,50.956
747.00,50.988
748.00,50.945
749.00,50.968
750.00,51.046
751.00,50.978
752.00,51.067
753.00,51.103
754.00,51.049
755.00,51.026
756.00,51.091
757.00,51.050
758.00,51.135
759.00,51.129
760.00,51.151
761.00,51.167
762.00,51.154
763.00,51.210
764.00,51.218
765.00,51.262
766.00,51.298
767.00,51.346
768.00,51.344
769.00,51.251
770.00,51.354
771.00,51.290
772.00,51.368
773.00,51.295
774.00,51.306
775.00,51.395
776.00,51.348
777.00,51.351
778.00,51.393
779.00,51.469
780.00,51.360
781.00,51.390
782.00,51.394
783.00,51.374
784.00,51.415
785.00,51.316
786.00,51.427
787.00,51.400
788.00,51.429
789.00,51.421
790.00,51.335
791.00,51.445
792.00,51.301
793.00,51.287
794.00,51.322
795.00,51.284
796.00,51.331
797.00,51.253
798.00,51.323
799.00,51.205
800.00,51.213
801.00,51.257
802.00,51.214
803.00,51.290
804.00,51.215
805.00,51.184
806.00,51.145
807.00,51.189
808.00,51.218
809.00,51.169
810.00,51.136
811.00,51.180
812.00,51.235
813.00,51.160
814.00,51.138
815.00,51.097
816.00,51.128
817.00,51.132
818.00,51.080
819.00,51.134
820.00,51.006
821.00,51.002
822.00,50.973
823.00,51.017
824.00,51.038
825.00,50.930
826.00,50.971
827.00,50.991
828.00,50.963
829.00,50.946
830.00,51.002
831.00,53.220
832.00,53.283
833.00,53.212
834.00,53.205
835.00,53.174
836.00,53.144
837.00,53.152
838.00,53.118
839.00,53.114
840.00,53.074
841.00,53.124
842.00,53.072
843.00,53.048
844.00,53.058
845.00,53.032
846.00,53.038
847.00,53.015
848.00,52.959
849.00,52.891
850.00,52.901
851.00,52.873
852.00,52.881
853.00,52.754
854.00,52.825
855.00,52.723
856.00,52.725
857.00,52.676
858.00,52.674
859.00,52.641
860.00,52.629
861.00,52.651
862.00,52.653
863.00,52.598
864.00,52.579
865.00,52.595
866.00,52.597
867.00,52.566
868.00,52.566
869.00,52.544
870.00,52.561
871.00,52.548
872.00,52.526
873.00,52.475
874.00,52.665
875.00,52.467
876.00,52.457
877.00,52.450
878.00,52.458
879.00,52.439
880.00,52.434
881.00,52.385
882.00,52.422
883.00,52.369
884.00,52.352
885.00,52.335
886.00,52.329
887.00,52.311
888.00,52.260
889.00,52.351
890.00,52.202
891.00,52.294
892.00,52.237
893.00,52.176
894.00,52.180
895.00,52.139
896.00,52.126
897.00,52.112
898.00,52.075
899.00,52.082
900.00,52.098
901.00,52.227
902.00,52.075
903.00,52.039
904.00,52.028
905.00,52.017
906.00,52.006
907.00,51.954
908.00,51.941
909.00,51.919
910.00,51.897
911.00,51.885
912.00,51.886
913.00,51.857
914.00,51.817
915.00,51.808
916.00,51.813
917.00,51.737
918.00,51.766
919.00,51.733
920.00,51.718
921.00,51.724
922.00,51.679
923.00,51.673
924.00,51.642
925.00,51.631
926.00,51.617
927.00,51.563
928.00,51.493
929.00,51.633
930.00,51.534
931.00,51.514
932.00,51.477
933.00,51.499
934.00,51.492
935.00,51.453
936.00,51.424
937.00,51.415
938.00,51.410
939.00,51.374
940.00,51.355
941.00,51.362
942.00,51.329
943.00,51.316
944.00,51.342
945.00,51.298
946.00,51.269
947.00,51.210
948.00,51.194
949.00,51.204
950.00,51.173
951.00,51.148
952.00,51.132
953.00,51.098
954.00,51.079
955.00,51.020
956.00,51.015
957.00,50.974
958.00,50.979
959.00,50.952
960.00,50.944
961.00,50.927
962.00,50.929
963.00,50.909
964.00,50.904
965.00,50.901
966.00,50.888
967.00,50.872
968.00,50.848
969.00,50.911
970.00,50.853
971.00,50.861
972.00,50.815
973.00,50.882
974.00,50.868
975.00,50.842
976.00,50.877
977.00,50.875
978.00,50.902
979.00,50.851
980.00,50.839
981.00,50.854
982.00,50.826
983.00,50.821
984.00,50.828
985.00,50.822
986.00,50.774
987.00,50.840
988.00,50.773
989.00,50.770
990.00,50.817
991.00,50.752
992.00,50.777
993.00,50.732
994.00,50.714
995.00,50.704
996.00,50.706
997.00,50.699
998.00,50.674
999.00,50.676
1000.00,50.628
1001.00,50.634
1002.00,50.628
1003.00,50.625
1004.00,50.576
1005.00,50.553
1006.00,50.595
1007.00,50.560
1008.00,50.557
1009.00,50.529
1010.00,50.524
1011.00,50.520
1012.00,50.495
1013.00,50.476
1014.00,50.453
1015.00,50.472
1016.00,50.424
1017.00,50.433
1018.00,50.426
1019.00,50.389
1020.00,50.385
1021.00,50.359
1022.00,50.368
1023.00,50.327
1024.00,50.310
1025.00,50.308
1026.00,50.304
1027.00,50.270
1028.00,50.275
1029.00,50.251
1030.00,50.210
1031.00,50.223
1032.00,50.183
1033.00,50.196
1034.00,50.172
1035.00,50.139
1036.00,50.147
1037.00,50.101
1038.00,50.077
1039.00,50.041
1040.00,50.041
1041.00,50.010
1042.00,50.016
1043.00,49.989
1044.00,50.020
1045.00,50.014
1046.00,49.979
1047.00,50.015
1048.00,50.042
1049.00,50.027
1050.00,50.041
1051.00,50.102
1052.00,50.070
1053.00,50.073
1054.00,50.058
1055.00,50.095
1056.00,50.092
1057.00,50.076
1058.00,50.079
1059.00,50.086
1060.00,50.088
1061.00,50.075
1062.00,50.076
1063.00,50.081
1064.00,50.065
1065.00,50.044
1066.00,50.070
1067.00,50.053
1068.00,50.066
1069.00,50.056
1070.00,50.020
1071.00,49.999
1072.00,50.034
1073.00,50.001
1074.00,49.997
1075.00,49.992
1076.00,49.991
1077.00,49.975
1078.00,49.961
1079.00,49.958
1080.00,49.974
1081.00,49.949
1082.00,49.934
1083.00,49.942
1084.00,49.929
1085.00,49.924
1086.00,49.924
1087.00,49.909
1088.00,49.903
1089.00,49.893
1090.00,49.885
1091.00,49.896
1092.00,49.888
1093.00,49.867
1094.00,49.840
1095.00,49.838
1096.00,49.817
1097.00,49.831
1098.00,49.799
1099.00,49.788
1100.00,49.789
1101.00,49.777
1102.00,49.782
1103.00,49.780
1104.00,49.764
1105.00,49.756
1106.00,49.748
1107.00,49.750
1108.00,49.747
1109.00,49.733
1110.00,49.726
1111.00,49.725
1112.00,49.715
1113.00,49.708
1114.00,49.681
1115.00,49.675
1116.00,49.674
1117.00,49.659
1118.00,49.643
1119.00,49.659
1120.00,49.637
1121.00,49.629
1122.00,49.610
1123.00,49.601
1124.00,49.640
1125.00,49.653
1126.00,49.605
1127.00,49.600
1128.00,49.587
1129.00,49.568
1130.00,49.574
1131.00,49.562
1132.00,49.582
1133.00,49.596
1134.00,49.564
1135.00,49.555
1136.00,49.557
1137.00,49.546
1138.00,49.541
1139.00,49.538
1140.00,49.521
1141.00,49.512
1142.00,49.497
1143.00,49.529
1144.00,49.511
1145.00,49.502
1146.00,49.514
1147.00,49.518
1148.00,49.491
1149.00,49.515
1150.00,49.505
1151.00,49.505
1152.00,49.503
1153.00,49.497
1154.00,49.485
1155.00,49.502
1156.00,49.468
1157.00,49.493
1158.00,49.478
1159.00,49.479
1160.00,49.481
1161.00,49.499
1162.00,49.481
1163.00,49.499
1164.00,49.495
1165.00,49.492
1166.00,49.499
1167.00,49.475
1168.00,49.501
1169.00,49.483
1170.00,49.473
1171.00,49.467
1172.00,49.472
1173.00,49.465
1174.00,49.475
1175.00,49.460
1176.00,49.465
1177.00,49.456
1178.00,49.446
1179.00,49.486
1180.00,49.470
1181.00,49.468
1182.00,49.466
1183.00,49.459
1184.00,49.444
1185.00,49.467
1186.00,49.442
1187.00,49.459
1188.00,49.470
1189.00,49.451
1190.00,49.449
1191.00,49.441
1192.00,49.458
1193.00,49.459
1194.00,49.465
1195.00,49.438
1196.00,49.481
1197.00,49.464
1198.00,49.468
1199.00,49.465
1200.00,49.456
1201.00,49.472
1202.00,49.445
1203.00,49.446
1204.00,49.436
1205.00,49.459
1206.00,49.448
1207.00,49.453
1208.00,49.435
1209.00,49.459
1210.00,49.461
1211.00,49.438
1212.00,49.465
1213.00,49.432
1214.00,49.442
1215.00,49.425
1216.00,49.468
1217.00,49.446
1218.00,49.464
1219.00,49.497
1220.00,49.444
1221.00,49.467
1222.00,49.437
1223.00,49.471
1224.00,49.466
1225.00,49.444
1226.00,49.469
1227.00,49.464
1228.00,49.476
1229.00,49.485
1230.00,49.489
1231.00,49.501
1232.00,49.533
1233.00,49.519
1234.00,49.527
1235.00,49.529
1236.00,49.525
1237.00,49.537
1238.00,49.539
1239.00,49.538
1240.00,49.531
1241.00,49.536
1242.00,49.553
1243.00,49.571
1244.00,49.531
1245.00,49.586
1246.00,49.584
1247.00,49.558
1248.00,49.570
1249.00,49.575
1250.00,49.592
1251.00,49.587
1252.00,49.602
1253.00,49.586
1254.00,49.618
1255.00,49.593
1256.00,49.592
1257.00,49.584
1258.00,49.624
1259.00,49.633
1260.00,49.630
1261.00,49.624
1262.00,49.637
1263.00,49.624
1264.00,49.651
1265.00,49.657
1266.00,49.648
1267.00,49.662
1268.00,49.664
1269.00,49.657
1270.00,49.684
1271.00,49.680
1272.00,49.685
1273.00,49.709
1274.00,49.699
1275.00,49.716
1276.00,49.713
1277.00,49.702
1278.00,49.721
1279.00,49.728
1280.00,49.702
1281.00,49.733
1282.00,49.752
1283.00,49.746
1284.00,49.761
1285.00,49.753
1286.00,49.769
1287.00,49.766
1288.00,49.748
1289.00,49.756
1290.00,49.783
1291.00,49.763
1292.00,49.794
1293.00,49.771
1294.00,49.795
1295.00,49.823
1296.00,49.821
1297.00,49.840
1298.00,49.889
1299.00,49.843
1300.00,49.862
1301.00,49.859
1302.00,49.879
1303.00,49.868
1304.00,49.860
1305.00,49.887
1306.00,49.898
1307.00,49.888
1308.00,49.917
1309.00,49.950
1310.00,49.900
1311.00,49.914
1312.00,49.928
1313.00,49.932
1314.00,49.951
1315.00,49.961
1316.00,49.962
1317.00,49.994
1318.00,49.977
1319.00,49.991
1320.00,49.992
1321.00,50.171
1322.00,50.164
1323.00,50.157
1324.00,50.137
1325.00,50.130
1326.00,50.165
1327.00,50.141
1328.00,50.149
1329.00,50.141
1330.00,50.150
1331.00,50.157
1332.00,50.142
1333.00,50.156
1334.00,50.190
1335.00,50.182
1336.00,50.223
1337.00,50.266
1338.00,50.340
1339.00,50.353
1340.00,50.424
1341.00,50.481
1342.00,50.568
1343.00,50.613
1344.00,50.656
1345.00,50.729
1346.00,50.747
1347.00,50.778
1348.00,50.800
1349.00,50.817
1350.00,50.839
1351.00,50.853
1352.00,50.869
1353.00,50.867
1354.00,50.874
1355.00,50.850
1356.00,50.910
1357.00,50.888
1358.00,50.958
1359.00,50.958
1360.00,51.000
1361.00,50.966
1362.00,50.865
1363.00,50.949
1364.00,51.022
1365.00,50.908
1366.00,51.014
1367.00,50.961
1368.00,50.888
1369.00,50.984
1370.00,50.926
1371.00,50.862
1372.00,50.905
1373.00,50.949
1374.00,50.953
1375.00,50.942
1376.00,50.938
1377.00,50.930
1378.00,51.056
1379.00,50.951
1380.00,50.956
1381.00,50.976
1382.00,50.900
1383.00,50.965
1384.00,50.891
1385.00,50.887
1386.00,51.010
1387.00,50.915
1388.00,50.813
1389.00,50.756
1390.00,50.917
1391.00,50.883
1392.00,50.901
1393.00,50.992
1394.00,50.961
1395.00,50.841
1396.00,50.855
1397.00,50.963
1398.00,50.984
1399.00,50.933
1400.00,50.829
1401.00,50.886
1402.00,50.993
1403.00,50.963
1404.00,50.929
1405.00,50.968
1406.00,50.994
1407.00,50.970
1408.00,50.971
1409.00,50.979
1410.00,51.025
1411.00,51.006
1412.00,51.090
1413.00,51.011
1414.00,50.976
1415.00,51.037
1416.00,51.059
1417.00,51.108
1418.00,51.057
1419.00,51.065
1420.00,51.100
1421.00,51.176
1422.00,51.158
1423.00,51.155
1424.00,51.168
1425.00,51.198
1426.00,51.191
1427.00,51.227
1428.00,51.228
1429.00,51.233
1430.00,51.269
1431.00,51.270
1432.00,51.291
1433.00,51.311
1434.00,51.301
1435.00,51.376
1436.00,51.382
1437.00,51.370
1438.00,51.399
1439.00,51.433
1440.00,51.449
1441.00,51.466
1442.00,51.454
1443.00,51.486
1444.00,51.553
1445.00,51.496
1446.00,51.529
1447.00,51.563
1448.00,51.591
1449.00,51.584
1450.00,51.584
1451.00,51.616
1452.00,51.654
1453.00,51.641
1454.00,51.670
1455.00,51.706
1456.00,51.703
1457.00,51.732
1458.00,51.776
1459.00,51.772
1460.00,51.820
1461.00,51.814
1462.00,51.869
1463.00,51.835
1464.00,51.840
1465.00,51.860
1466.00,51.872
1467.00,51.893
1468.00,51.960
1469.00,51.937
1470.00,51.950
1471.00,51.981
1472.00,51.983
1473.00,51.986
1474.00,52.038
1475.00,52.052
1476.00,52.056
1477.00,52.055
1478.00,52.071
1479.00,52.104
1480.00,52.098
1481.00,52.101
1482.00,52.137
1483.00,52.158
1484.00,52.154
1485.00,52.177
1486.00,52.187
1487.00,52.208
1488.00,52.239
1489.00,52.218
1490.00,52.252
1491.00,52.267
1492.00,52.274
1493.00,52.258
1494.00,52.299
1495.00,52.275
1496.00,52.318
1497.00,52.279
1498.00,52.292
1499.00,52.331
1500.00,52.341
1501.00, 
1502.00, 
1503.00, 
1504.00, 
1505.00, 
1506.00, 
1507.00, 
1508.00, 
1509.00, 
1510.00, 
1511.00, 
1512.00, 
1513.00, 
1514.00, 
1515.00, 
1516.00, 
1517.00, 
1518.00, 
1519.00, 
1520.00, 
1521.00, 
1522.00, 
1523.00, 
1524.00, 
1525.00, 
1526.00, 
1527.00, 
1528.00, 
1529.00, 
1530.00, 
1531.00, 
1532.00, 
1533.00, 
1534.00, 
1535.00, 
1536.00, 
1537.00, 
1538.00, 
1539.00, 
1540.00, 
1541.00, 
1542.00, 
1543.00, 
1544.00, 
1545.00, 
1546.00, 
1547.00, 
1548.00, 
1549.00, 
1550.00, 
1551.00, 
1552.00, 
1553.00, 
1554.00, 
1555.00, 
1556.00, 
1557.00, 
1558.00, 
1559.00, 
1560.00, 
1561.00, 
1562.00, 
1563.00, 
1564.00, 
1565.00, 
1566.00, 
1567.00, 
1568.00, 
1569.00, 
1570.00, 
1571.00, 
1572.00, 
1573.00, 
1574.00, 
1575.00, 
1576.00, 
1577.00, 
1578.00, 
1579.00, 
1580.00, 
1581.00, 
1582.00, 
1583.00, 
1584.00, 
1585.00, 
1586.00, 
1587.00, 
1588.00, 
1589.00, 
1590.00, 
1591.00, 
1592.00, 
1593.00, 
1594.00, 
1595.00, 
1596.00, 
1597.00, 
1598.00, 
1599.00, 
1600.00, 
1601.00, 
1602.00, 
1603.00, 
1604.00, 
1605.00, 
1606.00, 
1607.00, 
1608.00, 
1609.00, 
1610.00, 
1611.00, 
1612.00, 
1613.00, 
1614.00, 
1615.00, 
1616.00, 
1617.00, 
1618.00, 
1619.00, 
1620.00, 
1621.00, 
1622.00, 
1623.00, 
1624.00, 
1625.00, 
1626.00, 
1627.00, 
1628.00, 
1629.00, 
1630.00, 
1631.00, 
1632.00, 
1633.00, 
1634.00, 
1635.00, 
1636.00, 
1637.00, 
1638.00, 
1639.00, 
1640.00, 
1641.00, 
1642.00, 
1643.00, 
1644.00, 
1645.00, 
1646.00, 
1647.00, 
1648.00, 
1649.00, 
1650.00, 
1651.00, 
1652.00, 
1653.00, 
1654.00, 
1655.00, 
1656.00, 
1657.00, 
1658.00, 
1659.00, 
1660.00, 
1661.00, 
1662.00, 
1663.00, 
1664.00, 
1665.00, 
1666.00, 
1667.00, 
1668.00, 
1669.00, 
1670.00, 
1671.00, 
1672.00, 
1673.00, 
1674.00, 
1675.00, 
1676.00, 
1677.00, 
1678.00, 
1679.00, 
1680.00, 
1681.00, 
1682.00, 
1683.00, 
1684.00, 
1685.00, 
1686.00, 
1687.00, 
1688.00, 
1689.00, 
1690.00, 
1691.00, 
1692.00, 
1693.00, 
1694.00, 
1695.00, 
1696.00, 
1697.00, 
1698.00, 
1699.00, 
1700.00, 
1701.00, 
1702.00, 
1703.00, 
1704.00, 
1705.00, 
1706.00, 
1707.00, 
1708.00, 
1709.00, 
1710.00, 
1711.00, 
1712.00, 
1713.00, 
1714.00, 
1715.00, 
1716.00, 
1717.00, 
1718.00, 
1719.00, 
1720.00, 
1721.00, 
1722.00, 
1723.00, 
1724.00, 
1725.00, 
1726.00, 
1727.00, 
1728.00, 
1729.00, 
1730.00, 
1731.00, 
1732.00, 
1733.00, 
1734.00, 
1735.00, 
1736.00, 
1737.00, 
1738.00, 
1739.00, 
1740.00, 
1741.00, 
1742.00, 
1743.00, 
1744.00, 
1745.00, 
1746.00, 
1747.00, 
1748.00, 
1749.00, 
1750.00, 
1751.00, 
1752.00, 
1753.00, 
1754.00, 
1755.00, 
1756.00, 
1757.00, 
1758.00, 
1759.00, 
1760.00, 
1761.00, 
1762.00, 
1763.00, 
1764.00, 
1765.00, 
1766.00, 
1767.00, 
1768.00, 
1769.00, 
1770.00, 
1771.00, 
1772.00, 
1773.00, 
1774.00, 
1775.00, 
1776.00, 
1777.00, 
1778.00, 
1779.00, 
1780.00, 
1781.00, 
1782.00, 
1783.00, 
1784.00, 
1785.00, 
1786.00, 
1787.00, 
1788.00, 
1789.00, 
1790.00, 
1791.00, 
1792.00, 
1793.00, 
1794.00, 
1795.00, 
1796.00, 
1797.00, 
1798.00, 
1799.00, 
1800.00, 
1801.00, 
1802.00, 
1803.00, 
1804.00, 
1805.00, 
1806.00, 
1807.00, 
1808.00, 
1809.00, 
1810.00, 
1811.00, 
1812.00, 
1813.00, 
1814.00, 
1815.00, 
1816.00, 
1817.00, 
1818.00, 
1819.00, 
1820.00, 
1821.00, 
1822.00, 
1823.00, 
1824.00, 
1825.00, 
1826.00, 
1827.00, 
1828.00, 
1829.00, 
1830.00, 
1831.00, 
1832.00, 
1833.00, 
1834.00, 
1835.00, 
1836.00, 
1837.00, 
1838.00, 
1839.00, 
1840.00, 
1841.00, 
1842.00, 
1843.00, 
1844.00, 
1845.00, 
1846.00, 
1847.00, 
1848.00, 
1849.00, 
1850.00, 
1851.00, 
1852.00, 
1853.00, 
1854.00, 
1855.00, 
1856.00, 
1857.00, 
1858.00, 
1859.00, 
1860.00, 
1861.00, 
1862.00, 
1863.00, 
1864.00, 
1865.00, 
1866.00, 
1867.00, 
1868.00, 
1869.00, 
1870.00, 
1871.00, 
1872.00, 
1873.00, 
1874.00, 
1875.00, 
1876.00, 
1877.00, 
1878.00, 
1879.00, 
1880.00, 
1881.00, 
1882.00, 
1883.00, 
1884.00, 
1885.00, 
1886.00, 
1887.00, 
1888.00, 
1889.00, 
1890.00, 
1891.00, 
1892.00, 
1893.00, 
1894.00, 
1895.00, 
1896.00, 
1897.00, 
1898.00, 
1899.00, 
1900.00, 
1901.00, 
1902.00, 
1903.00, 
1904.00, 
1905.00, 
1906.00, 
1907.00, 
1908.00, 
1909.00, 
1910.00, 
1911.00, 
1912.00, 
1913.00, 
1914.00, 
1915.00, 
1916.00, 
1917.00, 
1918.00, 
1919.00, 
1920.00, 
1921.00, 
1922.00, 
1923.00, 
1924.00, 
1925.00, 
1926.00, 
1927.00, 
1928.00, 
1929.00, 
1930.00, 
1931.00, 
1932.00, 
1933.00, 
1934.00, 
1935.00, 
1936.00, 
1937.00, 
1938.00, 
1939.00, 
1940.00, 
1941.00, 
1942.00, 
1943.00, 
1944.00, 
1945.00, 
1946.00, 
1947.00, 
1948.00, 
1949.00, 
1950.00, 
1951.00, 
1952.00, 
1953.00, 
1954.00, 
1955.00, 
1956.00, 
1957.00, 
1958.00, 
1959.00, 
1960.00, 
1961.00, 
1962.00, 
1963.00, 
1964.00, 
1965.00, 
1966.00, 
1967.00, 
1968.00, 
1969.00, 
1970.00, 
1971.00, 
1972.00, 
1973.00, 
1974.00, 
1975.00, 
1976.00, 
1977.00, 
1978.00, 
1979.00, 
1980.00, 
1981.00, 
1982.00, 
1983.00, 
1984.00, 
1985.00, 
1986.00, 
1987.00, 
1988.00, 
1989.00, 
1990.00, 
1991.00, 
1992.00, 
1993.00, 
1994.00, 
1995.00, 
1996.00, 
1997.00, 
1998.00, 
1999.00, 
2000.00, 
2001.00, 
2002.00, 
2003.00, 
2004.00, 
2005.00, 
2006.00, 
2007.00, 
2008.00, 
2009.00, 
2010.00, 
2011.00, 
2012.00, 
2013.00, 
2014.00, 
2015.00, 
2016.00, 
2017.00, 
2018.00, 
2019.00, 
2020.00, 
2021.00, 
2022.00, 
2023.00, 
2024.00, 
2025.00, 
2026.00, 
2027.00, 
2028.00, 
2029.00, 
2030.00, 
2031.00, 
2032.00, 
2033.00, 
2034.00, 
2035.00, 
2036.00, 
2037.00, 
2038.00, 
2039.00, 
2040.00, 
2041.00, 
2042.00, 
2043.00, 
2044.00, 
2045.00, 
2046.00, 
2047.00, 
2048.00, 
2049.00, 
2050.00, 
2051.00, 
2052.00, 
2053.00, 
2054.00, 
2055.00, 
2056.00, 
2057.00, 
2058.00, 
2059.00, 
2060.00, 
2061.00, 
2062.00, 
2063.00, 
2064.00, 
2065.00, 
2066.00, 
2067.00, 
2068.00, 
2069.00, 
2070.00, 
2071.00, 
2072.00, 
2073.00, 
2074.00, 
2075.00, 
2076.00, 
2077.00, 
2078.00, 
2079.00, 
2080.00, 
2081.00, 
2082.00, 
2083.00, 
2084.00, 
2085.00, 
2086.00, 
2087.00, 
2088.00, 
2089.00, 
2090.00, 
2091.00, 
2092.00, 
2093.00, 
2094.00, 
2095.00, 
2096.00, 
2097.00, 
2098.00, 
2099.00, 
2100.00, 
2101.00, 
2102.00, 
2103.00, 
2104.00, 
2105.00, 
2106.00, 
2107.00, 
2108.00, 
2109.00, 
2110.00, 
2111.00, 
2112.00, 
2113.00, 
2114.00, 
2115.00, 
2116.00, 
2117.00, 
2118.00, 
2119.00, 
2120.00, 
2121.00, 
2122.00, 
2123.00, 
2124.00, 
2125.00, 
2126.00, 
2127.00, 
2128.00, 
2129.00, 
2130.00, 
2131.00, 
2132.00, 
2133.00, 
2134.00, 
2135.00, 
2136.00, 
2137.00, 
2138.00, 
2139.00, 
2140.00, 
2141.00, 
2142.00, 
2143.00, 
2144.00, 
2145.00, 
2146.00, 
2147.00, 
2148.00, 
2149.00, 
2150.00, 
2151.00, 
2152.00, 
2153.00, 
2154.00, 
2155.00, 
2156.00, 
2157.00, 
2158.00, 
2159.00, 
2160.00, 
2161.00, 
2162.00, 
2163.00, 
2164.00, 
2165.00, 
2166.00, 
2167.00, 
2168.00, 
2169.00, 
2170.00, 
2171.00, 
2172.00, 
2173.00, 
2174.00, 
2175.00, 
2176.00, 
2177.00, 
2178.00, 
2179.00, 
2180.00, 
2181.00, 
2182.00, 
2183.00, 
2184.00, 
2185.00, 
2186.00, 
2187.00, 
2188.00, 
2189.00, 
2190.00, 
2191.00, 
2192.00, 
2193.00, 
2194.00, 
2195.00, 
2196.00, 
2197.00, 
2198.00, 
2199.00, 
2200.00, 
2201.00, 
2202.00, 
2203.00, 
2204.00, 
2205.00, 
2206.00, 
2207.00, 
2208.00, 
2209.00, 
2210.00, 
2211.00, 
2212.00, 
2213.00, 
2214.00, 
2215.00, 
2216.00, 
2217.00, 
2218.00, 
2219.00, 
2220.00, 
2221.00, 
2222.00, 
2223.00, 
2224.00, 
2225.00, 
2226.00, 
2227.00, 
2228.00, 
2229.00, 
2230.00, 
2231.00, 
2232.00, 
2233.00, 
2234.00, 
2235.00, 
2236.00, 
2237.00, 
2238.00, 
2239.00, 
2240.00, 
2241.00, 
2242.00, 
2243.00, 
2244.00, 
2245.00, 
2246.00, 
2247.00, 
2248.00, 
2249.00, 
2250.00, 
2251.00, 
2252.00, 
2253.00, 
2254.00, 
2255.00, 
2256.00, 
2257.00, 
2258.00, 
2259.00, 
2260.00, 
2261.00, 
2262.00, 
2263.00, 
2264.00, 
2265.00, 
2266.00, 
2267.00, 
2268.00, 
2269.00, 
2270.00, 
2271.00, 
2272.00, 
2273.00, 
2274.00, 
2275.00, 
2276.00, 
2277.00, 
2278.00, 
2279.00, 
2280.00, 
2281.00, 
2282.00, 
2283.00, 
2284.00, 
2285.00, 
2286.00, 
2287.00, 
2288.00, 
2289.00, 
2290.00, 
2291.00, 
2292.00, 
2293.00, 
2294.00, 
2295.00, 
2296.00, 
2297.00, 
2298.00, 
2299.00, 
2300.00, 
2301.00, 
2302.00, 
2303.00, 
2304.00, 
2305.00, 
2306.00, 
2307.00, 
2308.00, 
2309.00, 
2310.00, 
2311.00, 
2312.00, 
2313.00, 
2314.00, 
2315.00, 
2316.00, 
2317.00, 
2318.00, 
2319.00, 
2320.00, 
2321.00, 
2322.00, 
2323.00, 
2324.00, 
2325.00, 
2326.00, 
2327.00, 
2328.00, 
2329.00, 
2330.00, 
2331.00, 
2332.00, 
2333.00, 
2334.00, 
2335.00, 
2336.00, 
2337.00, 
2338.00, 
2339.00, 
2340.00, 
2341.00, 
2342.00, 
2343.00, 
2344.00, 
2345.00, 
2346.00, 
2347.00, 
2348.00, 
2349.00, 
2350.00, 
2351.00, 
2352.00, 
2353.00, 
2354.00, 
2355.00, 
2356.00, 
2357.00, 
2358.00, 
2359.00, 
2360.00, 
2361.00, 
2362.00, 
2363.00, 
2364.00, 
2365.00, 
2366.00, 
2367.00, 
2368.00, 
2369.00, 
2370.00, 
2371.00, 
2372.00, 
2373.00, 
2374.00, 
2375.00, 
2376.00, 
2377.00, 
2378.00, 
2379.00, 
2380.00, 
2381.00, 
2382.00, 
2383.00, 
2384.00, 
2385.00, 
2386.00, 
2387.00, 
2388.00, 
2389.00, 
2390.00, 
2391.00, 
2392.00, 
2393.00, 
2394.00, 
2395.00, 
2396.00, 
2397.00, 
2398.00, 
2399.00, 
2400.00, 
2401.00, 
2402.00, 
2403.00, 
2404.00, 
2405.00, 
2406.00, 
2407.00, 
2408.00, 
2409.00, 
2410.00, 
2411.00, 
2412.00, 
2413.00, 
2414.00, 
2415.00, 
2416.00, 
2417.00, 
2418.00, 
2419.00, 
2420.00, 
2421.00, 
2422.00, 
2423.00, 
2424.00, 
2425.00, 
2426.00, 
2427.00, 
2428.00, 
2429.00, 
2430.00, 
2431.00, 
2432.00, 
2433.00, 
2434.00, 
2435.00, 
2436.00, 
2437.00, 
2438.00, 
2439.00, 
2440.00, 
2441.00, 
2442.00, 
2443.00, 
2444.00, 
2445.00, 
2446.00, 
2447.00, 
2448.00, 
2449.00, 
2450.00, 
2451.00, 
2452.00, 
2453.00, 
2454.00, 
2455.00, 
2456.00, 
2457.00, 
2458.00, 
2459.00, 
2460.00, 
2461.00, 
2462.00, 
2463.00, 
2464.00, 
2465.00, 
2466.00, 
2467.00, 
2468.00, 
2469.00, 
2470.00, 
2471.00, 
2472.00, 
2473.00, 
2474.00, 
2475.00, 
2476.00, 
2477.00, 
2478.00, 
2479.00, 
2480.00, 
2481.00, 
2482.00, 
2483.00, 
2484.00, 
2485.00, 
2486.00, 
2487.00, 
2488.00, 
2489.00, 
2490.00, 
2491.00, 
2492.00, 
2493.00, 
2494.00, 
2495.00, 
2496.00, 
2497.00, 
2498.00, 
2499.00, 
2500.00, 
2501.00, 
2502.00, 
2503.00, 
2504.00, 
2505.00, 
2506.00, 
2507.00, 
2508.00, 
2509.00, 
2510.00, 
2511.00, 
2512.00, 
2513.00, 
2514.00, 
2515.00, 
2516.00, 
2517.00, 
2518.00, 
2519.00, 
2520.00, 
2521.00, 
2522.00, 
2523.00, 
2524.00, 
2525.00, 
2526.00, 
2527.00, 
2528.00, 
2529.00, 
2530.00, 
2531.00, 
2532.00, 
2533.00, 
2534.00, 
2535.00, 
2536.00, 
2537.00, 
2538.00, 
2539.00, 
2540.00, 
2541.00, 
2542.00, 
2543.00, 
2544.00, 
2545.00, 
2546.00, 
2547.00, 
2548.00, 
2549.00, 
2550.00, 
2551.00, 
2552.00, 
2553.00, 
2554.00, 
2555.00, 
2556.00, 
2557.00, 
2558.00, 
2559.00, 
2560.00, 
2561.00, 
2562.00, 
2563.00, 
2564.00, 
2565.00, 
2566.00, 
2567.00, 
2568.00, 
2569.00, 
2570.00, 
2571.00, 
2572.00, 
2573.00, 
2574.00, 
2575.00, 
2576.00, 
2577.00, 
2578.00, 
2579.00, 
2580.00, 
2581.00, 
2582.00, 
2583.00, 
2584.00, 
2585.00, 
2586.00, 
2587.00, 
2588.00, 
2589.00, 
2590.00, 
2591.00, 
2592.00, 
2593.00, 
2594.00, 
2595.00, 
2596.00, 
2597.00, 
2598.00, 
2599.00, 
2600.00, 
