"1cP5 - RawData"
"Wavelength nm.","T%"
200.00,-0.001
201.00,0.003
202.00,0.008
203.00,0.002
204.00,0.002
205.00,0.001
206.00,-0.001
207.00,0.004
208.00,-0.001
209.00,0.002
210.00,0.003
211.00,0.003
212.00,0.001
213.00,-0.001
214.00,0.002
215.00,-0.000
216.00,-0.001
217.00,0.002
218.00,0.002
219.00,0.002
220.00,0.002
221.00,0.002
222.00,-0.002
223.00,-0.000
224.00,0.001
225.00,0.003
226.00,-0.002
227.00,-0.000
228.00,-0.001
229.00,-0.001
230.00,0.003
231.00,0.000
232.00,0.002
233.00,0.001
234.00,-0.002
235.00,-0.000
236.00,0.000
237.00,0.001
238.00,0.002
239.00,0.001
240.00,-0.003
241.00,0.002
242.00,-0.001
243.00,0.002
244.00,0.002
245.00,-0.001
246.00,0.000
247.00,0.000
248.00,0.000
249.00,-0.000
250.00,0.000
251.00,-0.000
252.00,0.002
253.00,-0.002
254.00,0.000
255.00,0.001
256.00,0.002
257.00,0.001
258.00,-0.001
259.00,-0.000
260.00,-0.000
261.00,0.002
262.00,-0.001
263.00,0.001
264.00,0.002
265.00,-0.001
266.00,-0.002
267.00,0.001
268.00,-0.000
269.00,0.000
270.00,0.000
271.00,-0.000
272.00,0.001
273.00,0.002
274.00,0.001
275.00,-0.001
276.00,-0.000
277.00,-0.001
278.00,0.001
279.00,0.001
280.00,0.002
281.00,-0.000
282.00,0.001
283.00,0.002
284.00,-0.000
285.00,0.001
286.00,0.002
287.00,-0.001
288.00,-0.001
289.00,-0.000
290.00,0.001
291.00,0.001
292.00,0.001
293.00,0.003
294.00,0.000
295.00,-0.000
296.00,0.002
297.00,-0.000
298.00,-0.000
299.00,0.000
300.00,-0.000
301.00,-0.001
302.00,0.001
303.00,0.002
304.00,0.001
305.00,0.000
306.00,0.002
307.00,0.004
308.00,0.006
309.00,0.009
310.00,0.018
311.00,0.027
312.00,0.041
313.00,0.058
314.00,0.097
315.00,0.139
316.00,0.193
317.00,0.277
318.00,0.377
319.00,0.503
320.00,0.672
321.00,0.863
322.00,1.109
323.00,1.399
324.00,1.729
325.00,2.080
326.00,2.453
327.00,2.927
328.00,3.423
329.00,3.940
330.00,4.496
331.00,5.089
332.00,5.694
333.00,6.394
334.00,7.058
335.00,7.743
336.00,8.430
337.00,9.162
338.00,9.843
339.00,10.492
340.00,11.189
341.00,11.876
342.00,12.521
343.00,13.110
344.00,13.715
345.00,14.337
346.00,14.897
347.00,15.405
348.00,15.827
349.00,16.384
350.00,16.806
351.00,17.247
352.00,17.584
353.00,17.989
354.00,18.302
355.00,18.678
356.00,18.945
357.00,19.198
358.00,19.458
359.00,19.773
360.00,20.025
361.00,20.257
362.00,20.365
363.00,20.521
364.00,20.607
365.00,20.718
366.00,20.821
367.00,20.971
368.00,20.995
369.00,21.066
370.00,21.133
371.00,21.113
372.00,21.099
373.00,21.093
374.00,21.090
375.00,21.072
376.00,20.944
377.00,20.874
378.00,20.776
379.00,20.657
380.00,20.686
381.00,20.628
382.00,20.665
383.00,20.670
384.00,20.682
385.00,20.724
386.00,20.760
387.00,20.887
388.00,20.926
389.00,20.977
390.00,20.978
391.00,21.029
392.00,21.089
393.00,21.101
394.00,21.138
395.00,21.157
396.00,21.170
397.00,21.199
398.00,21.258
399.00,21.169
400.00,21.166
401.00,21.157
402.00,21.188
403.00,21.151
404.00,21.128
405.00,21.118
406.00,21.107
407.00,21.045
408.00,21.030
409.00,21.006
410.00,20.940
411.00,20.962
412.00,20.943
413.00,20.918
414.00,20.881
415.00,20.878
416.00,20.945
417.00,20.896
418.00,20.946
419.00,21.067
420.00,21.078
421.00,21.046
422.00,21.104
423.00,21.174
424.00,21.261
425.00,21.163
426.00,21.238
427.00,21.265
428.00,21.317
429.00,21.359
430.00,21.411
431.00,21.481
432.00,21.501
433.00,21.529
434.00,21.607
435.00,21.675
436.00,21.739
437.00,21.810
438.00,21.889
439.00,21.920
440.00,21.986
441.00,22.061
442.00,22.150
443.00,22.242
444.00,22.331
445.00,22.410
446.00,22.512
447.00,22.596
448.00,22.709
449.00,22.833
450.00,22.925
451.00,23.003
452.00,23.106
453.00,23.241
454.00,23.323
455.00,23.460
456.00,23.614
457.00,23.710
458.00,23.798
459.00,23.948
460.00,24.064
461.00,24.206
462.00,24.323
463.00,24.486
464.00,24.592
465.00,24.732
466.00,24.864
467.00,25.012
468.00,25.096
469.00,25.205
470.00,25.317
471.00,25.402
472.00,25.537
473.00,25.618
474.00,25.755
475.00,25.888
476.00,25.972
477.00,26.109
478.00,26.238
479.00,26.445
480.00,26.522
481.00,26.664
482.00,26.784
483.00,26.964
484.00,27.162
485.00,27.282
486.00,27.446
487.00,27.615
488.00,27.720
489.00,27.930
490.00,28.044
491.00,28.188
492.00,28.436
493.00,28.594
494.00,28.590
495.00,28.749
496.00,28.879
497.00,28.996
498.00,29.129
499.00,29.268
500.00,29.428
501.00,29.508
502.00,29.671
503.00,29.810
504.00,29.868
505.00,30.018
506.00,30.107
507.00,30.223
508.00,30.373
509.00,30.531
510.00,30.646
511.00,30.736
512.00,30.905
513.00,31.071
514.00,31.156
515.00,31.287
516.00,31.418
517.00,31.493
518.00,31.595
519.00,31.693
520.00,31.797
521.00,31.878
522.00,31.891
523.00,31.955
524.00,32.099
525.00,32.222
526.00,32.381
527.00,32.427
528.00,32.470
529.00,32.650
530.00,32.830
531.00,32.925
532.00,33.032
533.00,33.142
534.00,33.191
535.00,33.274
536.00,33.432
537.00,33.488
538.00,33.552
539.00,33.674
540.00,33.762
541.00,33.740
542.00,33.790
543.00,33.843
544.00,33.940
545.00,34.005
546.00,34.041
547.00,34.114
548.00,34.266
549.00,34.341
550.00,34.338
551.00,34.437
552.00,34.544
553.00,34.545
554.00,34.748
555.00,34.792
556.00,34.772
557.00,34.843
558.00,34.928
559.00,34.947
560.00,35.049
561.00,35.109
562.00,35.152
563.00,35.173
564.00,35.259
565.00,35.246
566.00,35.236
567.00,35.306
568.00,35.291
569.00,35.462
570.00,35.507
571.00,35.533
572.00,35.574
573.00,35.531
574.00,35.591
575.00,35.624
576.00,35.600
577.00,35.640
578.00,35.743
579.00,35.874
580.00,35.852
581.00,35.970
582.00,36.049
583.00,36.009
584.00,36.194
585.00,36.251
586.00,36.264
587.00,36.319
588.00,36.364
589.00,36.308
590.00,36.359
591.00,36.458
592.00,36.408
593.00,36.442
594.00,36.561
595.00,36.608
596.00,36.671
597.00,36.714
598.00,36.832
599.00,36.809
600.00,36.854
601.00,36.903
602.00,36.912
603.00,36.990
604.00,36.976
605.00,37.056
606.00,37.037
607.00,37.119
608.00,37.299
609.00,37.358
610.00,37.230
611.00,37.286
612.00,37.351
613.00,37.386
614.00,37.483
615.00,37.522
616.00,37.639
617.00,37.588
618.00,37.576
619.00,37.702
620.00,37.801
621.00,37.774
622.00,37.859
623.00,37.934
624.00,37.988
625.00,38.073
626.00,38.099
627.00,38.159
628.00,38.134
629.00,38.171
630.00,38.273
631.00,38.294
632.00,38.392
633.00,38.568
634.00,38.569
635.00,38.651
636.00,38.723
637.00,38.749
638.00,38.772
639.00,38.931
640.00,38.981
641.00,38.979
642.00,39.114
643.00,39.189
644.00,39.291
645.00,39.329
646.00,39.494
647.00,39.532
648.00,39.598
649.00,39.634
650.00,39.630
651.00,39.779
652.00,39.891
653.00,39.928
654.00,40.035
655.00,40.161
656.00,40.423
657.00,40.304
658.00,40.450
659.00,40.504
660.00,40.594
661.00,40.618
662.00,40.644
663.00,40.764
664.00,41.024
665.00,41.237
666.00,41.124
667.00,41.254
668.00,41.302
669.00,41.586
670.00,41.762
671.00,41.675
672.00,41.718
673.00,41.854
674.00,41.977
675.00,42.049
676.00,42.311
677.00,42.361
678.00,42.140
679.00,42.305
680.00,42.520
681.00,42.747
682.00,42.677
683.00,42.679
684.00,42.976
685.00,42.928
686.00,42.840
687.00,42.988
688.00,43.154
689.00,43.257
690.00,43.491
691.00,43.745
692.00,43.488
693.00,43.515
694.00,43.736
695.00,43.855
696.00,43.978
697.00,43.899
698.00,43.992
699.00,44.389
700.00,44.373
701.00,44.294
702.00,44.437
703.00,44.624
704.00,44.735
705.00,44.645
706.00,44.832
707.00,44.823
708.00,44.671
709.00,45.103
710.00,45.541
711.00,45.064
712.00,45.144
713.00,45.339
714.00,45.423
715.00,45.453
716.00,45.351
717.00,45.569
718.00,45.719
719.00,45.655
720.00,45.874
721.00,50.214
722.00,50.276
723.00,50.213
724.00,50.250
725.00,50.221
726.00,50.331
727.00,50.343
728.00,50.331
729.00,50.433
730.00,50.458
731.00,50.502
732.00,50.548
733.00,50.596
734.00,50.591
735.00,50.684
736.00,50.702
737.00,50.680
738.00,50.700
739.00,50.795
740.00,50.824
741.00,50.846
742.00,50.813
743.00,50.798
744.00,50.865
745.00,50.876
746.00,50.911
747.00,50.939
748.00,50.865
749.00,50.965
750.00,50.964
751.00,50.967
752.00,50.975
753.00,50.962
754.00,50.986
755.00,50.954
756.00,50.993
757.00,51.049
758.00,50.976
759.00,51.019
760.00,51.052
761.00,51.047
762.00,51.091
763.00,51.192
764.00,51.104
765.00,51.153
766.00,51.176
767.00,51.230
768.00,51.130
769.00,51.162
770.00,51.288
771.00,51.225
772.00,51.232
773.00,51.213
774.00,51.267
775.00,51.235
776.00,51.183
777.00,51.325
778.00,51.263
779.00,51.411
780.00,51.333
781.00,51.314
782.00,51.326
783.00,51.361
784.00,51.292
785.00,51.232
786.00,51.366
787.00,51.228
788.00,51.244
789.00,51.271
790.00,51.276
791.00,51.266
792.00,51.248
793.00,51.220
794.00,51.220
795.00,51.176
796.00,51.202
797.00,51.161
798.00,51.171
799.00,51.183
800.00,51.174
801.00,51.117
802.00,51.121
803.00,51.113
804.00,51.100
805.00,51.074
806.00,51.016
807.00,51.091
808.00,51.146
809.00,50.998
810.00,51.049
811.00,51.053
812.00,51.077
813.00,50.996
814.00,51.036
815.00,50.977
816.00,51.014
817.00,50.899
818.00,50.882
819.00,50.974
820.00,50.955
821.00,50.840
822.00,50.918
823.00,50.862
824.00,50.914
825.00,50.741
826.00,50.760
827.00,50.826
828.00,50.914
829.00,50.909
830.00,50.828
831.00,53.150
832.00,53.130
833.00,53.081
834.00,53.107
835.00,53.047
836.00,53.057
837.00,53.078
838.00,53.047
839.00,53.050
840.00,52.989
841.00,53.002
842.00,52.942
843.00,52.927
844.00,52.982
845.00,52.893
846.00,52.907
847.00,52.901
848.00,52.872
849.00,52.776
850.00,52.809
851.00,52.735
852.00,52.792
853.00,52.722
854.00,52.668
855.00,52.722
856.00,52.669
857.00,52.635
858.00,52.573
859.00,52.569
860.00,52.591
861.00,52.572
862.00,52.498
863.00,52.531
864.00,52.485
865.00,52.499
866.00,52.474
867.00,52.461
868.00,52.514
869.00,52.450
870.00,52.437
871.00,52.472
872.00,52.442
873.00,52.433
874.00,52.416
875.00,52.383
876.00,52.377
877.00,52.257
878.00,52.384
879.00,52.353
880.00,52.324
881.00,52.305
882.00,52.362
883.00,52.263
884.00,52.233
885.00,52.228
886.00,52.274
887.00,52.201
888.00,52.137
889.00,52.166
890.00,52.142
891.00,52.123
892.00,52.082
893.00,52.064
894.00,52.079
895.00,52.044
896.00,52.059
897.00,52.025
898.00,51.997
899.00,51.991
900.00,51.965
901.00,51.976
902.00,51.993
903.00,51.944
904.00,51.907
905.00,51.934
906.00,51.904
907.00,51.880
908.00,51.825
909.00,51.817
910.00,51.814
911.00,51.807
912.00,51.790
913.00,51.722
914.00,51.745
915.00,51.708
916.00,51.679
917.00,51.667
918.00,51.656
919.00,51.624
920.00,51.581
921.00,51.596
922.00,51.612
923.00,51.569
924.00,51.520
925.00,51.515
926.00,51.666
927.00,51.474
928.00,51.462
929.00,51.460
930.00,51.431
931.00,51.413
932.00,51.371
933.00,51.392
934.00,51.370
935.00,51.334
936.00,51.339
937.00,51.325
938.00,51.319
939.00,51.304
940.00,51.257
941.00,51.288
942.00,51.249
943.00,51.232
944.00,51.184
945.00,51.195
946.00,51.180
947.00,51.160
948.00,51.118
949.00,51.090
950.00,51.074
951.00,51.062
952.00,51.057
953.00,51.008
954.00,50.985
955.00,50.949
956.00,50.936
957.00,50.907
958.00,50.911
959.00,50.853
960.00,50.836
961.00,50.822
962.00,50.814
963.00,50.781
964.00,50.769
965.00,50.774
966.00,50.765
967.00,50.771
968.00,50.738
969.00,50.764
970.00,50.741
971.00,50.762
972.00,50.695
973.00,50.764
974.00,50.785
975.00,50.746
976.00,50.759
977.00,50.751
978.00,50.801
979.00,50.739
980.00,50.769
981.00,50.766
982.00,50.716
983.00,50.738
984.00,50.721
985.00,50.730
986.00,50.667
987.00,50.759
988.00,50.690
989.00,50.700
990.00,50.682
991.00,50.676
992.00,50.670
993.00,50.624
994.00,50.615
995.00,50.585
996.00,50.592
997.00,50.572
998.00,50.541
999.00,50.578
1000.00,50.549
1001.00,50.542
1002.00,50.580
1003.00,50.519
1004.00,50.488
1005.00,50.461
1006.00,50.494
1007.00,50.465
1008.00,50.445
1009.00,50.425
1010.00,50.437
1011.00,50.433
1012.00,50.380
1013.00,50.401
1014.00,50.381
1015.00,50.386
1016.00,50.344
1017.00,50.341
1018.00,50.329
1019.00,50.306
1020.00,50.305
1021.00,50.290
1022.00,50.282
1023.00,50.223
1024.00,50.234
1025.00,50.202
1026.00,50.184
1027.00,50.176
1028.00,50.151
1029.00,50.163
1030.00,50.116
1031.00,50.133
1032.00,50.109
1033.00,50.097
1034.00,50.066
1035.00,50.051
1036.00,50.020
1037.00,49.998
1038.00,50.001
1039.00,49.944
1040.00,49.951
1041.00,49.923
1042.00,49.905
1043.00,49.903
1044.00,49.943
1045.00,49.920
1046.00,49.914
1047.00,49.944
1048.00,49.967
1049.00,49.960
1050.00,49.962
1051.00,49.988
1052.00,49.981
1053.00,49.982
1054.00,49.984
1055.00,50.002
1056.00,50.008
1057.00,50.016
1058.00,49.990
1059.00,49.996
1060.00,50.024
1061.00,49.980
1062.00,49.979
1063.00,49.989
1064.00,49.978
1065.00,49.965
1066.00,49.965
1067.00,49.952
1068.00,49.983
1069.00,49.933
1070.00,49.906
1071.00,49.897
1072.00,49.913
1073.00,49.899
1074.00,49.909
1075.00,49.869
1076.00,49.893
1077.00,49.869
1078.00,49.849
1079.00,49.868
1080.00,49.860
1081.00,49.840
1082.00,49.836
1083.00,49.821
1084.00,49.814
1085.00,49.821
1086.00,49.803
1087.00,49.808
1088.00,49.792
1089.00,49.766
1090.00,49.779
1091.00,49.778
1092.00,49.760
1093.00,49.767
1094.00,49.766
1095.00,49.742
1096.00,49.720
1097.00,49.716
1098.00,49.711
1099.00,49.703
1100.00,49.685
1101.00,49.703
1102.00,49.682
1103.00,49.669
1104.00,49.671
1105.00,49.646
1106.00,49.643
1107.00,49.639
1108.00,49.628
1109.00,49.649
1110.00,49.619
1111.00,49.594
1112.00,49.595
1113.00,49.592
1114.00,49.575
1115.00,49.588
1116.00,49.557
1117.00,49.550
1118.00,49.544
1119.00,49.538
1120.00,49.545
1121.00,49.553
1122.00,49.517
1123.00,49.536
1124.00,49.513
1125.00,49.523
1126.00,49.514
1127.00,49.500
1128.00,49.497
1129.00,49.493
1130.00,49.470
1131.00,49.465
1132.00,49.435
1133.00,49.498
1134.00,49.452
1135.00,49.448
1136.00,49.434
1137.00,49.453
1138.00,49.437
1139.00,49.445
1140.00,49.449
1141.00,49.436
1142.00,49.426
1143.00,49.443
1144.00,49.398
1145.00,49.418
1146.00,49.398
1147.00,49.389
1148.00,49.390
1149.00,49.403
1150.00,49.409
1151.00,49.423
1152.00,49.414
1153.00,49.410
1154.00,49.404
1155.00,49.407
1156.00,49.392
1157.00,49.385
1158.00,49.370
1159.00,49.389
1160.00,49.369
1161.00,49.388
1162.00,49.394
1163.00,49.379
1164.00,49.397
1165.00,49.391
1166.00,49.380
1167.00,49.389
1168.00,49.388
1169.00,49.372
1170.00,49.394
1171.00,49.360
1172.00,49.373
1173.00,49.379
1174.00,49.364
1175.00,49.365
1176.00,49.381
1177.00,49.359
1178.00,49.372
1179.00,49.389
1180.00,49.374
1181.00,49.408
1182.00,49.373
1183.00,49.369
1184.00,49.368
1185.00,49.377
1186.00,49.364
1187.00,49.365
1188.00,49.351
1189.00,49.361
1190.00,49.353
1191.00,49.348
1192.00,49.381
1193.00,49.348
1194.00,49.357
1195.00,49.335
1196.00,49.372
1197.00,49.373
1198.00,49.355
1199.00,49.352
1200.00,49.386
1201.00,49.389
1202.00,49.359
1203.00,49.371
1204.00,49.347
1205.00,49.374
1206.00,49.365
1207.00,49.346
1208.00,49.346
1209.00,49.363
1210.00,49.366
1211.00,49.366
1212.00,49.382
1213.00,49.336
1214.00,49.369
1215.00,49.337
1216.00,49.352
1217.00,49.363
1218.00,49.335
1219.00,49.369
1220.00,49.358
1221.00,49.366
1222.00,49.369
1223.00,49.387
1224.00,49.385
1225.00,49.378
1226.00,49.391
1227.00,49.379
1228.00,49.403
1229.00,49.402
1230.00,49.430
1231.00,49.428
1232.00,49.427
1233.00,49.443
1234.00,49.447
1235.00,49.440
1236.00,49.446
1237.00,49.445
1238.00,49.438
1239.00,49.455
1240.00,49.416
1241.00,49.437
1242.00,49.460
1243.00,49.450
1244.00,49.465
1245.00,49.498
1246.00,49.466
1247.00,49.452
1248.00,49.440
1249.00,49.467
1250.00,49.494
1251.00,49.460
1252.00,49.489
1253.00,49.488
1254.00,49.502
1255.00,49.500
1256.00,49.498
1257.00,49.482
1258.00,49.532
1259.00,49.501
1260.00,49.527
1261.00,49.522
1262.00,49.511
1263.00,49.524
1264.00,49.537
1265.00,49.516
1266.00,49.523
1267.00,49.541
1268.00,49.545
1269.00,49.561
1270.00,49.568
1271.00,49.582
1272.00,49.583
1273.00,49.591
1274.00,49.594
1275.00,49.615
1276.00,49.596
1277.00,49.625
1278.00,49.633
1279.00,49.623
1280.00,49.626
1281.00,49.626
1282.00,49.644
1283.00,49.642
1284.00,49.647
1285.00,49.655
1286.00,49.680
1287.00,49.665
1288.00,49.671
1289.00,49.689
1290.00,49.697
1291.00,49.699
1292.00,49.707
1293.00,49.709
1294.00,49.737
1295.00,49.735
1296.00,49.744
1297.00,49.754
1298.00,49.772
1299.00,49.761
1300.00,49.765
1301.00,49.750
1302.00,49.784
1303.00,49.775
1304.00,49.770
1305.00,49.793
1306.00,49.791
1307.00,49.803
1308.00,49.793
1309.00,49.785
1310.00,49.855
1311.00,49.804
1312.00,49.800
1313.00,49.824
1314.00,49.831
1315.00,49.855
1316.00,49.869
1317.00,49.888
1318.00,49.893
1319.00,49.906
1320.00,49.894
1321.00,50.080
1322.00,50.073
1323.00,50.048
1324.00,50.057
1325.00,50.046
1326.00,50.056
1327.00,50.046
1328.00,50.037
1329.00,50.031
1330.00,50.056
1331.00,50.034
1332.00,50.042
1333.00,50.060
1334.00,50.114
1335.00,50.105
1336.00,50.151
1337.00,50.170
1338.00,50.243
1339.00,50.267
1340.00,50.328
1341.00,50.399
1342.00,50.455
1343.00,50.509
1344.00,50.543
1345.00,50.599
1346.00,50.626
1347.00,50.659
1348.00,50.674
1349.00,50.701
1350.00,50.723
1351.00,50.744
1352.00,50.782
1353.00,50.756
1354.00,50.777
1355.00,50.784
1356.00,50.761
1357.00,50.779
1358.00,50.825
1359.00,50.768
1360.00,50.783
1361.00,50.820
1362.00,50.855
1363.00,50.848
1364.00,50.782
1365.00,50.803
1366.00,50.892
1367.00,50.801
1368.00,50.845
1369.00,50.831
1370.00,50.812
1371.00,50.815
1372.00,50.824
1373.00,50.814
1374.00,50.855
1375.00,50.823
1376.00,50.826
1377.00,50.804
1378.00,50.853
1379.00,50.847
1380.00,50.855
1381.00,50.814
1382.00,50.784
1383.00,50.834
1384.00,50.821
1385.00,50.864
1386.00,50.843
1387.00,50.825
1388.00,50.797
1389.00,50.798
1390.00,50.809
1391.00,50.862
1392.00,50.767
1393.00,50.811
1394.00,50.822
1395.00,50.803
1396.00,50.786
1397.00,50.813
1398.00,50.780
1399.00,50.821
1400.00,50.839
1401.00,50.826
1402.00,50.835
1403.00,50.827
1404.00,50.867
1405.00,50.849
1406.00,50.907
1407.00,50.871
1408.00,50.877
1409.00,50.884
1410.00,50.923
1411.00,50.889
1412.00,50.971
1413.00,50.914
1414.00,50.908
1415.00,50.944
1416.00,50.928
1417.00,50.952
1418.00,50.973
1419.00,50.976
1420.00,50.995
1421.00,51.054
1422.00,51.028
1423.00,51.068
1424.00,51.069
1425.00,51.086
1426.00,51.099
1427.00,51.126
1428.00,51.117
1429.00,51.148
1430.00,51.141
1431.00,51.181
1432.00,51.199
1433.00,51.209
1434.00,51.223
1435.00,51.264
1436.00,51.262
1437.00,51.258
1438.00,51.296
1439.00,51.323
1440.00,51.367
1441.00,51.364
1442.00,51.354
1443.00,51.382
1444.00,51.438
1445.00,51.405
1446.00,51.425
1447.00,51.438
1448.00,51.492
1449.00,51.493
1450.00,51.508
1451.00,51.521
1452.00,51.533
1453.00,51.551
1454.00,51.576
1455.00,51.582
1456.00,51.619
1457.00,51.603
1458.00,51.634
1459.00,51.665
1460.00,51.695
1461.00,51.683
1462.00,51.731
1463.00,51.711
1464.00,51.731
1465.00,51.752
1466.00,51.753
1467.00,51.783
1468.00,51.845
1469.00,51.792
1470.00,51.835
1471.00,51.847
1472.00,51.853
1473.00,51.889
1474.00,51.908
1475.00,51.926
1476.00,51.947
1477.00,51.909
1478.00,51.961
1479.00,51.986
1480.00,51.953
1481.00,51.985
1482.00,52.007
1483.00,52.025
1484.00,52.038
1485.00,52.043
1486.00,52.074
1487.00,52.085
1488.00,52.107
1489.00,52.105
1490.00,52.138
1491.00,52.121
1492.00,52.161
1493.00,52.153
1494.00,52.186
1495.00,52.180
1496.00,52.199
1497.00,52.182
1498.00,52.226
1499.00,52.216
1500.00,52.254
1501.00, 
1502.00, 
1503.00, 
1504.00, 
1505.00, 
1506.00, 
1507.00, 
1508.00, 
1509.00, 
1510.00, 
1511.00, 
1512.00, 
1513.00, 
1514.00, 
1515.00, 
1516.00, 
1517.00, 
1518.00, 
1519.00, 
1520.00, 
1521.00, 
1522.00, 
1523.00, 
1524.00, 
1525.00, 
1526.00, 
1527.00, 
1528.00, 
1529.00, 
1530.00, 
1531.00, 
1532.00, 
1533.00, 
1534.00, 
1535.00, 
1536.00, 
1537.00, 
1538.00, 
1539.00, 
1540.00, 
1541.00, 
1542.00, 
1543.00, 
1544.00, 
1545.00, 
1546.00, 
1547.00, 
1548.00, 
1549.00, 
1550.00, 
1551.00, 
1552.00, 
1553.00, 
1554.00, 
1555.00, 
1556.00, 
1557.00, 
1558.00, 
1559.00, 
1560.00, 
1561.00, 
1562.00, 
1563.00, 
1564.00, 
1565.00, 
1566.00, 
1567.00, 
1568.00, 
1569.00, 
1570.00, 
1571.00, 
1572.00, 
1573.00, 
1574.00, 
1575.00, 
1576.00, 
1577.00, 
1578.00, 
1579.00, 
1580.00, 
1581.00, 
1582.00, 
1583.00, 
1584.00, 
1585.00, 
1586.00, 
1587.00, 
1588.00, 
1589.00, 
1590.00, 
1591.00, 
1592.00, 
1593.00, 
1594.00, 
1595.00, 
1596.00, 
1597.00, 
1598.00, 
1599.00, 
1600.00, 
1601.00, 
1602.00, 
1603.00, 
1604.00, 
1605.00, 
1606.00, 
1607.00, 
1608.00, 
1609.00, 
1610.00, 
1611.00, 
1612.00, 
1613.00, 
1614.00, 
1615.00, 
1616.00, 
1617.00, 
1618.00, 
1619.00, 
1620.00, 
1621.00, 
1622.00, 
1623.00, 
1624.00, 
1625.00, 
1626.00, 
1627.00, 
1628.00, 
1629.00, 
1630.00, 
1631.00, 
1632.00, 
1633.00, 
1634.00, 
1635.00, 
1636.00, 
1637.00, 
1638.00, 
1639.00, 
1640.00, 
1641.00, 
1642.00, 
1643.00, 
1644.00, 
1645.00, 
1646.00, 
1647.00, 
1648.00, 
1649.00, 
1650.00, 
1651.00, 
1652.00, 
1653.00, 
1654.00, 
1655.00, 
1656.00, 
1657.00, 
1658.00, 
1659.00, 
1660.00, 
1661.00, 
1662.00, 
1663.00, 
1664.00, 
1665.00, 
1666.00, 
1667.00, 
1668.00, 
1669.00, 
1670.00, 
1671.00, 
1672.00, 
1673.00, 
1674.00, 
1675.00, 
1676.00, 
1677.00, 
1678.00, 
1679.00, 
1680.00, 
1681.00, 
1682.00, 
1683.00, 
1684.00, 
1685.00, 
1686.00, 
1687.00, 
1688.00, 
1689.00, 
1690.00, 
1691.00, 
1692.00, 
1693.00, 
1694.00, 
1695.00, 
1696.00, 
1697.00, 
1698.00, 
1699.00, 
1700.00, 
1701.00, 
1702.00, 
1703.00, 
1704.00, 
1705.00, 
1706.00, 
1707.00, 
1708.00, 
1709.00, 
1710.00, 
1711.00, 
1712.00, 
1713.00, 
1714.00, 
1715.00, 
1716.00, 
1717.00, 
1718.00, 
1719.00, 
1720.00, 
1721.00, 
1722.00, 
1723.00, 
1724.00, 
1725.00, 
1726.00, 
1727.00, 
1728.00, 
1729.00, 
1730.00, 
1731.00, 
1732.00, 
1733.00, 
1734.00, 
1735.00, 
1736.00, 
1737.00, 
1738.00, 
1739.00, 
1740.00, 
1741.00, 
1742.00, 
1743.00, 
1744.00, 
1745.00, 
1746.00, 
1747.00, 
1748.00, 
1749.00, 
1750.00, 
1751.00, 
1752.00, 
1753.00, 
1754.00, 
1755.00, 
1756.00, 
1757.00, 
1758.00, 
1759.00, 
1760.00, 
1761.00, 
1762.00, 
1763.00, 
1764.00, 
1765.00, 
1766.00, 
1767.00, 
1768.00, 
1769.00, 
1770.00, 
1771.00, 
1772.00, 
1773.00, 
1774.00, 
1775.00, 
1776.00, 
1777.00, 
1778.00, 
1779.00, 
1780.00, 
1781.00, 
1782.00, 
1783.00, 
1784.00, 
1785.00, 
1786.00, 
1787.00, 
1788.00, 
1789.00, 
1790.00, 
1791.00, 
1792.00, 
1793.00, 
1794.00, 
1795.00, 
1796.00, 
1797.00, 
1798.00, 
1799.00, 
1800.00, 
1801.00, 
1802.00, 
1803.00, 
1804.00, 
1805.00, 
1806.00, 
1807.00, 
1808.00, 
1809.00, 
1810.00, 
1811.00, 
1812.00, 
1813.00, 
1814.00, 
1815.00, 
1816.00, 
1817.00, 
1818.00, 
1819.00, 
1820.00, 
1821.00, 
1822.00, 
1823.00, 
1824.00, 
1825.00, 
1826.00, 
1827.00, 
1828.00, 
1829.00, 
1830.00, 
1831.00, 
1832.00, 
1833.00, 
1834.00, 
1835.00, 
1836.00, 
1837.00, 
1838.00, 
1839.00, 
1840.00, 
1841.00, 
1842.00, 
1843.00, 
1844.00, 
1845.00, 
1846.00, 
1847.00, 
1848.00, 
1849.00, 
1850.00, 
1851.00, 
1852.00, 
1853.00, 
1854.00, 
1855.00, 
1856.00, 
1857.00, 
1858.00, 
1859.00, 
1860.00, 
1861.00, 
1862.00, 
1863.00, 
1864.00, 
1865.00, 
1866.00, 
1867.00, 
1868.00, 
1869.00, 
1870.00, 
1871.00, 
1872.00, 
1873.00, 
1874.00, 
1875.00, 
1876.00, 
1877.00, 
1878.00, 
1879.00, 
1880.00, 
1881.00, 
1882.00, 
1883.00, 
1884.00, 
1885.00, 
1886.00, 
1887.00, 
1888.00, 
1889.00, 
1890.00, 
1891.00, 
1892.00, 
1893.00, 
1894.00, 
1895.00, 
1896.00, 
1897.00, 
1898.00, 
1899.00, 
1900.00, 
1901.00, 
1902.00, 
1903.00, 
1904.00, 
1905.00, 
1906.00, 
1907.00, 
1908.00, 
1909.00, 
1910.00, 
1911.00, 
1912.00, 
1913.00, 
1914.00, 
1915.00, 
1916.00, 
1917.00, 
1918.00, 
1919.00, 
1920.00, 
1921.00, 
1922.00, 
1923.00, 
1924.00, 
1925.00, 
1926.00, 
1927.00, 
1928.00, 
1929.00, 
1930.00, 
1931.00, 
1932.00, 
1933.00, 
1934.00, 
1935.00, 
1936.00, 
1937.00, 
1938.00, 
1939.00, 
1940.00, 
1941.00, 
1942.00, 
1943.00, 
1944.00, 
1945.00, 
1946.00, 
1947.00, 
1948.00, 
1949.00, 
1950.00, 
1951.00, 
1952.00, 
1953.00, 
1954.00, 
1955.00, 
1956.00, 
1957.00, 
1958.00, 
1959.00, 
1960.00, 
1961.00, 
1962.00, 
1963.00, 
1964.00, 
1965.00, 
1966.00, 
1967.00, 
1968.00, 
1969.00, 
1970.00, 
1971.00, 
1972.00, 
1973.00, 
1974.00, 
1975.00, 
1976.00, 
1977.00, 
1978.00, 
1979.00, 
1980.00, 
1981.00, 
1982.00, 
1983.00, 
1984.00, 
1985.00, 
1986.00, 
1987.00, 
1988.00, 
1989.00, 
1990.00, 
1991.00, 
1992.00, 
1993.00, 
1994.00, 
1995.00, 
1996.00, 
1997.00, 
1998.00, 
1999.00, 
2000.00, 
2001.00, 
2002.00, 
2003.00, 
2004.00, 
2005.00, 
2006.00, 
2007.00, 
2008.00, 
2009.00, 
2010.00, 
2011.00, 
2012.00, 
2013.00, 
2014.00, 
2015.00, 
2016.00, 
2017.00, 
2018.00, 
2019.00, 
2020.00, 
2021.00, 
2022.00, 
2023.00, 
2024.00, 
2025.00, 
2026.00, 
2027.00, 
2028.00, 
2029.00, 
2030.00, 
2031.00, 
2032.00, 
2033.00, 
2034.00, 
2035.00, 
2036.00, 
2037.00, 
2038.00, 
2039.00, 
2040.00, 
2041.00, 
2042.00, 
2043.00, 
2044.00, 
2045.00, 
2046.00, 
2047.00, 
2048.00, 
2049.00, 
2050.00, 
2051.00, 
2052.00, 
2053.00, 
2054.00, 
2055.00, 
2056.00, 
2057.00, 
2058.00, 
2059.00, 
2060.00, 
2061.00, 
2062.00, 
2063.00, 
2064.00, 
2065.00, 
2066.00, 
2067.00, 
2068.00, 
2069.00, 
2070.00, 
2071.00, 
2072.00, 
2073.00, 
2074.00, 
2075.00, 
2076.00, 
2077.00, 
2078.00, 
2079.00, 
2080.00, 
2081.00, 
2082.00, 
2083.00, 
2084.00, 
2085.00, 
2086.00, 
2087.00, 
2088.00, 
2089.00, 
2090.00, 
2091.00, 
2092.00, 
2093.00, 
2094.00, 
2095.00, 
2096.00, 
2097.00, 
2098.00, 
2099.00, 
2100.00, 
2101.00, 
2102.00, 
2103.00, 
2104.00, 
2105.00, 
2106.00, 
2107.00, 
2108.00, 
2109.00, 
2110.00, 
2111.00, 
2112.00, 
2113.00, 
2114.00, 
2115.00, 
2116.00, 
2117.00, 
2118.00, 
2119.00, 
2120.00, 
2121.00, 
2122.00, 
2123.00, 
2124.00, 
2125.00, 
2126.00, 
2127.00, 
2128.00, 
2129.00, 
2130.00, 
2131.00, 
2132.00, 
2133.00, 
2134.00, 
2135.00, 
2136.00, 
2137.00, 
2138.00, 
2139.00, 
2140.00, 
2141.00, 
2142.00, 
2143.00, 
2144.00, 
2145.00, 
2146.00, 
2147.00, 
2148.00, 
2149.00, 
2150.00, 
2151.00, 
2152.00, 
2153.00, 
2154.00, 
2155.00, 
2156.00, 
2157.00, 
2158.00, 
2159.00, 
2160.00, 
2161.00, 
2162.00, 
2163.00, 
2164.00, 
2165.00, 
2166.00, 
2167.00, 
2168.00, 
2169.00, 
2170.00, 
2171.00, 
2172.00, 
2173.00, 
2174.00, 
2175.00, 
2176.00, 
2177.00, 
2178.00, 
2179.00, 
2180.00, 
2181.00, 
2182.00, 
2183.00, 
2184.00, 
2185.00, 
2186.00, 
2187.00, 
2188.00, 
2189.00, 
2190.00, 
2191.00, 
2192.00, 
2193.00, 
2194.00, 
2195.00, 
2196.00, 
2197.00, 
2198.00, 
2199.00, 
2200.00, 
2201.00, 
2202.00, 
2203.00, 
2204.00, 
2205.00, 
2206.00, 
2207.00, 
2208.00, 
2209.00, 
2210.00, 
2211.00, 
2212.00, 
2213.00, 
2214.00, 
2215.00, 
2216.00, 
2217.00, 
2218.00, 
2219.00, 
2220.00, 
2221.00, 
2222.00, 
2223.00, 
2224.00, 
2225.00, 
2226.00, 
2227.00, 
2228.00, 
2229.00, 
2230.00, 
2231.00, 
2232.00, 
2233.00, 
2234.00, 
2235.00, 
2236.00, 
2237.00, 
2238.00, 
2239.00, 
2240.00, 
2241.00, 
2242.00, 
2243.00, 
2244.00, 
2245.00, 
2246.00, 
2247.00, 
2248.00, 
2249.00, 
2250.00, 
2251.00, 
2252.00, 
2253.00, 
2254.00, 
2255.00, 
2256.00, 
2257.00, 
2258.00, 
2259.00, 
2260.00, 
2261.00, 
2262.00, 
2263.00, 
2264.00, 
2265.00, 
2266.00, 
2267.00, 
2268.00, 
2269.00, 
2270.00, 
2271.00, 
2272.00, 
2273.00, 
2274.00, 
2275.00, 
2276.00, 
2277.00, 
2278.00, 
2279.00, 
2280.00, 
2281.00, 
2282.00, 
2283.00, 
2284.00, 
2285.00, 
2286.00, 
2287.00, 
2288.00, 
2289.00, 
2290.00, 
2291.00, 
2292.00, 
2293.00, 
2294.00, 
2295.00, 
2296.00, 
2297.00, 
2298.00, 
2299.00, 
2300.00, 
2301.00, 
2302.00, 
2303.00, 
2304.00, 
2305.00, 
2306.00, 
2307.00, 
2308.00, 
2309.00, 
2310.00, 
2311.00, 
2312.00, 
2313.00, 
2314.00, 
2315.00, 
2316.00, 
2317.00, 
2318.00, 
2319.00, 
2320.00, 
2321.00, 
2322.00, 
2323.00, 
2324.00, 
2325.00, 
2326.00, 
2327.00, 
2328.00, 
2329.00, 
2330.00, 
2331.00, 
2332.00, 
2333.00, 
2334.00, 
2335.00, 
2336.00, 
2337.00, 
2338.00, 
2339.00, 
2340.00, 
2341.00, 
2342.00, 
2343.00, 
2344.00, 
2345.00, 
2346.00, 
2347.00, 
2348.00, 
2349.00, 
2350.00, 
2351.00, 
2352.00, 
2353.00, 
2354.00, 
2355.00, 
2356.00, 
2357.00, 
2358.00, 
2359.00, 
2360.00, 
2361.00, 
2362.00, 
2363.00, 
2364.00, 
2365.00, 
2366.00, 
2367.00, 
2368.00, 
2369.00, 
2370.00, 
2371.00, 
2372.00, 
2373.00, 
2374.00, 
2375.00, 
2376.00, 
2377.00, 
2378.00, 
2379.00, 
2380.00, 
2381.00, 
2382.00, 
2383.00, 
2384.00, 
2385.00, 
2386.00, 
2387.00, 
2388.00, 
2389.00, 
2390.00, 
2391.00, 
2392.00, 
2393.00, 
2394.00, 
2395.00, 
2396.00, 
2397.00, 
2398.00, 
2399.00, 
2400.00, 
2401.00, 
2402.00, 
2403.00, 
2404.00, 
2405.00, 
2406.00, 
2407.00, 
2408.00, 
2409.00, 
2410.00, 
2411.00, 
2412.00, 
2413.00, 
2414.00, 
2415.00, 
2416.00, 
2417.00, 
2418.00, 
2419.00, 
2420.00, 
2421.00, 
2422.00, 
2423.00, 
2424.00, 
2425.00, 
2426.00, 
2427.00, 
2428.00, 
2429.00, 
2430.00, 
2431.00, 
2432.00, 
2433.00, 
2434.00, 
2435.00, 
2436.00, 
2437.00, 
2438.00, 
2439.00, 
2440.00, 
2441.00, 
2442.00, 
2443.00, 
2444.00, 
2445.00, 
2446.00, 
2447.00, 
2448.00, 
2449.00, 
2450.00, 
2451.00, 
2452.00, 
2453.00, 
2454.00, 
2455.00, 
2456.00, 
2457.00, 
2458.00, 
2459.00, 
2460.00, 
2461.00, 
2462.00, 
2463.00, 
2464.00, 
2465.00, 
2466.00, 
2467.00, 
2468.00, 
2469.00, 
2470.00, 
2471.00, 
2472.00, 
2473.00, 
2474.00, 
2475.00, 
2476.00, 
2477.00, 
2478.00, 
2479.00, 
2480.00, 
2481.00, 
2482.00, 
2483.00, 
2484.00, 
2485.00, 
2486.00, 
2487.00, 
2488.00, 
2489.00, 
2490.00, 
2491.00, 
2492.00, 
2493.00, 
2494.00, 
2495.00, 
2496.00, 
2497.00, 
2498.00, 
2499.00, 
2500.00, 
2501.00, 
2502.00, 
2503.00, 
2504.00, 
2505.00, 
2506.00, 
2507.00, 
2508.00, 
2509.00, 
2510.00, 
2511.00, 
2512.00, 
2513.00, 
2514.00, 
2515.00, 
2516.00, 
2517.00, 
2518.00, 
2519.00, 
2520.00, 
2521.00, 
2522.00, 
2523.00, 
2524.00, 
2525.00, 
2526.00, 
2527.00, 
2528.00, 
2529.00, 
2530.00, 
2531.00, 
2532.00, 
2533.00, 
2534.00, 
2535.00, 
2536.00, 
2537.00, 
2538.00, 
2539.00, 
2540.00, 
2541.00, 
2542.00, 
2543.00, 
2544.00, 
2545.00, 
2546.00, 
2547.00, 
2548.00, 
2549.00, 
2550.00, 
2551.00, 
2552.00, 
2553.00, 
2554.00, 
2555.00, 
2556.00, 
2557.00, 
2558.00, 
2559.00, 
2560.00, 
2561.00, 
2562.00, 
2563.00, 
2564.00, 
2565.00, 
2566.00, 
2567.00, 
2568.00, 
2569.00, 
2570.00, 
2571.00, 
2572.00, 
2573.00, 
2574.00, 
2575.00, 
2576.00, 
2577.00, 
2578.00, 
2579.00, 
2580.00, 
2581.00, 
2582.00, 
2583.00, 
2584.00, 
2585.00, 
2586.00, 
2587.00, 
2588.00, 
2589.00, 
2590.00, 
2591.00, 
2592.00, 
2593.00, 
2594.00, 
2595.00, 
2596.00, 
2597.00, 
2598.00, 
2599.00, 
2600.00, 
