"2aP2 - RawData"
"Wavelength nm.","T%"
200.00,0.004
201.00,0.001
202.00,-0.000
203.00,0.002
204.00,0.000
205.00,0.000
206.00,0.001
207.00,0.000
208.00,0.003
209.00,0.002
210.00,0.003
211.00,0.003
212.00,0.000
213.00,0.002
214.00,0.003
215.00,0.000
216.00,0.004
217.00,0.003
218.00,0.003
219.00,0.002
220.00,0.002
221.00,0.002
222.00,0.000
223.00,0.002
224.00,0.003
225.00,0.003
226.00,-0.000
227.00,0.001
228.00,0.003
229.00,0.002
230.00,0.002
231.00,0.004
232.00,0.002
233.00,0.002
234.00,-0.001
235.00,0.004
236.00,-0.000
237.00,0.001
238.00,0.002
239.00,0.002
240.00,0.001
241.00,0.002
242.00,0.001
243.00,0.002
244.00,0.000
245.00,-0.000
246.00,0.002
247.00,0.001
248.00,0.000
249.00,0.002
250.00,0.000
251.00,0.000
252.00,0.000
253.00,0.002
254.00,0.002
255.00,0.001
256.00,0.003
257.00,-0.001
258.00,-0.001
259.00,0.001
260.00,0.001
261.00,-0.000
262.00,0.001
263.00,0.000
264.00,0.001
265.00,-0.001
266.00,-0.000
267.00,0.001
268.00,0.000
269.00,-0.001
270.00,0.000
271.00,0.003
272.00,0.002
273.00,0.000
274.00,-0.001
275.00,-0.001
276.00,0.001
277.00,0.000
278.00,-0.002
279.00,-0.000
280.00,0.000
281.00,0.001
282.00,-0.000
283.00,-0.000
284.00,-0.001
285.00,0.001
286.00,-0.000
287.00,-0.000
288.00,0.001
289.00,-0.001
290.00,0.001
291.00,0.001
292.00,0.001
293.00,-0.001
294.00,0.001
295.00,-0.001
296.00,0.001
297.00,-0.001
298.00,0.002
299.00,0.001
300.00,0.004
301.00,0.002
302.00,0.004
303.00,0.005
304.00,0.010
305.00,0.015
306.00,0.026
307.00,0.036
308.00,0.056
309.00,0.088
310.00,0.121
311.00,0.168
312.00,0.233
313.00,0.309
314.00,0.408
315.00,0.527
316.00,0.668
317.00,0.850
318.00,1.048
319.00,1.284
320.00,1.518
321.00,1.874
322.00,2.222
323.00,2.606
324.00,3.001
325.00,3.435
326.00,3.864
327.00,4.347
328.00,4.844
329.00,5.358
330.00,5.929
331.00,6.428
332.00,6.998
333.00,7.580
334.00,8.127
335.00,8.678
336.00,9.251
337.00,9.817
338.00,10.385
339.00,10.899
340.00,11.405
341.00,11.973
342.00,12.425
343.00,12.871
344.00,13.320
345.00,13.758
346.00,14.150
347.00,14.410
348.00,14.848
349.00,15.188
350.00,15.483
351.00,15.789
352.00,16.045
353.00,16.309
354.00,16.548
355.00,16.753
356.00,17.003
357.00,17.147
358.00,17.314
359.00,17.545
360.00,17.732
361.00,17.884
362.00,17.950
363.00,18.055
364.00,18.109
365.00,18.204
366.00,18.272
367.00,18.350
368.00,18.346
369.00,18.403
370.00,18.444
371.00,18.475
372.00,18.449
373.00,18.463
374.00,18.483
375.00,18.479
376.00,18.384
377.00,18.339
378.00,18.313
379.00,18.236
380.00,18.244
381.00,18.207
382.00,18.199
383.00,18.210
384.00,18.161
385.00,18.211
386.00,18.170
387.00,18.254
388.00,18.275
389.00,18.276
390.00,18.288
391.00,18.320
392.00,18.306
393.00,18.308
394.00,18.331
395.00,18.338
396.00,18.332
397.00,18.326
398.00,18.372
399.00,18.314
400.00,18.305
401.00,18.296
402.00,18.330
403.00,18.306
404.00,18.276
405.00,18.259
406.00,18.251
407.00,18.215
408.00,18.230
409.00,18.178
410.00,18.151
411.00,18.142
412.00,18.131
413.00,18.135
414.00,18.140
415.00,18.143
416.00,18.206
417.00,18.174
418.00,18.203
419.00,18.298
420.00,18.317
421.00,18.347
422.00,18.362
423.00,18.450
424.00,18.506
425.00,18.450
426.00,18.504
427.00,18.569
428.00,18.591
429.00,18.634
430.00,18.705
431.00,18.746
432.00,18.787
433.00,18.860
434.00,18.902
435.00,18.985
436.00,19.045
437.00,19.135
438.00,19.211
439.00,19.256
440.00,19.357
441.00,19.415
442.00,19.492
443.00,19.598
444.00,19.664
445.00,19.769
446.00,19.880
447.00,19.950
448.00,20.060
449.00,20.148
450.00,20.260
451.00,20.371
452.00,20.445
453.00,20.582
454.00,20.661
455.00,20.819
456.00,20.942
457.00,21.030
458.00,21.140
459.00,21.289
460.00,21.417
461.00,21.532
462.00,21.631
463.00,21.829
464.00,21.943
465.00,22.083
466.00,22.210
467.00,22.346
468.00,22.477
469.00,22.560
470.00,22.682
471.00,22.787
472.00,22.922
473.00,23.013
474.00,23.154
475.00,23.283
476.00,23.369
477.00,23.508
478.00,23.664
479.00,23.840
480.00,23.967
481.00,24.099
482.00,24.264
483.00,24.383
484.00,24.585
485.00,24.732
486.00,24.888
487.00,25.067
488.00,25.179
489.00,25.391
490.00,25.508
491.00,25.647
492.00,25.902
493.00,26.035
494.00,26.061
495.00,26.218
496.00,26.348
497.00,26.477
498.00,26.629
499.00,26.778
500.00,26.912
501.00,27.037
502.00,27.218
503.00,27.338
504.00,27.409
505.00,27.545
506.00,27.690
507.00,27.780
508.00,27.929
509.00,28.104
510.00,28.220
511.00,28.336
512.00,28.468
513.00,28.636
514.00,28.745
515.00,28.871
516.00,29.008
517.00,29.112
518.00,29.233
519.00,29.293
520.00,29.347
521.00,29.494
522.00,29.611
523.00,29.651
524.00,29.715
525.00,29.861
526.00,29.984
527.00,30.072
528.00,30.112
529.00,30.302
530.00,30.476
531.00,30.577
532.00,30.669
533.00,30.798
534.00,30.869
535.00,30.978
536.00,31.052
537.00,31.149
538.00,31.193
539.00,31.323
540.00,31.407
541.00,31.394
542.00,31.491
543.00,31.512
544.00,31.626
545.00,31.685
546.00,31.708
547.00,31.809
548.00,31.941
549.00,31.979
550.00,32.110
551.00,32.192
552.00,32.245
553.00,32.336
554.00,32.497
555.00,32.512
556.00,32.469
557.00,32.604
558.00,32.668
559.00,32.748
560.00,32.805
561.00,32.869
562.00,32.944
563.00,32.976
564.00,33.029
565.00,33.078
566.00,33.096
567.00,33.088
568.00,33.186
569.00,33.258
570.00,33.290
571.00,33.333
572.00,33.371
573.00,33.357
574.00,33.405
575.00,33.435
576.00,33.446
577.00,33.458
578.00,33.645
579.00,33.748
580.00,33.763
581.00,33.870
582.00,33.948
583.00,33.937
584.00,34.081
585.00,34.153
586.00,34.166
587.00,34.254
588.00,34.291
589.00,34.258
590.00,34.356
591.00,34.435
592.00,34.393
593.00,34.421
594.00,34.514
595.00,34.558
596.00,34.641
597.00,34.734
598.00,34.835
599.00,34.854
600.00,34.887
601.00,34.959
602.00,34.911
603.00,35.007
604.00,35.063
605.00,35.121
606.00,35.144
607.00,35.193
608.00,35.382
609.00,35.444
610.00,35.322
611.00,35.411
612.00,35.472
613.00,35.517
614.00,35.564
615.00,35.662
616.00,35.787
617.00,35.728
618.00,35.759
619.00,35.862
620.00,35.970
621.00,35.994
622.00,36.096
623.00,36.142
624.00,36.221
625.00,36.307
626.00,36.314
627.00,36.400
628.00,36.443
629.00,36.524
630.00,36.609
631.00,36.693
632.00,36.760
633.00,36.923
634.00,36.982
635.00,37.030
636.00,37.115
637.00,37.241
638.00,37.265
639.00,37.405
640.00,37.457
641.00,37.494
642.00,37.597
643.00,37.689
644.00,37.785
645.00,37.861
646.00,38.045
647.00,38.101
648.00,38.197
649.00,38.208
650.00,38.244
651.00,38.475
652.00,38.554
653.00,38.559
654.00,38.677
655.00,38.905
656.00,39.174
657.00,39.071
658.00,39.145
659.00,39.158
660.00,39.352
661.00,39.466
662.00,39.453
663.00,39.653
664.00,39.887
665.00,40.096
666.00,39.999
667.00,40.117
668.00,40.158
669.00,40.382
670.00,40.716
671.00,40.650
672.00,40.727
673.00,40.879
674.00,40.964
675.00,41.025
676.00,41.268
677.00,41.424
678.00,41.293
679.00,41.475
680.00,41.674
681.00,41.806
682.00,41.798
683.00,41.824
684.00,42.114
685.00,42.177
686.00,42.193
687.00,42.325
688.00,42.425
689.00,42.473
690.00,42.765
691.00,43.054
692.00,42.794
693.00,42.960
694.00,43.150
695.00,43.277
696.00,43.344
697.00,43.298
698.00,43.446
699.00,43.836
700.00,43.866
701.00,43.803
702.00,43.979
703.00,44.114
704.00,44.234
705.00,44.204
706.00,44.347
707.00,44.446
708.00,44.333
709.00,44.726
710.00,45.169
711.00,44.698
712.00,44.859
713.00,45.155
714.00,45.195
715.00,45.280
716.00,45.283
717.00,45.383
718.00,45.611
719.00,45.563
720.00,45.663
721.00,50.045
722.00,50.097
723.00,50.133
724.00,50.207
725.00,50.264
726.00,50.237
727.00,50.322
728.00,50.399
729.00,50.486
730.00,50.456
731.00,50.525
732.00,50.659
733.00,50.745
734.00,50.719
735.00,50.770
736.00,50.835
737.00,50.854
738.00,50.844
739.00,50.984
740.00,50.967
741.00,51.057
742.00,51.148
743.00,51.140
744.00,51.187
745.00,51.213
746.00,51.307
747.00,51.259
748.00,51.265
749.00,51.324
750.00,51.339
751.00,51.332
752.00,51.335
753.00,51.375
754.00,51.475
755.00,51.444
756.00,51.512
757.00,51.526
758.00,51.586
759.00,51.607
760.00,51.601
761.00,51.608
762.00,51.660
763.00,51.772
764.00,51.705
765.00,51.825
766.00,51.829
767.00,51.879
768.00,51.826
769.00,51.841
770.00,51.954
771.00,51.911
772.00,51.972
773.00,51.979
774.00,52.020
775.00,51.996
776.00,52.016
777.00,52.081
778.00,52.123
779.00,52.195
780.00,52.092
781.00,52.108
782.00,52.156
783.00,52.149
784.00,52.174
785.00,52.167
786.00,52.229
787.00,52.199
788.00,52.174
789.00,52.142
790.00,52.169
791.00,52.218
792.00,52.152
793.00,52.179
794.00,52.191
795.00,52.177
796.00,52.163
797.00,52.181
798.00,52.191
799.00,52.156
800.00,52.165
801.00,52.127
802.00,52.208
803.00,52.182
804.00,52.201
805.00,52.172
806.00,52.154
807.00,52.176
808.00,52.121
809.00,52.087
810.00,52.141
811.00,52.153
812.00,52.254
813.00,52.088
814.00,52.143
815.00,52.108
816.00,52.192
817.00,52.139
818.00,52.103
819.00,52.025
820.00,52.043
821.00,52.100
822.00,52.087
823.00,52.064
824.00,52.063
825.00,51.976
826.00,51.964
827.00,52.041
828.00,52.093
829.00,52.109
830.00,52.008
831.00,54.167
832.00,54.190
833.00,54.121
834.00,54.161
835.00,54.106
836.00,54.140
837.00,54.143
838.00,54.074
839.00,54.172
840.00,54.055
841.00,54.056
842.00,54.060
843.00,54.057
844.00,54.032
845.00,53.993
846.00,53.961
847.00,53.999
848.00,53.988
849.00,53.901
850.00,53.885
851.00,53.925
852.00,53.897
853.00,53.832
854.00,53.814
855.00,53.737
856.00,53.777
857.00,53.745
858.00,53.673
859.00,53.647
860.00,53.710
861.00,53.705
862.00,53.643
863.00,53.669
864.00,53.620
865.00,53.649
866.00,53.644
867.00,53.612
868.00,53.642
869.00,53.604
870.00,53.600
871.00,53.633
872.00,53.633
873.00,53.570
874.00,53.561
875.00,53.565
876.00,53.563
877.00,53.430
878.00,53.548
879.00,53.518
880.00,53.463
881.00,53.528
882.00,53.527
883.00,53.442
884.00,53.413
885.00,53.418
886.00,53.428
887.00,53.381
888.00,53.340
889.00,53.364
890.00,53.358
891.00,53.346
892.00,53.300
893.00,53.304
894.00,53.286
895.00,53.207
896.00,53.245
897.00,53.227
898.00,53.191
899.00,53.222
900.00,53.203
901.00,53.179
902.00,53.179
903.00,53.149
904.00,53.138
905.00,53.137
906.00,53.110
907.00,53.103
908.00,53.079
909.00,52.996
910.00,53.157
911.00,53.034
912.00,53.037
913.00,52.944
914.00,52.963
915.00,52.924
916.00,52.901
917.00,52.885
918.00,52.880
919.00,52.841
920.00,52.802
921.00,52.804
922.00,52.804
923.00,52.782
924.00,52.744
925.00,52.757
926.00,52.755
927.00,52.717
928.00,52.688
929.00,52.699
930.00,52.662
931.00,52.634
932.00,52.607
933.00,52.643
934.00,52.619
935.00,52.570
936.00,52.559
937.00,52.545
938.00,52.534
939.00,52.529
940.00,52.490
941.00,52.509
942.00,52.493
943.00,52.483
944.00,52.424
945.00,52.428
946.00,52.417
947.00,52.403
948.00,52.360
949.00,52.339
950.00,52.335
951.00,52.313
952.00,52.307
953.00,52.268
954.00,52.244
955.00,52.200
956.00,52.199
957.00,52.154
958.00,52.175
959.00,52.110
960.00,52.118
961.00,52.108
962.00,52.112
963.00,52.057
964.00,52.072
965.00,52.043
966.00,52.017
967.00,52.076
968.00,51.989
969.00,52.028
970.00,51.990
971.00,52.012
972.00,51.951
973.00,52.016
974.00,52.040
975.00,52.007
976.00,52.017
977.00,51.991
978.00,52.040
979.00,51.987
980.00,52.021
981.00,52.001
982.00,51.960
983.00,52.013
984.00,51.972
985.00,52.003
986.00,51.958
987.00,51.981
988.00,51.941
989.00,51.949
990.00,51.937
991.00,51.928
992.00,51.927
993.00,51.877
994.00,51.878
995.00,51.861
996.00,51.840
997.00,51.857
998.00,51.817
999.00,51.855
1000.00,51.807
1001.00,51.783
1002.00,51.783
1003.00,51.782
1004.00,51.758
1005.00,51.740
1006.00,51.764
1007.00,51.724
1008.00,51.723
1009.00,51.695
1010.00,51.700
1011.00,51.699
1012.00,51.665
1013.00,51.661
1014.00,51.615
1015.00,51.622
1016.00,51.588
1017.00,51.583
1018.00,51.568
1019.00,51.542
1020.00,51.538
1021.00,51.517
1022.00,51.503
1023.00,51.466
1024.00,51.485
1025.00,51.452
1026.00,51.422
1027.00,51.449
1028.00,51.408
1029.00,51.396
1030.00,51.353
1031.00,51.363
1032.00,51.334
1033.00,51.344
1034.00,51.306
1035.00,51.281
1036.00,51.260
1037.00,51.242
1038.00,51.242
1039.00,51.191
1040.00,51.188
1041.00,51.156
1042.00,51.147
1043.00,51.139
1044.00,51.175
1045.00,51.142
1046.00,51.137
1047.00,51.164
1048.00,51.161
1049.00,51.181
1050.00,51.177
1051.00,51.213
1052.00,51.216
1053.00,51.213
1054.00,51.204
1055.00,51.227
1056.00,51.228
1057.00,51.230
1058.00,51.217
1059.00,51.202
1060.00,51.221
1061.00,51.191
1062.00,51.185
1063.00,51.183
1064.00,51.181
1065.00,51.178
1066.00,51.175
1067.00,51.157
1068.00,51.179
1069.00,51.129
1070.00,51.120
1071.00,51.117
1072.00,51.136
1073.00,51.104
1074.00,51.105
1075.00,51.080
1076.00,51.094
1077.00,51.063
1078.00,51.035
1079.00,51.056
1080.00,51.065
1081.00,51.044
1082.00,51.039
1083.00,51.019
1084.00,51.003
1085.00,51.012
1086.00,51.000
1087.00,51.000
1088.00,50.980
1089.00,50.968
1090.00,50.974
1091.00,50.978
1092.00,50.958
1093.00,50.947
1094.00,50.918
1095.00,50.912
1096.00,50.908
1097.00,50.900
1098.00,50.893
1099.00,50.894
1100.00,50.865
1101.00,50.879
1102.00,50.854
1103.00,50.855
1104.00,50.867
1105.00,50.823
1106.00,50.801
1107.00,50.806
1108.00,50.785
1109.00,50.805
1110.00,50.807
1111.00,50.784
1112.00,50.785
1113.00,50.779
1114.00,50.757
1115.00,50.768
1116.00,50.745
1117.00,50.725
1118.00,50.717
1119.00,50.721
1120.00,50.703
1121.00,50.700
1122.00,50.662
1123.00,50.669
1124.00,50.664
1125.00,50.655
1126.00,50.650
1127.00,50.657
1128.00,50.633
1129.00,50.634
1130.00,50.609
1131.00,50.609
1132.00,50.602
1133.00,50.645
1134.00,50.594
1135.00,50.642
1136.00,50.575
1137.00,50.584
1138.00,50.576
1139.00,50.581
1140.00,50.573
1141.00,50.565
1142.00,50.548
1143.00,50.575
1144.00,50.520
1145.00,50.545
1146.00,50.534
1147.00,50.526
1148.00,50.528
1149.00,50.537
1150.00,50.532
1151.00,50.529
1152.00,50.502
1153.00,50.520
1154.00,50.510
1155.00,50.500
1156.00,50.500
1157.00,50.498
1158.00,50.482
1159.00,50.494
1160.00,50.479
1161.00,50.493
1162.00,50.503
1163.00,50.480
1164.00,50.501
1165.00,50.511
1166.00,50.481
1167.00,50.479
1168.00,50.504
1169.00,50.488
1170.00,50.492
1171.00,50.462
1172.00,50.465
1173.00,50.465
1174.00,50.447
1175.00,50.451
1176.00,50.467
1177.00,50.427
1178.00,50.448
1179.00,50.467
1180.00,50.442
1181.00,50.473
1182.00,50.441
1183.00,50.436
1184.00,50.439
1185.00,50.447
1186.00,50.435
1187.00,50.438
1188.00,50.423
1189.00,50.427
1190.00,50.420
1191.00,50.407
1192.00,50.443
1193.00,50.419
1194.00,50.427
1195.00,50.408
1196.00,50.428
1197.00,50.431
1198.00,50.419
1199.00,50.403
1200.00,50.420
1201.00,50.421
1202.00,50.404
1203.00,50.427
1204.00,50.406
1205.00,50.403
1206.00,50.399
1207.00,50.387
1208.00,50.385
1209.00,50.405
1210.00,50.401
1211.00,50.400
1212.00,50.420
1213.00,50.378
1214.00,50.415
1215.00,50.379
1216.00,50.379
1217.00,50.398
1218.00,50.364
1219.00,50.392
1220.00,50.373
1221.00,50.371
1222.00,50.378
1223.00,50.412
1224.00,50.410
1225.00,50.396
1226.00,50.394
1227.00,50.381
1228.00,50.420
1229.00,50.436
1230.00,50.422
1231.00,50.427
1232.00,50.423
1233.00,50.440
1234.00,50.437
1235.00,50.420
1236.00,50.433
1237.00,50.432
1238.00,50.430
1239.00,50.443
1240.00,50.414
1241.00,50.435
1242.00,50.438
1243.00,50.433
1244.00,50.428
1245.00,50.443
1246.00,50.442
1247.00,50.433
1248.00,50.430
1249.00,50.439
1250.00,50.460
1251.00,50.436
1252.00,50.466
1253.00,50.461
1254.00,50.468
1255.00,50.465
1256.00,50.455
1257.00,50.454
1258.00,50.508
1259.00,50.477
1260.00,50.486
1261.00,50.492
1262.00,50.473
1263.00,50.480
1264.00,50.493
1265.00,50.486
1266.00,50.499
1267.00,50.508
1268.00,50.503
1269.00,50.511
1270.00,50.515
1271.00,50.509
1272.00,50.514
1273.00,50.517
1274.00,50.522
1275.00,50.545
1276.00,50.516
1277.00,50.549
1278.00,50.552
1279.00,50.562
1280.00,50.574
1281.00,50.562
1282.00,50.568
1283.00,50.577
1284.00,50.583
1285.00,50.582
1286.00,50.592
1287.00,50.569
1288.00,50.582
1289.00,50.579
1290.00,50.593
1291.00,50.594
1292.00,50.585
1293.00,50.581
1294.00,50.607
1295.00,50.601
1296.00,50.610
1297.00,50.611
1298.00,50.631
1299.00,50.626
1300.00,50.637
1301.00,50.628
1302.00,50.663
1303.00,50.661
1304.00,50.641
1305.00,50.672
1306.00,50.659
1307.00,50.669
1308.00,50.665
1309.00,50.641
1310.00,50.725
1311.00,50.662
1312.00,50.656
1313.00,50.682
1314.00,50.692
1315.00,50.698
1316.00,50.701
1317.00,50.731
1318.00,50.737
1319.00,50.743
1320.00,50.736
1321.00,50.901
1322.00,50.892
1323.00,50.873
1324.00,50.897
1325.00,50.874
1326.00,50.875
1327.00,50.864
1328.00,50.864
1329.00,50.847
1330.00,50.860
1331.00,50.858
1332.00,50.843
1333.00,50.843
1334.00,50.873
1335.00,50.905
1336.00,50.926
1337.00,50.951
1338.00,51.040
1339.00,51.058
1340.00,51.094
1341.00,51.179
1342.00,51.235
1343.00,51.288
1344.00,51.332
1345.00,51.388
1346.00,51.433
1347.00,51.452
1348.00,51.483
1349.00,51.514
1350.00,51.519
1351.00,51.514
1352.00,51.539
1353.00,51.556
1354.00,51.553
1355.00,51.717
1356.00,51.553
1357.00,51.570
1358.00,51.593
1359.00,51.571
1360.00,51.614
1361.00,51.610
1362.00,51.566
1363.00,51.634
1364.00,51.593
1365.00,51.561
1366.00,51.622
1367.00,51.520
1368.00,51.563
1369.00,51.599
1370.00,51.548
1371.00,51.528
1372.00,51.546
1373.00,51.547
1374.00,51.576
1375.00,51.546
1376.00,51.552
1377.00,51.533
1378.00,51.585
1379.00,51.575
1380.00,51.591
1381.00,51.550
1382.00,51.476
1383.00,51.563
1384.00,51.525
1385.00,51.560
1386.00,51.556
1387.00,51.524
1388.00,51.513
1389.00,51.515
1390.00,51.556
1391.00,51.539
1392.00,51.493
1393.00,51.517
1394.00,51.523
1395.00,51.550
1396.00,51.497
1397.00,51.553
1398.00,51.539
1399.00,51.510
1400.00,51.515
1401.00,51.551
1402.00,51.610
1403.00,51.532
1404.00,51.584
1405.00,51.580
1406.00,51.615
1407.00,51.492
1408.00,51.606
1409.00,51.606
1410.00,51.652
1411.00,51.624
1412.00,51.667
1413.00,51.628
1414.00,51.634
1415.00,51.664
1416.00,51.647
1417.00,51.681
1418.00,51.677
1419.00,51.676
1420.00,51.686
1421.00,51.733
1422.00,51.713
1423.00,51.742
1424.00,51.752
1425.00,51.759
1426.00,51.758
1427.00,51.777
1428.00,51.758
1429.00,51.767
1430.00,51.770
1431.00,51.798
1432.00,51.822
1433.00,51.825
1434.00,51.841
1435.00,51.896
1436.00,51.876
1437.00,51.891
1438.00,51.909
1439.00,51.930
1440.00,51.946
1441.00,51.950
1442.00,51.960
1443.00,51.982
1444.00,52.020
1445.00,52.015
1446.00,52.023
1447.00,52.051
1448.00,52.125
1449.00,52.100
1450.00,52.088
1451.00,52.106
1452.00,52.132
1453.00,52.132
1454.00,52.153
1455.00,52.154
1456.00,52.184
1457.00,52.201
1458.00,52.209
1459.00,52.230
1460.00,52.266
1461.00,52.247
1462.00,52.290
1463.00,52.287
1464.00,52.294
1465.00,52.327
1466.00,52.310
1467.00,52.343
1468.00,52.409
1469.00,52.349
1470.00,52.378
1471.00,52.396
1472.00,52.391
1473.00,52.421
1474.00,52.435
1475.00,52.455
1476.00,52.492
1477.00,52.438
1478.00,52.473
1479.00,52.508
1480.00,52.477
1481.00,52.509
1482.00,52.544
1483.00,52.550
1484.00,52.572
1485.00,52.548
1486.00,52.563
1487.00,52.589
1488.00,52.607
1489.00,52.595
1490.00,52.630
1491.00,52.626
1492.00,52.665
1493.00,52.635
1494.00,52.662
1495.00,52.670
1496.00,52.685
1497.00,52.664
1498.00,52.704
1499.00,52.688
1500.00,52.728
1501.00, 
1502.00, 
1503.00, 
1504.00, 
1505.00, 
1506.00, 
1507.00, 
1508.00, 
1509.00, 
1510.00, 
1511.00, 
1512.00, 
1513.00, 
1514.00, 
1515.00, 
1516.00, 
1517.00, 
1518.00, 
1519.00, 
1520.00, 
1521.00, 
1522.00, 
1523.00, 
1524.00, 
1525.00, 
1526.00, 
1527.00, 
1528.00, 
1529.00, 
1530.00, 
1531.00, 
1532.00, 
1533.00, 
1534.00, 
1535.00, 
1536.00, 
1537.00, 
1538.00, 
1539.00, 
1540.00, 
1541.00, 
1542.00, 
1543.00, 
1544.00, 
1545.00, 
1546.00, 
1547.00, 
1548.00, 
1549.00, 
1550.00, 
1551.00, 
1552.00, 
1553.00, 
1554.00, 
1555.00, 
1556.00, 
1557.00, 
1558.00, 
1559.00, 
1560.00, 
1561.00, 
1562.00, 
1563.00, 
1564.00, 
1565.00, 
1566.00, 
1567.00, 
1568.00, 
1569.00, 
1570.00, 
1571.00, 
1572.00, 
1573.00, 
1574.00, 
1575.00, 
1576.00, 
1577.00, 
1578.00, 
1579.00, 
1580.00, 
1581.00, 
1582.00, 
1583.00, 
1584.00, 
1585.00, 
1586.00, 
1587.00, 
1588.00, 
1589.00, 
1590.00, 
1591.00, 
1592.00, 
1593.00, 
1594.00, 
1595.00, 
1596.00, 
1597.00, 
1598.00, 
1599.00, 
1600.00, 
1601.00, 
1602.00, 
1603.00, 
1604.00, 
1605.00, 
1606.00, 
1607.00, 
1608.00, 
1609.00, 
1610.00, 
1611.00, 
1612.00, 
1613.00, 
1614.00, 
1615.00, 
1616.00, 
1617.00, 
1618.00, 
1619.00, 
1620.00, 
1621.00, 
1622.00, 
1623.00, 
1624.00, 
1625.00, 
1626.00, 
1627.00, 
1628.00, 
1629.00, 
1630.00, 
1631.00, 
1632.00, 
1633.00, 
1634.00, 
1635.00, 
1636.00, 
1637.00, 
1638.00, 
1639.00, 
1640.00, 
1641.00, 
1642.00, 
1643.00, 
1644.00, 
1645.00, 
1646.00, 
1647.00, 
1648.00, 
1649.00, 
1650.00, 
1651.00, 
1652.00, 
1653.00, 
1654.00, 
1655.00, 
1656.00, 
1657.00, 
1658.00, 
1659.00, 
1660.00, 
1661.00, 
1662.00, 
1663.00, 
1664.00, 
1665.00, 
1666.00, 
1667.00, 
1668.00, 
1669.00, 
1670.00, 
1671.00, 
1672.00, 
1673.00, 
1674.00, 
1675.00, 
1676.00, 
1677.00, 
1678.00, 
1679.00, 
1680.00, 
1681.00, 
1682.00, 
1683.00, 
1684.00, 
1685.00, 
1686.00, 
1687.00, 
1688.00, 
1689.00, 
1690.00, 
1691.00, 
1692.00, 
1693.00, 
1694.00, 
1695.00, 
1696.00, 
1697.00, 
1698.00, 
1699.00, 
1700.00, 
1701.00, 
1702.00, 
1703.00, 
1704.00, 
1705.00, 
1706.00, 
1707.00, 
1708.00, 
1709.00, 
1710.00, 
1711.00, 
1712.00, 
1713.00, 
1714.00, 
1715.00, 
1716.00, 
1717.00, 
1718.00, 
1719.00, 
1720.00, 
1721.00, 
1722.00, 
1723.00, 
1724.00, 
1725.00, 
1726.00, 
1727.00, 
1728.00, 
1729.00, 
1730.00, 
1731.00, 
1732.00, 
1733.00, 
1734.00, 
1735.00, 
1736.00, 
1737.00, 
1738.00, 
1739.00, 
1740.00, 
1741.00, 
1742.00, 
1743.00, 
1744.00, 
1745.00, 
1746.00, 
1747.00, 
1748.00, 
1749.00, 
1750.00, 
1751.00, 
1752.00, 
1753.00, 
1754.00, 
1755.00, 
1756.00, 
1757.00, 
1758.00, 
1759.00, 
1760.00, 
1761.00, 
1762.00, 
1763.00, 
1764.00, 
1765.00, 
1766.00, 
1767.00, 
1768.00, 
1769.00, 
1770.00, 
1771.00, 
1772.00, 
1773.00, 
1774.00, 
1775.00, 
1776.00, 
1777.00, 
1778.00, 
1779.00, 
1780.00, 
1781.00, 
1782.00, 
1783.00, 
1784.00, 
1785.00, 
1786.00, 
1787.00, 
1788.00, 
1789.00, 
1790.00, 
1791.00, 
1792.00, 
1793.00, 
1794.00, 
1795.00, 
1796.00, 
1797.00, 
1798.00, 
1799.00, 
1800.00, 
1801.00, 
1802.00, 
1803.00, 
1804.00, 
1805.00, 
1806.00, 
1807.00, 
1808.00, 
1809.00, 
1810.00, 
1811.00, 
1812.00, 
1813.00, 
1814.00, 
1815.00, 
1816.00, 
1817.00, 
1818.00, 
1819.00, 
1820.00, 
1821.00, 
1822.00, 
1823.00, 
1824.00, 
1825.00, 
1826.00, 
1827.00, 
1828.00, 
1829.00, 
1830.00, 
1831.00, 
1832.00, 
1833.00, 
1834.00, 
1835.00, 
1836.00, 
1837.00, 
1838.00, 
1839.00, 
1840.00, 
1841.00, 
1842.00, 
1843.00, 
1844.00, 
1845.00, 
1846.00, 
1847.00, 
1848.00, 
1849.00, 
1850.00, 
1851.00, 
1852.00, 
1853.00, 
1854.00, 
1855.00, 
1856.00, 
1857.00, 
1858.00, 
1859.00, 
1860.00, 
1861.00, 
1862.00, 
1863.00, 
1864.00, 
1865.00, 
1866.00, 
1867.00, 
1868.00, 
1869.00, 
1870.00, 
1871.00, 
1872.00, 
1873.00, 
1874.00, 
1875.00, 
1876.00, 
1877.00, 
1878.00, 
1879.00, 
1880.00, 
1881.00, 
1882.00, 
1883.00, 
1884.00, 
1885.00, 
1886.00, 
1887.00, 
1888.00, 
1889.00, 
1890.00, 
1891.00, 
1892.00, 
1893.00, 
1894.00, 
1895.00, 
1896.00, 
1897.00, 
1898.00, 
1899.00, 
1900.00, 
1901.00, 
1902.00, 
1903.00, 
1904.00, 
1905.00, 
1906.00, 
1907.00, 
1908.00, 
1909.00, 
1910.00, 
1911.00, 
1912.00, 
1913.00, 
1914.00, 
1915.00, 
1916.00, 
1917.00, 
1918.00, 
1919.00, 
1920.00, 
1921.00, 
1922.00, 
1923.00, 
1924.00, 
1925.00, 
1926.00, 
1927.00, 
1928.00, 
1929.00, 
1930.00, 
1931.00, 
1932.00, 
1933.00, 
1934.00, 
1935.00, 
1936.00, 
1937.00, 
1938.00, 
1939.00, 
1940.00, 
1941.00, 
1942.00, 
1943.00, 
1944.00, 
1945.00, 
1946.00, 
1947.00, 
1948.00, 
1949.00, 
1950.00, 
1951.00, 
1952.00, 
1953.00, 
1954.00, 
1955.00, 
1956.00, 
1957.00, 
1958.00, 
1959.00, 
1960.00, 
1961.00, 
1962.00, 
1963.00, 
1964.00, 
1965.00, 
1966.00, 
1967.00, 
1968.00, 
1969.00, 
1970.00, 
1971.00, 
1972.00, 
1973.00, 
1974.00, 
1975.00, 
1976.00, 
1977.00, 
1978.00, 
1979.00, 
1980.00, 
1981.00, 
1982.00, 
1983.00, 
1984.00, 
1985.00, 
1986.00, 
1987.00, 
1988.00, 
1989.00, 
1990.00, 
1991.00, 
1992.00, 
1993.00, 
1994.00, 
1995.00, 
1996.00, 
1997.00, 
1998.00, 
1999.00, 
2000.00, 
2001.00, 
2002.00, 
2003.00, 
2004.00, 
2005.00, 
2006.00, 
2007.00, 
2008.00, 
2009.00, 
2010.00, 
2011.00, 
2012.00, 
2013.00, 
2014.00, 
2015.00, 
2016.00, 
2017.00, 
2018.00, 
2019.00, 
2020.00, 
2021.00, 
2022.00, 
2023.00, 
2024.00, 
2025.00, 
2026.00, 
2027.00, 
2028.00, 
2029.00, 
2030.00, 
2031.00, 
2032.00, 
2033.00, 
2034.00, 
2035.00, 
2036.00, 
2037.00, 
2038.00, 
2039.00, 
2040.00, 
2041.00, 
2042.00, 
2043.00, 
2044.00, 
2045.00, 
2046.00, 
2047.00, 
2048.00, 
2049.00, 
2050.00, 
2051.00, 
2052.00, 
2053.00, 
2054.00, 
2055.00, 
2056.00, 
2057.00, 
2058.00, 
2059.00, 
2060.00, 
2061.00, 
2062.00, 
2063.00, 
2064.00, 
2065.00, 
2066.00, 
2067.00, 
2068.00, 
2069.00, 
2070.00, 
2071.00, 
2072.00, 
2073.00, 
2074.00, 
2075.00, 
2076.00, 
2077.00, 
2078.00, 
2079.00, 
2080.00, 
2081.00, 
2082.00, 
2083.00, 
2084.00, 
2085.00, 
2086.00, 
2087.00, 
2088.00, 
2089.00, 
2090.00, 
2091.00, 
2092.00, 
2093.00, 
2094.00, 
2095.00, 
2096.00, 
2097.00, 
2098.00, 
2099.00, 
2100.00, 
2101.00, 
2102.00, 
2103.00, 
2104.00, 
2105.00, 
2106.00, 
2107.00, 
2108.00, 
2109.00, 
2110.00, 
2111.00, 
2112.00, 
2113.00, 
2114.00, 
2115.00, 
2116.00, 
2117.00, 
2118.00, 
2119.00, 
2120.00, 
2121.00, 
2122.00, 
2123.00, 
2124.00, 
2125.00, 
2126.00, 
2127.00, 
2128.00, 
2129.00, 
2130.00, 
2131.00, 
2132.00, 
2133.00, 
2134.00, 
2135.00, 
2136.00, 
2137.00, 
2138.00, 
2139.00, 
2140.00, 
2141.00, 
2142.00, 
2143.00, 
2144.00, 
2145.00, 
2146.00, 
2147.00, 
2148.00, 
2149.00, 
2150.00, 
2151.00, 
2152.00, 
2153.00, 
2154.00, 
2155.00, 
2156.00, 
2157.00, 
2158.00, 
2159.00, 
2160.00, 
2161.00, 
2162.00, 
2163.00, 
2164.00, 
2165.00, 
2166.00, 
2167.00, 
2168.00, 
2169.00, 
2170.00, 
2171.00, 
2172.00, 
2173.00, 
2174.00, 
2175.00, 
2176.00, 
2177.00, 
2178.00, 
2179.00, 
2180.00, 
2181.00, 
2182.00, 
2183.00, 
2184.00, 
2185.00, 
2186.00, 
2187.00, 
2188.00, 
2189.00, 
2190.00, 
2191.00, 
2192.00, 
2193.00, 
2194.00, 
2195.00, 
2196.00, 
2197.00, 
2198.00, 
2199.00, 
2200.00, 
2201.00, 
2202.00, 
2203.00, 
2204.00, 
2205.00, 
2206.00, 
2207.00, 
2208.00, 
2209.00, 
2210.00, 
2211.00, 
2212.00, 
2213.00, 
2214.00, 
2215.00, 
2216.00, 
2217.00, 
2218.00, 
2219.00, 
2220.00, 
2221.00, 
2222.00, 
2223.00, 
2224.00, 
2225.00, 
2226.00, 
2227.00, 
2228.00, 
2229.00, 
2230.00, 
2231.00, 
2232.00, 
2233.00, 
2234.00, 
2235.00, 
2236.00, 
2237.00, 
2238.00, 
2239.00, 
2240.00, 
2241.00, 
2242.00, 
2243.00, 
2244.00, 
2245.00, 
2246.00, 
2247.00, 
2248.00, 
2249.00, 
2250.00, 
2251.00, 
2252.00, 
2253.00, 
2254.00, 
2255.00, 
2256.00, 
2257.00, 
2258.00, 
2259.00, 
2260.00, 
2261.00, 
2262.00, 
2263.00, 
2264.00, 
2265.00, 
2266.00, 
2267.00, 
2268.00, 
2269.00, 
2270.00, 
2271.00, 
2272.00, 
2273.00, 
2274.00, 
2275.00, 
2276.00, 
2277.00, 
2278.00, 
2279.00, 
2280.00, 
2281.00, 
2282.00, 
2283.00, 
2284.00, 
2285.00, 
2286.00, 
2287.00, 
2288.00, 
2289.00, 
2290.00, 
2291.00, 
2292.00, 
2293.00, 
2294.00, 
2295.00, 
2296.00, 
2297.00, 
2298.00, 
2299.00, 
2300.00, 
2301.00, 
2302.00, 
2303.00, 
2304.00, 
2305.00, 
2306.00, 
2307.00, 
2308.00, 
2309.00, 
2310.00, 
2311.00, 
2312.00, 
2313.00, 
2314.00, 
2315.00, 
2316.00, 
2317.00, 
2318.00, 
2319.00, 
2320.00, 
2321.00, 
2322.00, 
2323.00, 
2324.00, 
2325.00, 
2326.00, 
2327.00, 
2328.00, 
2329.00, 
2330.00, 
2331.00, 
2332.00, 
2333.00, 
2334.00, 
2335.00, 
2336.00, 
2337.00, 
2338.00, 
2339.00, 
2340.00, 
2341.00, 
2342.00, 
2343.00, 
2344.00, 
2345.00, 
2346.00, 
2347.00, 
2348.00, 
2349.00, 
2350.00, 
2351.00, 
2352.00, 
2353.00, 
2354.00, 
2355.00, 
2356.00, 
2357.00, 
2358.00, 
2359.00, 
2360.00, 
2361.00, 
2362.00, 
2363.00, 
2364.00, 
2365.00, 
2366.00, 
2367.00, 
2368.00, 
2369.00, 
2370.00, 
2371.00, 
2372.00, 
2373.00, 
2374.00, 
2375.00, 
2376.00, 
2377.00, 
2378.00, 
2379.00, 
2380.00, 
2381.00, 
2382.00, 
2383.00, 
2384.00, 
2385.00, 
2386.00, 
2387.00, 
2388.00, 
2389.00, 
2390.00, 
2391.00, 
2392.00, 
2393.00, 
2394.00, 
2395.00, 
2396.00, 
2397.00, 
2398.00, 
2399.00, 
2400.00, 
2401.00, 
2402.00, 
2403.00, 
2404.00, 
2405.00, 
2406.00, 
2407.00, 
2408.00, 
2409.00, 
2410.00, 
2411.00, 
2412.00, 
2413.00, 
2414.00, 
2415.00, 
2416.00, 
2417.00, 
2418.00, 
2419.00, 
2420.00, 
2421.00, 
2422.00, 
2423.00, 
2424.00, 
2425.00, 
2426.00, 
2427.00, 
2428.00, 
2429.00, 
2430.00, 
2431.00, 
2432.00, 
2433.00, 
2434.00, 
2435.00, 
2436.00, 
2437.00, 
2438.00, 
2439.00, 
2440.00, 
2441.00, 
2442.00, 
2443.00, 
2444.00, 
2445.00, 
2446.00, 
2447.00, 
2448.00, 
2449.00, 
2450.00, 
2451.00, 
2452.00, 
2453.00, 
2454.00, 
2455.00, 
2456.00, 
2457.00, 
2458.00, 
2459.00, 
2460.00, 
2461.00, 
2462.00, 
2463.00, 
2464.00, 
2465.00, 
2466.00, 
2467.00, 
2468.00, 
2469.00, 
2470.00, 
2471.00, 
2472.00, 
2473.00, 
2474.00, 
2475.00, 
2476.00, 
2477.00, 
2478.00, 
2479.00, 
2480.00, 
2481.00, 
2482.00, 
2483.00, 
2484.00, 
2485.00, 
2486.00, 
2487.00, 
2488.00, 
2489.00, 
2490.00, 
2491.00, 
2492.00, 
2493.00, 
2494.00, 
2495.00, 
2496.00, 
2497.00, 
2498.00, 
2499.00, 
2500.00, 
2501.00, 
2502.00, 
2503.00, 
2504.00, 
2505.00, 
2506.00, 
2507.00, 
2508.00, 
2509.00, 
2510.00, 
2511.00, 
2512.00, 
2513.00, 
2514.00, 
2515.00, 
2516.00, 
2517.00, 
2518.00, 
2519.00, 
2520.00, 
2521.00, 
2522.00, 
2523.00, 
2524.00, 
2525.00, 
2526.00, 
2527.00, 
2528.00, 
2529.00, 
2530.00, 
2531.00, 
2532.00, 
2533.00, 
2534.00, 
2535.00, 
2536.00, 
2537.00, 
2538.00, 
2539.00, 
2540.00, 
2541.00, 
2542.00, 
2543.00, 
2544.00, 
2545.00, 
2546.00, 
2547.00, 
2548.00, 
2549.00, 
2550.00, 
2551.00, 
2552.00, 
2553.00, 
2554.00, 
2555.00, 
2556.00, 
2557.00, 
2558.00, 
2559.00, 
2560.00, 
2561.00, 
2562.00, 
2563.00, 
2564.00, 
2565.00, 
2566.00, 
2567.00, 
2568.00, 
2569.00, 
2570.00, 
2571.00, 
2572.00, 
2573.00, 
2574.00, 
2575.00, 
2576.00, 
2577.00, 
2578.00, 
2579.00, 
2580.00, 
2581.00, 
2582.00, 
2583.00, 
2584.00, 
2585.00, 
2586.00, 
2587.00, 
2588.00, 
2589.00, 
2590.00, 
2591.00, 
2592.00, 
2593.00, 
2594.00, 
2595.00, 
2596.00, 
2597.00, 
2598.00, 
2599.00, 
2600.00, 
