"1cP4 - RawData"
"Wavelength nm.","T%"
200.00,-0.004
201.00,0.001
202.00,0.004
203.00,-0.002
204.00,0.001
205.00,0.002
206.00,0.002
207.00,-0.001
208.00,0.004
209.00,0.003
210.00,-0.001
211.00,0.001
212.00,-0.000
213.00,-0.000
214.00,0.000
215.00,0.001
216.00,0.001
217.00,0.000
218.00,-0.000
219.00,-0.001
220.00,-0.001
221.00,-0.001
222.00,-0.002
223.00,0.002
224.00,-0.001
225.00,0.003
226.00,0.001
227.00,-0.003
228.00,-0.000
229.00,0.002
230.00,0.002
231.00,-0.000
232.00,-0.001
233.00,0.001
234.00,0.001
235.00,-0.001
236.00,0.000
237.00,-0.001
238.00,0.000
239.00,-0.002
240.00,0.001
241.00,0.001
242.00,0.002
243.00,0.000
244.00,-0.000
245.00,-0.001
246.00,0.001
247.00,0.001
248.00,0.001
249.00,0.001
250.00,-0.001
251.00,0.002
252.00,-0.001
253.00,0.002
254.00,0.001
255.00,0.001
256.00,0.001
257.00,0.001
258.00,-0.000
259.00,-0.001
260.00,0.000
261.00,0.001
262.00,-0.000
263.00,0.001
264.00,0.000
265.00,0.000
266.00,0.001
267.00,-0.002
268.00,-0.002
269.00,0.000
270.00,0.001
271.00,-0.001
272.00,-0.000
273.00,-0.001
274.00,-0.001
275.00,0.002
276.00,0.001
277.00,-0.001
278.00,-0.000
279.00,-0.001
280.00,0.000
281.00,0.001
282.00,0.002
283.00,0.001
284.00,-0.001
285.00,0.002
286.00,0.002
287.00,-0.001
288.00,-0.002
289.00,0.001
290.00,0.000
291.00,-0.000
292.00,-0.000
293.00,-0.000
294.00,0.001
295.00,0.000
296.00,0.002
297.00,0.001
298.00,0.001
299.00,0.001
300.00,0.001
301.00,0.000
302.00,0.001
303.00,0.002
304.00,0.001
305.00,0.002
306.00,0.001
307.00,0.003
308.00,0.005
309.00,0.008
310.00,0.014
311.00,0.021
312.00,0.032
313.00,0.048
314.00,0.076
315.00,0.109
316.00,0.159
317.00,0.219
318.00,0.297
319.00,0.403
320.00,0.532
321.00,0.688
322.00,0.876
323.00,1.117
324.00,1.374
325.00,1.652
326.00,1.958
327.00,2.339
328.00,2.724
329.00,3.130
330.00,3.559
331.00,4.030
332.00,4.515
333.00,5.074
334.00,5.570
335.00,6.115
336.00,6.616
337.00,7.231
338.00,7.781
339.00,8.300
340.00,8.794
341.00,9.368
342.00,9.851
343.00,10.348
344.00,10.847
345.00,11.275
346.00,11.684
347.00,12.083
348.00,12.484
349.00,12.831
350.00,13.149
351.00,13.471
352.00,13.754
353.00,14.031
354.00,14.276
355.00,14.502
356.00,14.748
357.00,14.927
358.00,15.121
359.00,15.340
360.00,15.508
361.00,15.527
362.00,15.735
363.00,15.843
364.00,15.936
365.00,15.998
366.00,16.058
367.00,16.117
368.00,16.154
369.00,16.135
370.00,16.169
371.00,16.184
372.00,16.141
373.00,16.156
374.00,16.126
375.00,16.015
376.00,15.986
377.00,15.881
378.00,15.790
379.00,15.697
380.00,15.686
381.00,15.642
382.00,15.629
383.00,15.625
384.00,15.614
385.00,15.659
386.00,15.598
387.00,15.716
388.00,15.775
389.00,15.768
390.00,15.787
391.00,15.798
392.00,15.817
393.00,15.792
394.00,15.791
395.00,15.831
396.00,15.776
397.00,15.817
398.00,15.772
399.00,15.783
400.00,15.766
401.00,15.731
402.00,15.771
403.00,15.776
404.00,15.735
405.00,15.708
406.00,15.705
407.00,15.650
408.00,15.651
409.00,15.598
410.00,15.568
411.00,15.558
412.00,15.522
413.00,15.545
414.00,15.494
415.00,15.497
416.00,15.536
417.00,15.524
418.00,15.553
419.00,15.620
420.00,15.638
421.00,15.582
422.00,15.594
423.00,15.606
424.00,15.674
425.00,15.699
426.00,15.723
427.00,15.780
428.00,15.801
429.00,15.827
430.00,15.863
431.00,15.910
432.00,15.950
433.00,15.985
434.00,16.019
435.00,16.109
436.00,16.159
437.00,16.232
438.00,16.298
439.00,16.348
440.00,16.410
441.00,16.488
442.00,16.555
443.00,16.642
444.00,16.714
445.00,16.805
446.00,16.895
447.00,16.985
448.00,17.082
449.00,17.173
450.00,17.297
451.00,17.371
452.00,17.470
453.00,17.606
454.00,17.671
455.00,17.767
456.00,17.908
457.00,18.043
458.00,18.061
459.00,18.264
460.00,18.403
461.00,18.537
462.00,18.608
463.00,18.759
464.00,18.906
465.00,19.002
466.00,19.146
467.00,19.289
468.00,19.376
469.00,19.496
470.00,19.616
471.00,19.732
472.00,19.856
473.00,19.956
474.00,20.080
475.00,20.209
476.00,20.319
477.00,20.444
478.00,20.580
479.00,20.770
480.00,20.900
481.00,21.032
482.00,21.175
483.00,21.336
484.00,21.531
485.00,21.657
486.00,21.795
487.00,21.950
488.00,22.082
489.00,22.276
490.00,22.440
491.00,22.566
492.00,22.719
493.00,22.938
494.00,23.107
495.00,23.122
496.00,23.276
497.00,23.387
498.00,23.528
499.00,23.701
500.00,23.839
501.00,23.987
502.00,24.111
503.00,24.264
504.00,24.342
505.00,24.487
506.00,24.600
507.00,24.704
508.00,24.845
509.00,25.041
510.00,25.166
511.00,25.245
512.00,25.422
513.00,25.586
514.00,25.703
515.00,25.829
516.00,25.945
517.00,26.044
518.00,26.182
519.00,26.323
520.00,26.338
521.00,26.486
522.00,26.564
523.00,26.635
524.00,26.777
525.00,26.898
526.00,26.985
527.00,27.087
528.00,27.203
529.00,27.403
530.00,27.521
531.00,27.622
532.00,27.703
533.00,27.845
534.00,27.939
535.00,28.027
536.00,28.113
537.00,28.164
538.00,28.253
539.00,28.309
540.00,28.414
541.00,28.484
542.00,28.559
543.00,28.599
544.00,28.678
545.00,28.789
546.00,28.827
547.00,28.958
548.00,29.032
549.00,29.101
550.00,29.170
551.00,29.302
552.00,29.360
553.00,29.410
554.00,29.514
555.00,29.504
556.00,29.573
557.00,29.615
558.00,29.774
559.00,29.875
560.00,29.890
561.00,29.984
562.00,30.050
563.00,30.060
564.00,30.171
565.00,30.159
566.00,30.213
567.00,30.239
568.00,30.282
569.00,30.436
570.00,30.411
571.00,30.296
572.00,30.417
573.00,30.480
574.00,30.484
575.00,30.575
576.00,30.608
577.00,30.691
578.00,30.772
579.00,30.833
580.00,30.889
581.00,31.009
582.00,31.076
583.00,31.084
584.00,31.225
585.00,31.229
586.00,31.288
587.00,31.372
588.00,31.428
589.00,31.412
590.00,31.467
591.00,31.500
592.00,31.501
593.00,31.545
594.00,31.661
595.00,31.766
596.00,31.770
597.00,31.863
598.00,31.946
599.00,31.943
600.00,31.989
601.00,32.045
602.00,32.072
603.00,32.151
604.00,32.222
605.00,32.207
606.00,32.307
607.00,32.399
608.00,32.440
609.00,32.388
610.00,32.556
611.00,32.731
612.00,32.573
613.00,32.633
614.00,32.697
615.00,32.735
616.00,32.884
617.00,32.874
618.00,32.869
619.00,33.010
620.00,33.037
621.00,33.159
622.00,33.226
623.00,33.318
624.00,33.371
625.00,33.459
626.00,33.495
627.00,33.594
628.00,33.614
629.00,33.674
630.00,33.725
631.00,33.812
632.00,33.918
633.00,34.080
634.00,34.156
635.00,34.253
636.00,34.343
637.00,34.403
638.00,34.478
639.00,34.566
640.00,34.622
641.00,34.692
642.00,34.824
643.00,34.818
644.00,34.938
645.00,35.104
646.00,35.231
647.00,35.334
648.00,35.392
649.00,35.430
650.00,35.535
651.00,35.677
652.00,35.743
653.00,35.795
654.00,35.968
655.00,36.145
656.00,36.428
657.00,36.441
658.00,36.597
659.00,36.627
660.00,36.780
661.00,36.874
662.00,36.818
663.00,36.969
664.00,37.291
665.00,37.437
666.00,37.318
667.00,37.484
668.00,37.503
669.00,37.791
670.00,38.074
671.00,37.943
672.00,38.094
673.00,38.228
674.00,38.370
675.00,38.526
676.00,38.779
677.00,38.895
678.00,38.737
679.00,38.917
680.00,39.095
681.00,39.261
682.00,39.374
683.00,39.436
684.00,39.650
685.00,39.734
686.00,39.608
687.00,39.732
688.00,39.868
689.00,40.194
690.00,40.245
691.00,40.535
692.00,40.807
693.00,40.461
694.00,40.655
695.00,40.915
696.00,41.019
697.00,41.036
698.00,41.192
699.00,41.417
700.00,41.521
701.00,41.590
702.00,41.735
703.00,41.932
704.00,41.953
705.00,41.930
706.00,42.150
707.00,42.253
708.00,42.141
709.00,42.538
710.00,42.945
711.00,42.552
712.00,42.624
713.00,42.847
714.00,43.034
715.00,43.047
716.00,43.076
717.00,43.285
718.00,43.494
719.00,43.504
720.00,43.588
721.00,47.829
722.00,47.850
723.00,47.989
724.00,48.000
725.00,48.095
726.00,48.075
727.00,48.183
728.00,48.260
729.00,48.312
730.00,48.377
731.00,48.475
732.00,48.512
733.00,48.568
734.00,48.684
735.00,48.680
736.00,48.788
737.00,48.829
738.00,48.905
739.00,48.988
740.00,49.042
741.00,49.068
742.00,49.151
743.00,49.168
744.00,49.090
745.00,49.277
746.00,49.250
747.00,49.312
748.00,49.393
749.00,49.394
750.00,49.422
751.00,49.373
752.00,49.470
753.00,49.427
754.00,49.481
755.00,49.550
756.00,49.580
757.00,49.605
758.00,49.640
759.00,49.696
760.00,49.788
761.00,49.774
762.00,49.801
763.00,49.901
764.00,49.829
765.00,49.905
766.00,49.984
767.00,50.043
768.00,50.055
769.00,50.029
770.00,50.126
771.00,50.157
772.00,50.154
773.00,50.159
774.00,50.206
775.00,50.268
776.00,50.253
777.00,50.253
778.00,50.337
779.00,50.361
780.00,50.284
781.00,50.384
782.00,50.382
783.00,50.382
784.00,50.395
785.00,50.308
786.00,50.374
787.00,50.367
788.00,50.399
789.00,50.429
790.00,50.390
791.00,50.479
792.00,50.460
793.00,50.521
794.00,50.422
795.00,50.388
796.00,50.440
797.00,50.392
798.00,50.386
799.00,50.365
800.00,50.408
801.00,50.424
802.00,50.414
803.00,50.438
804.00,50.422
805.00,50.394
806.00,50.418
807.00,50.361
808.00,50.457
809.00,50.397
810.00,50.423
811.00,50.512
812.00,50.521
813.00,50.408
814.00,50.430
815.00,50.457
816.00,50.389
817.00,50.417
818.00,50.407
819.00,50.388
820.00,50.307
821.00,50.425
822.00,50.440
823.00,50.235
824.00,50.405
825.00,50.301
826.00,50.330
827.00,50.323
828.00,50.374
829.00,50.463
830.00,50.341
831.00,52.708
832.00,52.714
833.00,52.657
834.00,52.640
835.00,52.713
836.00,52.644
837.00,52.632
838.00,52.643
839.00,52.603
840.00,52.595
841.00,52.589
842.00,52.593
843.00,52.573
844.00,52.591
845.00,52.537
846.00,52.546
847.00,52.525
848.00,52.530
849.00,52.451
850.00,52.447
851.00,52.415
852.00,52.435
853.00,52.379
854.00,52.374
855.00,52.297
856.00,52.308
857.00,52.318
858.00,52.286
859.00,52.225
860.00,52.261
861.00,52.356
862.00,52.229
863.00,52.211
864.00,52.199
865.00,52.230
866.00,52.226
867.00,52.206
868.00,52.194
869.00,52.164
870.00,52.209
871.00,52.217
872.00,52.195
873.00,52.158
874.00,52.190
875.00,52.136
876.00,52.174
877.00,52.127
878.00,52.112
879.00,52.113
880.00,52.090
881.00,52.080
882.00,52.108
883.00,52.053
884.00,52.048
885.00,52.028
886.00,52.034
887.00,52.003
888.00,51.990
889.00,51.977
890.00,51.960
891.00,51.934
892.00,51.917
893.00,51.898
894.00,51.865
895.00,51.870
896.00,51.840
897.00,51.821
898.00,51.795
899.00,51.798
900.00,51.780
901.00,51.798
902.00,51.820
903.00,51.763
904.00,51.717
905.00,51.822
906.00,51.720
907.00,51.723
908.00,51.666
909.00,51.633
910.00,51.648
911.00,51.625
912.00,51.605
913.00,51.585
914.00,51.575
915.00,51.561
916.00,51.545
917.00,51.512
918.00,51.508
919.00,51.455
920.00,51.444
921.00,51.437
922.00,51.445
923.00,51.421
924.00,51.389
925.00,51.396
926.00,51.374
927.00,51.372
928.00,51.352
929.00,51.329
930.00,51.303
931.00,51.292
932.00,51.256
933.00,51.273
934.00,51.243
935.00,51.208
936.00,51.219
937.00,51.185
938.00,51.192
939.00,51.176
940.00,51.133
941.00,51.148
942.00,50.992
943.00,51.090
944.00,51.062
945.00,51.075
946.00,51.024
947.00,51.006
948.00,51.000
949.00,50.986
950.00,50.972
951.00,50.937
952.00,50.914
953.00,50.902
954.00,50.866
955.00,50.816
956.00,50.817
957.00,50.802
958.00,50.794
959.00,50.736
960.00,50.759
961.00,50.729
962.00,50.724
963.00,50.736
964.00,50.693
965.00,50.702
966.00,50.696
967.00,50.664
968.00,50.683
969.00,50.699
970.00,50.639
971.00,50.683
972.00,50.614
973.00,50.726
974.00,50.653
975.00,50.667
976.00,50.677
977.00,50.682
978.00,50.703
979.00,50.669
980.00,50.698
981.00,50.678
982.00,50.666
983.00,50.665
984.00,50.642
985.00,50.671
986.00,50.631
987.00,50.646
988.00,50.577
989.00,50.596
990.00,50.587
991.00,50.583
992.00,50.583
993.00,50.558
994.00,50.543
995.00,50.516
996.00,50.539
997.00,50.515
998.00,50.486
999.00,50.513
1000.00,50.458
1001.00,50.445
1002.00,50.454
1003.00,50.471
1004.00,50.432
1005.00,50.404
1006.00,50.432
1007.00,50.406
1008.00,50.391
1009.00,50.378
1010.00,50.391
1011.00,50.353
1012.00,50.328
1013.00,50.323
1014.00,50.286
1015.00,50.313
1016.00,50.279
1017.00,50.253
1018.00,50.251
1019.00,50.258
1020.00,50.217
1021.00,50.211
1022.00,50.208
1023.00,50.195
1024.00,50.167
1025.00,50.141
1026.00,50.137
1027.00,50.102
1028.00,50.100
1029.00,50.086
1030.00,50.053
1031.00,50.076
1032.00,50.039
1033.00,50.026
1034.00,50.004
1035.00,49.986
1036.00,49.947
1037.00,49.942
1038.00,49.929
1039.00,49.901
1040.00,49.905
1041.00,49.868
1042.00,49.873
1043.00,49.863
1044.00,49.880
1045.00,49.850
1046.00,49.855
1047.00,49.871
1048.00,49.879
1049.00,49.892
1050.00,49.880
1051.00,49.932
1052.00,49.922
1053.00,49.929
1054.00,49.933
1055.00,49.945
1056.00,49.967
1057.00,49.963
1058.00,49.944
1059.00,49.948
1060.00,49.950
1061.00,49.931
1062.00,49.917
1063.00,49.927
1064.00,49.923
1065.00,49.922
1066.00,49.905
1067.00,49.906
1068.00,49.926
1069.00,49.871
1070.00,49.869
1071.00,49.844
1072.00,49.862
1073.00,49.865
1074.00,49.841
1075.00,49.829
1076.00,49.836
1077.00,49.807
1078.00,49.785
1079.00,49.798
1080.00,49.788
1081.00,49.791
1082.00,49.798
1083.00,49.784
1084.00,49.789
1085.00,49.777
1086.00,49.760
1087.00,49.775
1088.00,49.746
1089.00,49.743
1090.00,49.737
1091.00,49.744
1092.00,49.735
1093.00,49.711
1094.00,49.703
1095.00,49.693
1096.00,49.664
1097.00,49.663
1098.00,49.673
1099.00,49.648
1100.00,49.660
1101.00,49.667
1102.00,49.625
1103.00,49.640
1104.00,49.627
1105.00,49.616
1106.00,49.600
1107.00,49.588
1108.00,49.569
1109.00,49.586
1110.00,49.556
1111.00,49.552
1112.00,49.553
1113.00,49.529
1114.00,49.541
1115.00,49.548
1116.00,49.516
1117.00,49.508
1118.00,49.491
1119.00,49.481
1120.00,49.496
1121.00,49.487
1122.00,49.481
1123.00,49.480
1124.00,49.452
1125.00,49.478
1126.00,49.458
1127.00,49.446
1128.00,49.462
1129.00,49.429
1130.00,49.426
1131.00,49.455
1132.00,49.409
1133.00,49.416
1134.00,49.403
1135.00,49.386
1136.00,49.402
1137.00,49.396
1138.00,49.395
1139.00,49.415
1140.00,49.393
1141.00,49.396
1142.00,49.399
1143.00,49.397
1144.00,49.368
1145.00,49.386
1146.00,49.369
1147.00,49.375
1148.00,49.363
1149.00,49.367
1150.00,49.381
1151.00,49.364
1152.00,49.350
1153.00,49.371
1154.00,49.335
1155.00,49.351
1156.00,49.338
1157.00,49.338
1158.00,49.341
1159.00,49.337
1160.00,49.334
1161.00,49.361
1162.00,49.338
1163.00,49.339
1164.00,49.355
1165.00,49.340
1166.00,49.347
1167.00,49.344
1168.00,49.351
1169.00,49.343
1170.00,49.338
1171.00,49.328
1172.00,49.339
1173.00,49.315
1174.00,49.324
1175.00,49.333
1176.00,49.324
1177.00,49.310
1178.00,49.317
1179.00,49.326
1180.00,49.321
1181.00,49.346
1182.00,49.322
1183.00,49.326
1184.00,49.300
1185.00,49.311
1186.00,49.314
1187.00,49.312
1188.00,49.312
1189.00,49.326
1190.00,49.313
1191.00,49.311
1192.00,49.328
1193.00,49.298
1194.00,49.322
1195.00,49.300
1196.00,49.326
1197.00,49.342
1198.00,49.315
1199.00,49.317
1200.00,49.332
1201.00,49.337
1202.00,49.322
1203.00,49.309
1204.00,49.288
1205.00,49.329
1206.00,49.306
1207.00,49.310
1208.00,49.319
1209.00,49.320
1210.00,49.309
1211.00,49.321
1212.00,49.333
1213.00,49.318
1214.00,49.341
1215.00,49.307
1216.00,49.321
1217.00,49.309
1218.00,49.298
1219.00,49.344
1220.00,49.310
1221.00,49.336
1222.00,49.341
1223.00,49.344
1224.00,49.342
1225.00,49.341
1226.00,49.341
1227.00,49.339
1228.00,49.341
1229.00,49.340
1230.00,49.387
1231.00,49.362
1232.00,49.387
1233.00,49.396
1234.00,49.388
1235.00,49.396
1236.00,49.396
1237.00,49.402
1238.00,49.384
1239.00,49.385
1240.00,49.368
1241.00,49.392
1242.00,49.375
1243.00,49.396
1244.00,49.380
1245.00,49.397
1246.00,49.416
1247.00,49.400
1248.00,49.388
1249.00,49.411
1250.00,49.426
1251.00,49.403
1252.00,49.447
1253.00,49.436
1254.00,49.451
1255.00,49.443
1256.00,49.413
1257.00,49.398
1258.00,49.480
1259.00,49.451
1260.00,49.485
1261.00,49.475
1262.00,49.458
1263.00,49.483
1264.00,49.479
1265.00,49.495
1266.00,49.505
1267.00,49.504
1268.00,49.527
1269.00,49.525
1270.00,49.549
1271.00,49.549
1272.00,49.543
1273.00,49.563
1274.00,49.576
1275.00,49.557
1276.00,49.558
1277.00,49.578
1278.00,49.573
1279.00,49.583
1280.00,49.576
1281.00,49.598
1282.00,49.624
1283.00,49.592
1284.00,49.607
1285.00,49.618
1286.00,49.618
1287.00,49.615
1288.00,49.629
1289.00,49.606
1290.00,49.650
1291.00,49.644
1292.00,49.631
1293.00,49.650
1294.00,49.657
1295.00,49.684
1296.00,49.691
1297.00,49.673
1298.00,49.724
1299.00,49.694
1300.00,49.718
1301.00,49.712
1302.00,49.711
1303.00,49.735
1304.00,49.725
1305.00,49.762
1306.00,49.759
1307.00,49.776
1308.00,49.757
1309.00,49.779
1310.00,49.770
1311.00,49.741
1312.00,49.761
1313.00,49.758
1314.00,49.775
1315.00,49.795
1316.00,49.790
1317.00,49.819
1318.00,49.833
1319.00,49.831
1320.00,49.844
1321.00,49.995
1322.00,49.971
1323.00,49.961
1324.00,49.976
1325.00,49.944
1326.00,49.988
1327.00,49.969
1328.00,49.965
1329.00,49.978
1330.00,49.987
1331.00,49.983
1332.00,50.013
1333.00,50.002
1334.00,50.034
1335.00,50.051
1336.00,50.068
1337.00,50.115
1338.00,50.185
1339.00,50.194
1340.00,50.266
1341.00,50.312
1342.00,50.394
1343.00,50.488
1344.00,50.477
1345.00,50.546
1346.00,50.598
1347.00,50.606
1348.00,50.630
1349.00,50.650
1350.00,50.664
1351.00,50.685
1352.00,50.697
1353.00,50.699
1354.00,50.712
1355.00,50.674
1356.00,50.690
1357.00,50.740
1358.00,50.755
1359.00,50.752
1360.00,50.772
1361.00,50.697
1362.00,50.677
1363.00,50.785
1364.00,50.763
1365.00,50.731
1366.00,50.785
1367.00,50.730
1368.00,50.719
1369.00,50.772
1370.00,50.735
1371.00,50.717
1372.00,50.722
1373.00,50.747
1374.00,50.761
1375.00,50.736
1376.00,50.746
1377.00,50.713
1378.00,50.771
1379.00,50.744
1380.00,50.729
1381.00,50.753
1382.00,50.723
1383.00,50.743
1384.00,50.716
1385.00,50.707
1386.00,50.750
1387.00,50.708
1388.00,50.716
1389.00,50.781
1390.00,50.749
1391.00,50.739
1392.00,50.736
1393.00,50.776
1394.00,50.756
1395.00,50.725
1396.00,50.718
1397.00,50.823
1398.00,50.567
1399.00,50.754
1400.00,50.741
1401.00,50.762
1402.00,50.843
1403.00,50.812
1404.00,50.773
1405.00,50.796
1406.00,50.836
1407.00,50.802
1408.00,50.811
1409.00,50.818
1410.00,50.844
1411.00,50.822
1412.00,50.896
1413.00,50.818
1414.00,50.835
1415.00,50.858
1416.00,50.900
1417.00,50.945
1418.00,50.927
1419.00,50.951
1420.00,50.946
1421.00,50.971
1422.00,50.962
1423.00,50.999
1424.00,50.997
1425.00,51.043
1426.00,51.039
1427.00,51.058
1428.00,51.057
1429.00,51.064
1430.00,51.074
1431.00,51.130
1432.00,51.120
1433.00,51.151
1434.00,51.148
1435.00,51.195
1436.00,51.214
1437.00,51.221
1438.00,51.228
1439.00,51.259
1440.00,51.265
1441.00,51.282
1442.00,51.310
1443.00,51.320
1444.00,51.364
1445.00,51.351
1446.00,51.365
1447.00,51.414
1448.00,51.451
1449.00,51.450
1450.00,51.481
1451.00,51.444
1452.00,51.482
1453.00,51.490
1454.00,51.489
1455.00,51.534
1456.00,51.561
1457.00,51.539
1458.00,51.581
1459.00,51.603
1460.00,51.623
1461.00,51.611
1462.00,51.664
1463.00,51.665
1464.00,51.708
1465.00,51.690
1466.00,51.686
1467.00,51.720
1468.00,51.764
1469.00,51.745
1470.00,51.781
1471.00,51.785
1472.00,51.814
1473.00,51.830
1474.00,51.848
1475.00,51.908
1476.00,51.880
1477.00,51.873
1478.00,51.934
1479.00,51.913
1480.00,51.922
1481.00,51.923
1482.00,51.952
1483.00,51.983
1484.00,51.969
1485.00,51.979
1486.00,52.004
1487.00,52.018
1488.00,52.046
1489.00,52.044
1490.00,52.062
1491.00,52.070
1492.00,52.113
1493.00,52.095
1494.00,52.141
1495.00,52.121
1496.00,52.145
1497.00,52.145
1498.00,52.151
1499.00,52.169
1500.00,52.205
1501.00, 
1502.00, 
1503.00, 
1504.00, 
1505.00, 
1506.00, 
1507.00, 
1508.00, 
1509.00, 
1510.00, 
1511.00, 
1512.00, 
1513.00, 
1514.00, 
1515.00, 
1516.00, 
1517.00, 
1518.00, 
1519.00, 
1520.00, 
1521.00, 
1522.00, 
1523.00, 
1524.00, 
1525.00, 
1526.00, 
1527.00, 
1528.00, 
1529.00, 
1530.00, 
1531.00, 
1532.00, 
1533.00, 
1534.00, 
1535.00, 
1536.00, 
1537.00, 
1538.00, 
1539.00, 
1540.00, 
1541.00, 
1542.00, 
1543.00, 
1544.00, 
1545.00, 
1546.00, 
1547.00, 
1548.00, 
1549.00, 
1550.00, 
1551.00, 
1552.00, 
1553.00, 
1554.00, 
1555.00, 
1556.00, 
1557.00, 
1558.00, 
1559.00, 
1560.00, 
1561.00, 
1562.00, 
1563.00, 
1564.00, 
1565.00, 
1566.00, 
1567.00, 
1568.00, 
1569.00, 
1570.00, 
1571.00, 
1572.00, 
1573.00, 
1574.00, 
1575.00, 
1576.00, 
1577.00, 
1578.00, 
1579.00, 
1580.00, 
1581.00, 
1582.00, 
1583.00, 
1584.00, 
1585.00, 
1586.00, 
1587.00, 
1588.00, 
1589.00, 
1590.00, 
1591.00, 
1592.00, 
1593.00, 
1594.00, 
1595.00, 
1596.00, 
1597.00, 
1598.00, 
1599.00, 
1600.00, 
1601.00, 
1602.00, 
1603.00, 
1604.00, 
1605.00, 
1606.00, 
1607.00, 
1608.00, 
1609.00, 
1610.00, 
1611.00, 
1612.00, 
1613.00, 
1614.00, 
1615.00, 
1616.00, 
1617.00, 
1618.00, 
1619.00, 
1620.00, 
1621.00, 
1622.00, 
1623.00, 
1624.00, 
1625.00, 
1626.00, 
1627.00, 
1628.00, 
1629.00, 
1630.00, 
1631.00, 
1632.00, 
1633.00, 
1634.00, 
1635.00, 
1636.00, 
1637.00, 
1638.00, 
1639.00, 
1640.00, 
1641.00, 
1642.00, 
1643.00, 
1644.00, 
1645.00, 
1646.00, 
1647.00, 
1648.00, 
1649.00, 
1650.00, 
1651.00, 
1652.00, 
1653.00, 
1654.00, 
1655.00, 
1656.00, 
1657.00, 
1658.00, 
1659.00, 
1660.00, 
1661.00, 
1662.00, 
1663.00, 
1664.00, 
1665.00, 
1666.00, 
1667.00, 
1668.00, 
1669.00, 
1670.00, 
1671.00, 
1672.00, 
1673.00, 
1674.00, 
1675.00, 
1676.00, 
1677.00, 
1678.00, 
1679.00, 
1680.00, 
1681.00, 
1682.00, 
1683.00, 
1684.00, 
1685.00, 
1686.00, 
1687.00, 
1688.00, 
1689.00, 
1690.00, 
1691.00, 
1692.00, 
1693.00, 
1694.00, 
1695.00, 
1696.00, 
1697.00, 
1698.00, 
1699.00, 
1700.00, 
1701.00, 
1702.00, 
1703.00, 
1704.00, 
1705.00, 
1706.00, 
1707.00, 
1708.00, 
1709.00, 
1710.00, 
1711.00, 
1712.00, 
1713.00, 
1714.00, 
1715.00, 
1716.00, 
1717.00, 
1718.00, 
1719.00, 
1720.00, 
1721.00, 
1722.00, 
1723.00, 
1724.00, 
1725.00, 
1726.00, 
1727.00, 
1728.00, 
1729.00, 
1730.00, 
1731.00, 
1732.00, 
1733.00, 
1734.00, 
1735.00, 
1736.00, 
1737.00, 
1738.00, 
1739.00, 
1740.00, 
1741.00, 
1742.00, 
1743.00, 
1744.00, 
1745.00, 
1746.00, 
1747.00, 
1748.00, 
1749.00, 
1750.00, 
1751.00, 
1752.00, 
1753.00, 
1754.00, 
1755.00, 
1756.00, 
1757.00, 
1758.00, 
1759.00, 
1760.00, 
1761.00, 
1762.00, 
1763.00, 
1764.00, 
1765.00, 
1766.00, 
1767.00, 
1768.00, 
1769.00, 
1770.00, 
1771.00, 
1772.00, 
1773.00, 
1774.00, 
1775.00, 
1776.00, 
1777.00, 
1778.00, 
1779.00, 
1780.00, 
1781.00, 
1782.00, 
1783.00, 
1784.00, 
1785.00, 
1786.00, 
1787.00, 
1788.00, 
1789.00, 
1790.00, 
1791.00, 
1792.00, 
1793.00, 
1794.00, 
1795.00, 
1796.00, 
1797.00, 
1798.00, 
1799.00, 
1800.00, 
1801.00, 
1802.00, 
1803.00, 
1804.00, 
1805.00, 
1806.00, 
1807.00, 
1808.00, 
1809.00, 
1810.00, 
1811.00, 
1812.00, 
1813.00, 
1814.00, 
1815.00, 
1816.00, 
1817.00, 
1818.00, 
1819.00, 
1820.00, 
1821.00, 
1822.00, 
1823.00, 
1824.00, 
1825.00, 
1826.00, 
1827.00, 
1828.00, 
1829.00, 
1830.00, 
1831.00, 
1832.00, 
1833.00, 
1834.00, 
1835.00, 
1836.00, 
1837.00, 
1838.00, 
1839.00, 
1840.00, 
1841.00, 
1842.00, 
1843.00, 
1844.00, 
1845.00, 
1846.00, 
1847.00, 
1848.00, 
1849.00, 
1850.00, 
1851.00, 
1852.00, 
1853.00, 
1854.00, 
1855.00, 
1856.00, 
1857.00, 
1858.00, 
1859.00, 
1860.00, 
1861.00, 
1862.00, 
1863.00, 
1864.00, 
1865.00, 
1866.00, 
1867.00, 
1868.00, 
1869.00, 
1870.00, 
1871.00, 
1872.00, 
1873.00, 
1874.00, 
1875.00, 
1876.00, 
1877.00, 
1878.00, 
1879.00, 
1880.00, 
1881.00, 
1882.00, 
1883.00, 
1884.00, 
1885.00, 
1886.00, 
1887.00, 
1888.00, 
1889.00, 
1890.00, 
1891.00, 
1892.00, 
1893.00, 
1894.00, 
1895.00, 
1896.00, 
1897.00, 
1898.00, 
1899.00, 
1900.00, 
1901.00, 
1902.00, 
1903.00, 
1904.00, 
1905.00, 
1906.00, 
1907.00, 
1908.00, 
1909.00, 
1910.00, 
1911.00, 
1912.00, 
1913.00, 
1914.00, 
1915.00, 
1916.00, 
1917.00, 
1918.00, 
1919.00, 
1920.00, 
1921.00, 
1922.00, 
1923.00, 
1924.00, 
1925.00, 
1926.00, 
1927.00, 
1928.00, 
1929.00, 
1930.00, 
1931.00, 
1932.00, 
1933.00, 
1934.00, 
1935.00, 
1936.00, 
1937.00, 
1938.00, 
1939.00, 
1940.00, 
1941.00, 
1942.00, 
1943.00, 
1944.00, 
1945.00, 
1946.00, 
1947.00, 
1948.00, 
1949.00, 
1950.00, 
1951.00, 
1952.00, 
1953.00, 
1954.00, 
1955.00, 
1956.00, 
1957.00, 
1958.00, 
1959.00, 
1960.00, 
1961.00, 
1962.00, 
1963.00, 
1964.00, 
1965.00, 
1966.00, 
1967.00, 
1968.00, 
1969.00, 
1970.00, 
1971.00, 
1972.00, 
1973.00, 
1974.00, 
1975.00, 
1976.00, 
1977.00, 
1978.00, 
1979.00, 
1980.00, 
1981.00, 
1982.00, 
1983.00, 
1984.00, 
1985.00, 
1986.00, 
1987.00, 
1988.00, 
1989.00, 
1990.00, 
1991.00, 
1992.00, 
1993.00, 
1994.00, 
1995.00, 
1996.00, 
1997.00, 
1998.00, 
1999.00, 
2000.00, 
2001.00, 
2002.00, 
2003.00, 
2004.00, 
2005.00, 
2006.00, 
2007.00, 
2008.00, 
2009.00, 
2010.00, 
2011.00, 
2012.00, 
2013.00, 
2014.00, 
2015.00, 
2016.00, 
2017.00, 
2018.00, 
2019.00, 
2020.00, 
2021.00, 
2022.00, 
2023.00, 
2024.00, 
2025.00, 
2026.00, 
2027.00, 
2028.00, 
2029.00, 
2030.00, 
2031.00, 
2032.00, 
2033.00, 
2034.00, 
2035.00, 
2036.00, 
2037.00, 
2038.00, 
2039.00, 
2040.00, 
2041.00, 
2042.00, 
2043.00, 
2044.00, 
2045.00, 
2046.00, 
2047.00, 
2048.00, 
2049.00, 
2050.00, 
2051.00, 
2052.00, 
2053.00, 
2054.00, 
2055.00, 
2056.00, 
2057.00, 
2058.00, 
2059.00, 
2060.00, 
2061.00, 
2062.00, 
2063.00, 
2064.00, 
2065.00, 
2066.00, 
2067.00, 
2068.00, 
2069.00, 
2070.00, 
2071.00, 
2072.00, 
2073.00, 
2074.00, 
2075.00, 
2076.00, 
2077.00, 
2078.00, 
2079.00, 
2080.00, 
2081.00, 
2082.00, 
2083.00, 
2084.00, 
2085.00, 
2086.00, 
2087.00, 
2088.00, 
2089.00, 
2090.00, 
2091.00, 
2092.00, 
2093.00, 
2094.00, 
2095.00, 
2096.00, 
2097.00, 
2098.00, 
2099.00, 
2100.00, 
2101.00, 
2102.00, 
2103.00, 
2104.00, 
2105.00, 
2106.00, 
2107.00, 
2108.00, 
2109.00, 
2110.00, 
2111.00, 
2112.00, 
2113.00, 
2114.00, 
2115.00, 
2116.00, 
2117.00, 
2118.00, 
2119.00, 
2120.00, 
2121.00, 
2122.00, 
2123.00, 
2124.00, 
2125.00, 
2126.00, 
2127.00, 
2128.00, 
2129.00, 
2130.00, 
2131.00, 
2132.00, 
2133.00, 
2134.00, 
2135.00, 
2136.00, 
2137.00, 
2138.00, 
2139.00, 
2140.00, 
2141.00, 
2142.00, 
2143.00, 
2144.00, 
2145.00, 
2146.00, 
2147.00, 
2148.00, 
2149.00, 
2150.00, 
2151.00, 
2152.00, 
2153.00, 
2154.00, 
2155.00, 
2156.00, 
2157.00, 
2158.00, 
2159.00, 
2160.00, 
2161.00, 
2162.00, 
2163.00, 
2164.00, 
2165.00, 
2166.00, 
2167.00, 
2168.00, 
2169.00, 
2170.00, 
2171.00, 
2172.00, 
2173.00, 
2174.00, 
2175.00, 
2176.00, 
2177.00, 
2178.00, 
2179.00, 
2180.00, 
2181.00, 
2182.00, 
2183.00, 
2184.00, 
2185.00, 
2186.00, 
2187.00, 
2188.00, 
2189.00, 
2190.00, 
2191.00, 
2192.00, 
2193.00, 
2194.00, 
2195.00, 
2196.00, 
2197.00, 
2198.00, 
2199.00, 
2200.00, 
2201.00, 
2202.00, 
2203.00, 
2204.00, 
2205.00, 
2206.00, 
2207.00, 
2208.00, 
2209.00, 
2210.00, 
2211.00, 
2212.00, 
2213.00, 
2214.00, 
2215.00, 
2216.00, 
2217.00, 
2218.00, 
2219.00, 
2220.00, 
2221.00, 
2222.00, 
2223.00, 
2224.00, 
2225.00, 
2226.00, 
2227.00, 
2228.00, 
2229.00, 
2230.00, 
2231.00, 
2232.00, 
2233.00, 
2234.00, 
2235.00, 
2236.00, 
2237.00, 
2238.00, 
2239.00, 
2240.00, 
2241.00, 
2242.00, 
2243.00, 
2244.00, 
2245.00, 
2246.00, 
2247.00, 
2248.00, 
2249.00, 
2250.00, 
2251.00, 
2252.00, 
2253.00, 
2254.00, 
2255.00, 
2256.00, 
2257.00, 
2258.00, 
2259.00, 
2260.00, 
2261.00, 
2262.00, 
2263.00, 
2264.00, 
2265.00, 
2266.00, 
2267.00, 
2268.00, 
2269.00, 
2270.00, 
2271.00, 
2272.00, 
2273.00, 
2274.00, 
2275.00, 
2276.00, 
2277.00, 
2278.00, 
2279.00, 
2280.00, 
2281.00, 
2282.00, 
2283.00, 
2284.00, 
2285.00, 
2286.00, 
2287.00, 
2288.00, 
2289.00, 
2290.00, 
2291.00, 
2292.00, 
2293.00, 
2294.00, 
2295.00, 
2296.00, 
2297.00, 
2298.00, 
2299.00, 
2300.00, 
2301.00, 
2302.00, 
2303.00, 
2304.00, 
2305.00, 
2306.00, 
2307.00, 
2308.00, 
2309.00, 
2310.00, 
2311.00, 
2312.00, 
2313.00, 
2314.00, 
2315.00, 
2316.00, 
2317.00, 
2318.00, 
2319.00, 
2320.00, 
2321.00, 
2322.00, 
2323.00, 
2324.00, 
2325.00, 
2326.00, 
2327.00, 
2328.00, 
2329.00, 
2330.00, 
2331.00, 
2332.00, 
2333.00, 
2334.00, 
2335.00, 
2336.00, 
2337.00, 
2338.00, 
2339.00, 
2340.00, 
2341.00, 
2342.00, 
2343.00, 
2344.00, 
2345.00, 
2346.00, 
2347.00, 
2348.00, 
2349.00, 
2350.00, 
2351.00, 
2352.00, 
2353.00, 
2354.00, 
2355.00, 
2356.00, 
2357.00, 
2358.00, 
2359.00, 
2360.00, 
2361.00, 
2362.00, 
2363.00, 
2364.00, 
2365.00, 
2366.00, 
2367.00, 
2368.00, 
2369.00, 
2370.00, 
2371.00, 
2372.00, 
2373.00, 
2374.00, 
2375.00, 
2376.00, 
2377.00, 
2378.00, 
2379.00, 
2380.00, 
2381.00, 
2382.00, 
2383.00, 
2384.00, 
2385.00, 
2386.00, 
2387.00, 
2388.00, 
2389.00, 
2390.00, 
2391.00, 
2392.00, 
2393.00, 
2394.00, 
2395.00, 
2396.00, 
2397.00, 
2398.00, 
2399.00, 
2400.00, 
2401.00, 
2402.00, 
2403.00, 
2404.00, 
2405.00, 
2406.00, 
2407.00, 
2408.00, 
2409.00, 
2410.00, 
2411.00, 
2412.00, 
2413.00, 
2414.00, 
2415.00, 
2416.00, 
2417.00, 
2418.00, 
2419.00, 
2420.00, 
2421.00, 
2422.00, 
2423.00, 
2424.00, 
2425.00, 
2426.00, 
2427.00, 
2428.00, 
2429.00, 
2430.00, 
2431.00, 
2432.00, 
2433.00, 
2434.00, 
2435.00, 
2436.00, 
2437.00, 
2438.00, 
2439.00, 
2440.00, 
2441.00, 
2442.00, 
2443.00, 
2444.00, 
2445.00, 
2446.00, 
2447.00, 
2448.00, 
2449.00, 
2450.00, 
2451.00, 
2452.00, 
2453.00, 
2454.00, 
2455.00, 
2456.00, 
2457.00, 
2458.00, 
2459.00, 
2460.00, 
2461.00, 
2462.00, 
2463.00, 
2464.00, 
2465.00, 
2466.00, 
2467.00, 
2468.00, 
2469.00, 
2470.00, 
2471.00, 
2472.00, 
2473.00, 
2474.00, 
2475.00, 
2476.00, 
2477.00, 
2478.00, 
2479.00, 
2480.00, 
2481.00, 
2482.00, 
2483.00, 
2484.00, 
2485.00, 
2486.00, 
2487.00, 
2488.00, 
2489.00, 
2490.00, 
2491.00, 
2492.00, 
2493.00, 
2494.00, 
2495.00, 
2496.00, 
2497.00, 
2498.00, 
2499.00, 
2500.00, 
2501.00, 
2502.00, 
2503.00, 
2504.00, 
2505.00, 
2506.00, 
2507.00, 
2508.00, 
2509.00, 
2510.00, 
2511.00, 
2512.00, 
2513.00, 
2514.00, 
2515.00, 
2516.00, 
2517.00, 
2518.00, 
2519.00, 
2520.00, 
2521.00, 
2522.00, 
2523.00, 
2524.00, 
2525.00, 
2526.00, 
2527.00, 
2528.00, 
2529.00, 
2530.00, 
2531.00, 
2532.00, 
2533.00, 
2534.00, 
2535.00, 
2536.00, 
2537.00, 
2538.00, 
2539.00, 
2540.00, 
2541.00, 
2542.00, 
2543.00, 
2544.00, 
2545.00, 
2546.00, 
2547.00, 
2548.00, 
2549.00, 
2550.00, 
2551.00, 
2552.00, 
2553.00, 
2554.00, 
2555.00, 
2556.00, 
2557.00, 
2558.00, 
2559.00, 
2560.00, 
2561.00, 
2562.00, 
2563.00, 
2564.00, 
2565.00, 
2566.00, 
2567.00, 
2568.00, 
2569.00, 
2570.00, 
2571.00, 
2572.00, 
2573.00, 
2574.00, 
2575.00, 
2576.00, 
2577.00, 
2578.00, 
2579.00, 
2580.00, 
2581.00, 
2582.00, 
2583.00, 
2584.00, 
2585.00, 
2586.00, 
2587.00, 
2588.00, 
2589.00, 
2590.00, 
2591.00, 
2592.00, 
2593.00, 
2594.00, 
2595.00, 
2596.00, 
2597.00, 
2598.00, 
2599.00, 
2600.00, 
