"2cP5 - RawData"
"Wavelength nm.","T%"
200.00,-0.000
201.00,0.000
202.00,-0.001
203.00,0.001
204.00,0.003
205.00,0.003
206.00,0.001
207.00,0.000
208.00,0.002
209.00,0.000
210.00,-0.001
211.00,-0.000
212.00,0.000
213.00,0.001
214.00,0.002
215.00,0.001
216.00,0.003
217.00,0.002
218.00,0.000
219.00,0.001
220.00,0.000
221.00,-0.000
222.00,0.001
223.00,0.001
224.00,-0.000
225.00,-0.001
226.00,0.001
227.00,0.004
228.00,0.002
229.00,0.001
230.00,0.002
231.00,-0.001
232.00,-0.000
233.00,-0.000
234.00,0.002
235.00,-0.000
236.00,-0.003
237.00,-0.001
238.00,0.000
239.00,0.000
240.00,0.000
241.00,0.000
242.00,0.001
243.00,-0.000
244.00,0.000
245.00,-0.001
246.00,-0.001
247.00,0.001
248.00,-0.000
249.00,-0.001
250.00,-0.000
251.00,0.001
252.00,-0.001
253.00,-0.000
254.00,0.000
255.00,0.000
256.00,0.001
257.00,0.001
258.00,0.001
259.00,0.002
260.00,0.001
261.00,0.000
262.00,-0.003
263.00,-0.000
264.00,-0.001
265.00,-0.001
266.00,0.000
267.00,0.001
268.00,0.001
269.00,0.000
270.00,0.001
271.00,-0.000
272.00,0.000
273.00,0.001
274.00,0.001
275.00,0.001
276.00,-0.001
277.00,0.001
278.00,-0.000
279.00,-0.000
280.00,-0.000
281.00,0.001
282.00,0.001
283.00,-0.000
284.00,0.001
285.00,0.000
286.00,0.001
287.00,-0.000
288.00,0.000
289.00,-0.001
290.00,-0.001
291.00,-0.002
292.00,0.001
293.00,0.001
294.00,-0.000
295.00,0.000
296.00,0.000
297.00,0.001
298.00,0.000
299.00,0.000
300.00,0.001
301.00,0.004
302.00,0.003
303.00,0.004
304.00,0.007
305.00,0.012
306.00,0.018
307.00,0.026
308.00,0.041
309.00,0.067
310.00,0.093
311.00,0.124
312.00,0.169
313.00,0.228
314.00,0.296
315.00,0.385
316.00,0.494
317.00,0.620
318.00,0.769
319.00,0.939
320.00,1.132
321.00,1.351
322.00,1.612
323.00,1.881
324.00,2.186
325.00,2.480
326.00,2.805
327.00,3.164
328.00,3.527
329.00,3.898
330.00,4.276
331.00,4.628
332.00,5.073
333.00,5.492
334.00,5.906
335.00,6.309
336.00,6.716
337.00,7.127
338.00,7.513
339.00,7.874
340.00,8.236
341.00,8.602
342.00,8.934
343.00,9.284
344.00,9.626
345.00,9.917
346.00,10.179
347.00,10.411
348.00,10.704
349.00,10.906
350.00,11.121
351.00,11.311
352.00,11.488
353.00,11.668
354.00,11.824
355.00,11.972
356.00,12.114
357.00,12.221
358.00,12.361
359.00,12.481
360.00,12.614
361.00,12.658
362.00,12.733
363.00,12.799
364.00,12.820
365.00,12.844
366.00,12.900
367.00,12.944
368.00,12.950
369.00,12.940
370.00,12.931
371.00,12.961
372.00,12.903
373.00,12.958
374.00,12.944
375.00,12.854
376.00,12.834
377.00,12.779
378.00,12.719
379.00,12.678
380.00,12.636
381.00,12.603
382.00,12.577
383.00,12.564
384.00,12.548
385.00,12.568
386.00,12.530
387.00,12.566
388.00,12.562
389.00,12.546
390.00,12.551
391.00,12.536
392.00,12.533
393.00,12.483
394.00,12.474
395.00,12.508
396.00,12.452
397.00,12.467
398.00,12.433
399.00,12.449
400.00,12.456
401.00,12.424
402.00,12.432
403.00,12.424
404.00,12.413
405.00,12.395
406.00,12.398
407.00,12.372
408.00,12.374
409.00,12.322
410.00,12.286
411.00,12.279
412.00,12.264
413.00,12.287
414.00,12.267
415.00,12.282
416.00,12.298
417.00,12.290
418.00,12.298
419.00,12.349
420.00,12.378
421.00,12.357
422.00,12.384
423.00,12.410
424.00,12.459
425.00,12.463
426.00,12.488
427.00,12.539
428.00,12.579
429.00,12.600
430.00,12.650
431.00,12.690
432.00,12.717
433.00,12.794
434.00,12.829
435.00,12.895
436.00,12.942
437.00,12.994
438.00,13.074
439.00,13.136
440.00,13.196
441.00,13.256
442.00,13.331
443.00,13.417
444.00,13.486
445.00,13.587
446.00,13.653
447.00,13.740
448.00,13.832
449.00,13.957
450.00,14.026
451.00,14.095
452.00,14.193
453.00,14.277
454.00,14.398
455.00,14.509
456.00,14.638
457.00,14.733
458.00,14.819
459.00,14.959
460.00,15.083
461.00,15.189
462.00,15.297
463.00,15.426
464.00,15.565
465.00,15.698
466.00,15.816
467.00,15.908
468.00,16.088
469.00,16.163
470.00,16.291
471.00,16.394
472.00,16.528
473.00,16.616
474.00,16.734
475.00,16.860
476.00,16.980
477.00,17.113
478.00,17.258
479.00,17.407
480.00,17.537
481.00,17.681
482.00,17.845
483.00,17.986
484.00,18.150
485.00,18.284
486.00,18.423
487.00,18.592
488.00,18.732
489.00,18.890
490.00,19.054
491.00,19.215
492.00,19.349
493.00,19.551
494.00,19.709
495.00,19.768
496.00,19.889
497.00,20.020
498.00,20.161
499.00,20.347
500.00,20.482
501.00,20.603
502.00,20.759
503.00,20.891
504.00,20.964
505.00,21.174
506.00,21.323
507.00,21.390
508.00,21.491
509.00,21.695
510.00,21.821
511.00,21.950
512.00,22.140
513.00,22.254
514.00,22.366
515.00,22.546
516.00,22.661
517.00,22.759
518.00,22.922
519.00,23.019
520.00,23.067
521.00,23.203
522.00,23.319
523.00,23.387
524.00,23.444
525.00,23.647
526.00,23.720
527.00,23.838
528.00,23.954
529.00,24.127
530.00,24.234
531.00,24.371
532.00,24.474
533.00,24.623
534.00,24.685
535.00,24.793
536.00,24.897
537.00,24.972
538.00,25.053
539.00,25.135
540.00,25.231
541.00,25.296
542.00,25.370
543.00,25.458
544.00,25.563
545.00,25.641
546.00,25.682
547.00,25.835
548.00,25.924
549.00,25.965
550.00,26.039
551.00,26.174
552.00,26.267
553.00,26.334
554.00,26.436
555.00,26.457
556.00,26.515
557.00,26.621
558.00,26.659
559.00,26.759
560.00,26.827
561.00,26.931
562.00,26.949
563.00,27.011
564.00,27.109
565.00,27.133
566.00,27.141
567.00,27.193
568.00,27.293
569.00,27.315
570.00,27.387
571.00,27.414
572.00,27.482
573.00,27.450
574.00,27.518
575.00,27.586
576.00,27.576
577.00,27.638
578.00,27.776
579.00,27.831
580.00,27.896
581.00,27.983
582.00,28.019
583.00,28.024
584.00,28.162
585.00,28.255
586.00,28.360
587.00,28.415
588.00,28.474
589.00,28.470
590.00,28.574
591.00,28.628
592.00,28.549
593.00,28.620
594.00,28.790
595.00,28.853
596.00,28.891
597.00,28.982
598.00,29.107
599.00,29.098
600.00,29.099
601.00,29.190
602.00,29.193
603.00,29.288
604.00,29.384
605.00,29.377
606.00,29.499
607.00,29.554
608.00,29.619
609.00,29.599
610.00,29.728
611.00,29.912
612.00,29.830
613.00,29.827
614.00,29.930
615.00,29.992
616.00,30.135
617.00,30.126
618.00,30.143
619.00,30.268
620.00,30.293
621.00,30.419
622.00,30.510
623.00,30.526
624.00,30.638
625.00,30.715
626.00,30.785
627.00,30.889
628.00,30.906
629.00,31.031
630.00,31.058
631.00,31.093
632.00,31.238
633.00,31.361
634.00,31.501
635.00,31.589
636.00,31.597
637.00,31.609
638.00,31.827
639.00,32.146
640.00,32.141
641.00,32.115
642.00,32.253
643.00,32.359
644.00,32.481
645.00,32.586
646.00,32.739
647.00,32.856
648.00,32.914
649.00,32.976
650.00,33.045
651.00,33.249
652.00,33.363
653.00,33.470
654.00,33.591
655.00,33.805
656.00,34.047
657.00,34.009
658.00,34.231
659.00,34.334
660.00,34.488
661.00,34.565
662.00,34.537
663.00,34.706
664.00,34.988
665.00,35.154
666.00,35.099
667.00,35.183
668.00,35.275
669.00,35.592
670.00,35.786
671.00,35.773
672.00,35.914
673.00,35.890
674.00,36.150
675.00,36.512
676.00,36.641
677.00,36.743
678.00,36.729
679.00,36.936
680.00,37.055
681.00,37.293
682.00,37.389
683.00,37.438
684.00,37.671
685.00,37.778
686.00,37.710
687.00,38.010
688.00,38.099
689.00,38.196
690.00,38.375
691.00,38.709
692.00,38.934
693.00,38.749
694.00,39.003
695.00,39.239
696.00,39.296
697.00,39.346
698.00,39.492
699.00,39.860
700.00,39.878
701.00,39.964
702.00,40.101
703.00,40.263
704.00,40.360
705.00,40.439
706.00,40.681
707.00,40.748
708.00,40.674
709.00,41.137
710.00,41.527
711.00,41.098
712.00,41.247
713.00,41.486
714.00,41.704
715.00,41.789
716.00,41.823
717.00,42.056
718.00,42.270
719.00,42.245
720.00,42.425
721.00,46.653
722.00,46.772
723.00,46.803
724.00,46.874
725.00,46.952
726.00,47.073
727.00,47.084
728.00,47.235
729.00,47.301
730.00,47.382
731.00,47.479
732.00,47.577
733.00,47.653
734.00,47.806
735.00,47.856
736.00,47.919
737.00,48.013
738.00,48.123
739.00,48.228
740.00,48.287
741.00,48.349
742.00,48.470
743.00,48.472
744.00,48.523
745.00,48.591
746.00,48.672
747.00,48.688
748.00,48.762
749.00,48.814
750.00,48.881
751.00,48.873
752.00,48.940
753.00,48.949
754.00,49.063
755.00,49.136
756.00,49.168
757.00,49.122
758.00,49.284
759.00,49.358
760.00,49.367
761.00,49.449
762.00,49.485
763.00,49.601
764.00,49.526
765.00,49.656
766.00,49.690
767.00,49.814
768.00,49.842
769.00,49.836
770.00,49.894
771.00,49.976
772.00,49.989
773.00,50.005
774.00,50.111
775.00,50.113
776.00,50.245
777.00,50.191
778.00,50.223
779.00,50.278
780.00,50.237
781.00,50.251
782.00,50.362
783.00,50.345
784.00,50.395
785.00,50.370
786.00,50.444
787.00,50.435
788.00,50.482
789.00,50.435
790.00,50.517
791.00,50.584
792.00,50.553
793.00,50.616
794.00,50.611
795.00,50.599
796.00,50.661
797.00,50.584
798.00,50.611
799.00,50.645
800.00,50.626
801.00,50.623
802.00,50.653
803.00,50.667
804.00,50.732
805.00,50.682
806.00,50.748
807.00,50.626
808.00,50.741
809.00,50.722
810.00,50.725
811.00,50.745
812.00,50.828
813.00,50.746
814.00,50.789
815.00,50.822
816.00,50.695
817.00,50.731
818.00,50.711
819.00,50.711
820.00,50.686
821.00,50.731
822.00,50.792
823.00,50.615
824.00,50.768
825.00,50.790
826.00,50.788
827.00,50.861
828.00,50.759
829.00,50.799
830.00,50.831
831.00,52.912
832.00,52.910
833.00,52.897
834.00,52.865
835.00,52.859
836.00,52.867
837.00,52.868
838.00,52.884
839.00,52.873
840.00,52.856
841.00,52.870
842.00,52.852
843.00,52.882
844.00,52.820
845.00,52.829
846.00,52.854
847.00,52.836
848.00,52.827
849.00,52.738
850.00,52.764
851.00,52.644
852.00,52.865
853.00,52.683
854.00,52.685
855.00,52.632
856.00,52.642
857.00,52.602
858.00,52.608
859.00,52.549
860.00,52.563
861.00,52.566
862.00,52.533
863.00,52.535
864.00,52.546
865.00,52.555
866.00,52.552
867.00,52.557
868.00,52.541
869.00,52.538
870.00,52.546
871.00,52.531
872.00,52.578
873.00,52.501
874.00,52.522
875.00,52.486
876.00,52.521
877.00,52.487
878.00,52.492
879.00,52.484
880.00,52.486
881.00,52.479
882.00,52.541
883.00,52.476
884.00,52.459
885.00,52.431
886.00,52.433
887.00,52.394
888.00,52.372
889.00,52.332
890.00,52.335
891.00,52.307
892.00,52.276
893.00,52.254
894.00,52.262
895.00,52.250
896.00,52.225
897.00,52.218
898.00,52.227
899.00,52.196
900.00,52.205
901.00,52.208
902.00,52.217
903.00,52.179
904.00,52.182
905.00,52.185
906.00,52.139
907.00,52.133
908.00,52.099
909.00,52.070
910.00,52.062
911.00,52.069
912.00,52.043
913.00,52.044
914.00,52.016
915.00,52.021
916.00,52.021
917.00,51.956
918.00,51.976
919.00,51.909
920.00,51.880
921.00,51.885
922.00,51.885
923.00,51.878
924.00,51.834
925.00,51.839
926.00,51.789
927.00,51.818
928.00,51.804
929.00,51.777
930.00,51.751
931.00,51.751
932.00,51.718
933.00,51.727
934.00,51.694
935.00,51.680
936.00,51.660
937.00,51.648
938.00,51.622
939.00,51.617
940.00,51.594
941.00,51.603
942.00,51.396
943.00,51.567
944.00,51.527
945.00,51.531
946.00,51.507
947.00,51.488
948.00,51.487
949.00,51.451
950.00,51.444
951.00,51.420
952.00,51.395
953.00,51.372
954.00,51.359
955.00,51.313
956.00,51.329
957.00,51.287
958.00,51.283
959.00,51.240
960.00,51.240
961.00,51.217
962.00,51.221
963.00,51.175
964.00,51.161
965.00,51.165
966.00,51.166
967.00,51.132
968.00,51.145
969.00,51.163
970.00,51.127
971.00,51.156
972.00,51.067
973.00,51.182
974.00,51.104
975.00,51.119
976.00,51.135
977.00,51.121
978.00,51.177
979.00,51.116
980.00,51.154
981.00,51.151
982.00,51.122
983.00,51.125
984.00,51.098
985.00,51.131
986.00,51.085
987.00,51.119
988.00,51.090
989.00,51.080
990.00,51.069
991.00,51.049
992.00,51.076
993.00,51.036
994.00,51.032
995.00,51.025
996.00,51.040
997.00,51.014
998.00,50.979
999.00,51.002
1000.00,50.952
1001.00,50.933
1002.00,50.935
1003.00,50.961
1004.00,50.903
1005.00,50.888
1006.00,50.928
1007.00,50.894
1008.00,50.880
1009.00,50.868
1010.00,50.867
1011.00,50.848
1012.00,50.814
1013.00,50.814
1014.00,50.784
1015.00,50.789
1016.00,50.752
1017.00,50.740
1018.00,50.737
1019.00,50.736
1020.00,50.703
1021.00,50.682
1022.00,50.687
1023.00,50.647
1024.00,50.650
1025.00,50.636
1026.00,50.621
1027.00,50.579
1028.00,50.571
1029.00,50.572
1030.00,50.539
1031.00,50.536
1032.00,50.499
1033.00,50.498
1034.00,50.476
1035.00,50.448
1036.00,50.427
1037.00,50.412
1038.00,50.396
1039.00,50.366
1040.00,50.360
1041.00,50.316
1042.00,50.313
1043.00,50.302
1044.00,50.337
1045.00,50.319
1046.00,50.309
1047.00,50.331
1048.00,50.330
1049.00,50.352
1050.00,50.345
1051.00,50.385
1052.00,50.386
1053.00,50.385
1054.00,50.387
1055.00,50.403
1056.00,50.410
1057.00,50.403
1058.00,50.391
1059.00,50.382
1060.00,50.390
1061.00,50.373
1062.00,50.364
1063.00,50.373
1064.00,50.370
1065.00,50.357
1066.00,50.353
1067.00,50.351
1068.00,50.351
1069.00,50.312
1070.00,50.308
1071.00,50.290
1072.00,50.312
1073.00,50.287
1074.00,50.290
1075.00,50.274
1076.00,50.272
1077.00,50.263
1078.00,50.227
1079.00,50.231
1080.00,50.232
1081.00,50.208
1082.00,50.205
1083.00,50.193
1084.00,50.190
1085.00,50.185
1086.00,50.170
1087.00,50.163
1088.00,50.141
1089.00,50.152
1090.00,50.126
1091.00,50.128
1092.00,50.129
1093.00,50.105
1094.00,50.103
1095.00,50.120
1096.00,50.087
1097.00,50.077
1098.00,50.060
1099.00,50.039
1100.00,50.035
1101.00,50.021
1102.00,50.006
1103.00,50.020
1104.00,50.010
1105.00,50.005
1106.00,49.998
1107.00,49.987
1108.00,49.974
1109.00,49.973
1110.00,49.976
1111.00,49.950
1112.00,49.936
1113.00,49.925
1114.00,49.919
1115.00,49.921
1116.00,49.909
1117.00,49.894
1118.00,49.883
1119.00,49.889
1120.00,49.889
1121.00,49.879
1122.00,49.875
1123.00,49.870
1124.00,49.856
1125.00,49.865
1126.00,49.853
1127.00,49.826
1128.00,49.816
1129.00,49.815
1130.00,49.805
1131.00,49.807
1132.00,49.794
1133.00,49.804
1134.00,49.781
1135.00,49.766
1136.00,49.774
1137.00,49.765
1138.00,49.761
1139.00,49.773
1140.00,49.760
1141.00,49.757
1142.00,49.755
1143.00,49.760
1144.00,49.720
1145.00,49.726
1146.00,49.724
1147.00,49.724
1148.00,49.714
1149.00,49.720
1150.00,49.719
1151.00,49.713
1152.00,49.702
1153.00,49.695
1154.00,49.696
1155.00,49.690
1156.00,49.675
1157.00,49.702
1158.00,49.672
1159.00,49.670
1160.00,49.671
1161.00,49.682
1162.00,49.676
1163.00,49.665
1164.00,49.668
1165.00,49.651
1166.00,49.661
1167.00,49.648
1168.00,49.666
1169.00,49.655
1170.00,49.649
1171.00,49.633
1172.00,49.645
1173.00,49.639
1174.00,49.641
1175.00,49.637
1176.00,49.641
1177.00,49.621
1178.00,49.624
1179.00,49.633
1180.00,49.625
1181.00,49.638
1182.00,49.623
1183.00,49.612
1184.00,49.610
1185.00,49.614
1186.00,49.607
1187.00,49.618
1188.00,49.606
1189.00,49.606
1190.00,49.604
1191.00,49.596
1192.00,49.611
1193.00,49.590
1194.00,49.602
1195.00,49.577
1196.00,49.596
1197.00,49.600
1198.00,49.581
1199.00,49.574
1200.00,49.603
1201.00,49.597
1202.00,49.580
1203.00,49.596
1204.00,49.569
1205.00,49.586
1206.00,49.563
1207.00,49.561
1208.00,49.558
1209.00,49.559
1210.00,49.563
1211.00,49.560
1212.00,49.575
1213.00,49.545
1214.00,49.567
1215.00,49.557
1216.00,49.567
1217.00,49.567
1218.00,49.563
1219.00,49.565
1220.00,49.543
1221.00,49.553
1222.00,49.545
1223.00,49.569
1224.00,49.569
1225.00,49.547
1226.00,49.550
1227.00,49.546
1228.00,49.566
1229.00,49.562
1230.00,49.598
1231.00,49.589
1232.00,49.621
1233.00,49.619
1234.00,49.582
1235.00,49.588
1236.00,49.586
1237.00,49.592
1238.00,49.589
1239.00,49.591
1240.00,49.579
1241.00,49.601
1242.00,49.603
1243.00,49.609
1244.00,49.590
1245.00,49.614
1246.00,49.614
1247.00,49.595
1248.00,49.591
1249.00,49.606
1250.00,49.610
1251.00,49.608
1252.00,49.630
1253.00,49.608
1254.00,49.635
1255.00,49.646
1256.00,49.596
1257.00,49.567
1258.00,49.657
1259.00,49.639
1260.00,49.653
1261.00,49.649
1262.00,49.637
1263.00,49.641
1264.00,49.641
1265.00,49.647
1266.00,49.654
1267.00,49.657
1268.00,49.668
1269.00,49.656
1270.00,49.673
1271.00,49.669
1272.00,49.669
1273.00,49.677
1274.00,49.689
1275.00,49.690
1276.00,49.701
1277.00,49.701
1278.00,49.715
1279.00,49.719
1280.00,49.691
1281.00,49.717
1282.00,49.727
1283.00,49.719
1284.00,49.729
1285.00,49.715
1286.00,49.735
1287.00,49.727
1288.00,49.738
1289.00,49.737
1290.00,49.759
1291.00,49.752
1292.00,49.747
1293.00,49.751
1294.00,49.754
1295.00,49.775
1296.00,49.772
1297.00,49.769
1298.00,49.806
1299.00,49.781
1300.00,49.800
1301.00,49.787
1302.00,49.780
1303.00,49.816
1304.00,49.790
1305.00,49.816
1306.00,49.824
1307.00,49.833
1308.00,49.828
1309.00,49.849
1310.00,49.845
1311.00,49.830
1312.00,49.843
1313.00,49.848
1314.00,49.856
1315.00,49.864
1316.00,49.850
1317.00,49.884
1318.00,49.884
1319.00,49.890
1320.00,49.903
1321.00,50.043
1322.00,50.044
1323.00,50.041
1324.00,50.022
1325.00,49.993
1326.00,50.029
1327.00,50.019
1328.00,49.999
1329.00,50.015
1330.00,50.026
1331.00,50.019
1332.00,50.011
1333.00,50.036
1334.00,50.052
1335.00,50.067
1336.00,50.088
1337.00,50.136
1338.00,50.179
1339.00,50.203
1340.00,50.271
1341.00,50.327
1342.00,50.396
1343.00,50.434
1344.00,50.488
1345.00,50.546
1346.00,50.587
1347.00,50.626
1348.00,50.626
1349.00,50.667
1350.00,50.682
1351.00,50.683
1352.00,50.688
1353.00,50.687
1354.00,50.688
1355.00,50.668
1356.00,50.694
1357.00,50.697
1358.00,50.727
1359.00,50.725
1360.00,50.732
1361.00,50.635
1362.00,50.675
1363.00,50.762
1364.00,50.722
1365.00,50.732
1366.00,50.728
1367.00,50.689
1368.00,50.697
1369.00,50.718
1370.00,50.688
1371.00,50.671
1372.00,50.681
1373.00,50.692
1374.00,50.720
1375.00,50.690
1376.00,50.679
1377.00,50.669
1378.00,50.705
1379.00,50.678
1380.00,50.659
1381.00,50.679
1382.00,50.671
1383.00,50.651
1384.00,50.641
1385.00,50.655
1386.00,50.681
1387.00,50.651
1388.00,50.613
1389.00,50.666
1390.00,50.668
1391.00,50.650
1392.00,50.653
1393.00,50.661
1394.00,50.671
1395.00,50.642
1396.00,50.617
1397.00,50.643
1398.00,50.724
1399.00,50.706
1400.00,50.629
1401.00,50.657
1402.00,50.745
1403.00,50.660
1404.00,50.683
1405.00,50.712
1406.00,50.732
1407.00,50.724
1408.00,50.711
1409.00,50.708
1410.00,50.742
1411.00,50.732
1412.00,50.775
1413.00,50.735
1414.00,50.738
1415.00,50.778
1416.00,50.788
1417.00,50.793
1418.00,50.786
1419.00,50.805
1420.00,50.818
1421.00,50.841
1422.00,50.849
1423.00,50.871
1424.00,50.874
1425.00,50.901
1426.00,50.901
1427.00,50.903
1428.00,50.906
1429.00,50.937
1430.00,50.917
1431.00,50.944
1432.00,50.960
1433.00,50.977
1434.00,50.974
1435.00,51.023
1436.00,51.022
1437.00,51.020
1438.00,51.045
1439.00,51.069
1440.00,51.081
1441.00,51.078
1442.00,51.091
1443.00,51.135
1444.00,51.167
1445.00,51.158
1446.00,51.170
1447.00,51.206
1448.00,51.231
1449.00,51.214
1450.00,51.224
1451.00,51.233
1452.00,51.252
1453.00,51.246
1454.00,51.263
1455.00,51.297
1456.00,51.309
1457.00,51.299
1458.00,51.327
1459.00,51.352
1460.00,51.386
1461.00,51.359
1462.00,51.399
1463.00,51.388
1464.00,51.399
1465.00,51.412
1466.00,51.415
1467.00,51.440
1468.00,51.478
1469.00,51.471
1470.00,51.482
1471.00,51.500
1472.00,51.513
1473.00,51.529
1474.00,51.553
1475.00,51.561
1476.00,51.585
1477.00,51.566
1478.00,51.591
1479.00,51.601
1480.00,51.601
1481.00,51.599
1482.00,51.632
1483.00,51.656
1484.00,51.667
1485.00,51.676
1486.00,51.682
1487.00,51.715
1488.00,51.740
1489.00,51.746
1490.00,51.770
1491.00,51.754
1492.00,51.778
1493.00,51.756
1494.00,51.785
1495.00,51.787
1496.00,51.790
1497.00,51.794
1498.00,51.809
1499.00,51.820
1500.00,51.844
1501.00, 
1502.00, 
1503.00, 
1504.00, 
1505.00, 
1506.00, 
1507.00, 
1508.00, 
1509.00, 
1510.00, 
1511.00, 
1512.00, 
1513.00, 
1514.00, 
1515.00, 
1516.00, 
1517.00, 
1518.00, 
1519.00, 
1520.00, 
1521.00, 
1522.00, 
1523.00, 
1524.00, 
1525.00, 
1526.00, 
1527.00, 
1528.00, 
1529.00, 
1530.00, 
1531.00, 
1532.00, 
1533.00, 
1534.00, 
1535.00, 
1536.00, 
1537.00, 
1538.00, 
1539.00, 
1540.00, 
1541.00, 
1542.00, 
1543.00, 
1544.00, 
1545.00, 
1546.00, 
1547.00, 
1548.00, 
1549.00, 
1550.00, 
1551.00, 
1552.00, 
1553.00, 
1554.00, 
1555.00, 
1556.00, 
1557.00, 
1558.00, 
1559.00, 
1560.00, 
1561.00, 
1562.00, 
1563.00, 
1564.00, 
1565.00, 
1566.00, 
1567.00, 
1568.00, 
1569.00, 
1570.00, 
1571.00, 
1572.00, 
1573.00, 
1574.00, 
1575.00, 
1576.00, 
1577.00, 
1578.00, 
1579.00, 
1580.00, 
1581.00, 
1582.00, 
1583.00, 
1584.00, 
1585.00, 
1586.00, 
1587.00, 
1588.00, 
1589.00, 
1590.00, 
1591.00, 
1592.00, 
1593.00, 
1594.00, 
1595.00, 
1596.00, 
1597.00, 
1598.00, 
1599.00, 
1600.00, 
1601.00, 
1602.00, 
1603.00, 
1604.00, 
1605.00, 
1606.00, 
1607.00, 
1608.00, 
1609.00, 
1610.00, 
1611.00, 
1612.00, 
1613.00, 
1614.00, 
1615.00, 
1616.00, 
1617.00, 
1618.00, 
1619.00, 
1620.00, 
1621.00, 
1622.00, 
1623.00, 
1624.00, 
1625.00, 
1626.00, 
1627.00, 
1628.00, 
1629.00, 
1630.00, 
1631.00, 
1632.00, 
1633.00, 
1634.00, 
1635.00, 
1636.00, 
1637.00, 
1638.00, 
1639.00, 
1640.00, 
1641.00, 
1642.00, 
1643.00, 
1644.00, 
1645.00, 
1646.00, 
1647.00, 
1648.00, 
1649.00, 
1650.00, 
1651.00, 
1652.00, 
1653.00, 
1654.00, 
1655.00, 
1656.00, 
1657.00, 
1658.00, 
1659.00, 
1660.00, 
1661.00, 
1662.00, 
1663.00, 
1664.00, 
1665.00, 
1666.00, 
1667.00, 
1668.00, 
1669.00, 
1670.00, 
1671.00, 
1672.00, 
1673.00, 
1674.00, 
1675.00, 
1676.00, 
1677.00, 
1678.00, 
1679.00, 
1680.00, 
1681.00, 
1682.00, 
1683.00, 
1684.00, 
1685.00, 
1686.00, 
1687.00, 
1688.00, 
1689.00, 
1690.00, 
1691.00, 
1692.00, 
1693.00, 
1694.00, 
1695.00, 
1696.00, 
1697.00, 
1698.00, 
1699.00, 
1700.00, 
1701.00, 
1702.00, 
1703.00, 
1704.00, 
1705.00, 
1706.00, 
1707.00, 
1708.00, 
1709.00, 
1710.00, 
1711.00, 
1712.00, 
1713.00, 
1714.00, 
1715.00, 
1716.00, 
1717.00, 
1718.00, 
1719.00, 
1720.00, 
1721.00, 
1722.00, 
1723.00, 
1724.00, 
1725.00, 
1726.00, 
1727.00, 
1728.00, 
1729.00, 
1730.00, 
1731.00, 
1732.00, 
1733.00, 
1734.00, 
1735.00, 
1736.00, 
1737.00, 
1738.00, 
1739.00, 
1740.00, 
1741.00, 
1742.00, 
1743.00, 
1744.00, 
1745.00, 
1746.00, 
1747.00, 
1748.00, 
1749.00, 
1750.00, 
1751.00, 
1752.00, 
1753.00, 
1754.00, 
1755.00, 
1756.00, 
1757.00, 
1758.00, 
1759.00, 
1760.00, 
1761.00, 
1762.00, 
1763.00, 
1764.00, 
1765.00, 
1766.00, 
1767.00, 
1768.00, 
1769.00, 
1770.00, 
1771.00, 
1772.00, 
1773.00, 
1774.00, 
1775.00, 
1776.00, 
1777.00, 
1778.00, 
1779.00, 
1780.00, 
1781.00, 
1782.00, 
1783.00, 
1784.00, 
1785.00, 
1786.00, 
1787.00, 
1788.00, 
1789.00, 
1790.00, 
1791.00, 
1792.00, 
1793.00, 
1794.00, 
1795.00, 
1796.00, 
1797.00, 
1798.00, 
1799.00, 
1800.00, 
1801.00, 
1802.00, 
1803.00, 
1804.00, 
1805.00, 
1806.00, 
1807.00, 
1808.00, 
1809.00, 
1810.00, 
1811.00, 
1812.00, 
1813.00, 
1814.00, 
1815.00, 
1816.00, 
1817.00, 
1818.00, 
1819.00, 
1820.00, 
1821.00, 
1822.00, 
1823.00, 
1824.00, 
1825.00, 
1826.00, 
1827.00, 
1828.00, 
1829.00, 
1830.00, 
1831.00, 
1832.00, 
1833.00, 
1834.00, 
1835.00, 
1836.00, 
1837.00, 
1838.00, 
1839.00, 
1840.00, 
1841.00, 
1842.00, 
1843.00, 
1844.00, 
1845.00, 
1846.00, 
1847.00, 
1848.00, 
1849.00, 
1850.00, 
1851.00, 
1852.00, 
1853.00, 
1854.00, 
1855.00, 
1856.00, 
1857.00, 
1858.00, 
1859.00, 
1860.00, 
1861.00, 
1862.00, 
1863.00, 
1864.00, 
1865.00, 
1866.00, 
1867.00, 
1868.00, 
1869.00, 
1870.00, 
1871.00, 
1872.00, 
1873.00, 
1874.00, 
1875.00, 
1876.00, 
1877.00, 
1878.00, 
1879.00, 
1880.00, 
1881.00, 
1882.00, 
1883.00, 
1884.00, 
1885.00, 
1886.00, 
1887.00, 
1888.00, 
1889.00, 
1890.00, 
1891.00, 
1892.00, 
1893.00, 
1894.00, 
1895.00, 
1896.00, 
1897.00, 
1898.00, 
1899.00, 
1900.00, 
1901.00, 
1902.00, 
1903.00, 
1904.00, 
1905.00, 
1906.00, 
1907.00, 
1908.00, 
1909.00, 
1910.00, 
1911.00, 
1912.00, 
1913.00, 
1914.00, 
1915.00, 
1916.00, 
1917.00, 
1918.00, 
1919.00, 
1920.00, 
1921.00, 
1922.00, 
1923.00, 
1924.00, 
1925.00, 
1926.00, 
1927.00, 
1928.00, 
1929.00, 
1930.00, 
1931.00, 
1932.00, 
1933.00, 
1934.00, 
1935.00, 
1936.00, 
1937.00, 
1938.00, 
1939.00, 
1940.00, 
1941.00, 
1942.00, 
1943.00, 
1944.00, 
1945.00, 
1946.00, 
1947.00, 
1948.00, 
1949.00, 
1950.00, 
1951.00, 
1952.00, 
1953.00, 
1954.00, 
1955.00, 
1956.00, 
1957.00, 
1958.00, 
1959.00, 
1960.00, 
1961.00, 
1962.00, 
1963.00, 
1964.00, 
1965.00, 
1966.00, 
1967.00, 
1968.00, 
1969.00, 
1970.00, 
1971.00, 
1972.00, 
1973.00, 
1974.00, 
1975.00, 
1976.00, 
1977.00, 
1978.00, 
1979.00, 
1980.00, 
1981.00, 
1982.00, 
1983.00, 
1984.00, 
1985.00, 
1986.00, 
1987.00, 
1988.00, 
1989.00, 
1990.00, 
1991.00, 
1992.00, 
1993.00, 
1994.00, 
1995.00, 
1996.00, 
1997.00, 
1998.00, 
1999.00, 
2000.00, 
2001.00, 
2002.00, 
2003.00, 
2004.00, 
2005.00, 
2006.00, 
2007.00, 
2008.00, 
2009.00, 
2010.00, 
2011.00, 
2012.00, 
2013.00, 
2014.00, 
2015.00, 
2016.00, 
2017.00, 
2018.00, 
2019.00, 
2020.00, 
2021.00, 
2022.00, 
2023.00, 
2024.00, 
2025.00, 
2026.00, 
2027.00, 
2028.00, 
2029.00, 
2030.00, 
2031.00, 
2032.00, 
2033.00, 
2034.00, 
2035.00, 
2036.00, 
2037.00, 
2038.00, 
2039.00, 
2040.00, 
2041.00, 
2042.00, 
2043.00, 
2044.00, 
2045.00, 
2046.00, 
2047.00, 
2048.00, 
2049.00, 
2050.00, 
2051.00, 
2052.00, 
2053.00, 
2054.00, 
2055.00, 
2056.00, 
2057.00, 
2058.00, 
2059.00, 
2060.00, 
2061.00, 
2062.00, 
2063.00, 
2064.00, 
2065.00, 
2066.00, 
2067.00, 
2068.00, 
2069.00, 
2070.00, 
2071.00, 
2072.00, 
2073.00, 
2074.00, 
2075.00, 
2076.00, 
2077.00, 
2078.00, 
2079.00, 
2080.00, 
2081.00, 
2082.00, 
2083.00, 
2084.00, 
2085.00, 
2086.00, 
2087.00, 
2088.00, 
2089.00, 
2090.00, 
2091.00, 
2092.00, 
2093.00, 
2094.00, 
2095.00, 
2096.00, 
2097.00, 
2098.00, 
2099.00, 
2100.00, 
2101.00, 
2102.00, 
2103.00, 
2104.00, 
2105.00, 
2106.00, 
2107.00, 
2108.00, 
2109.00, 
2110.00, 
2111.00, 
2112.00, 
2113.00, 
2114.00, 
2115.00, 
2116.00, 
2117.00, 
2118.00, 
2119.00, 
2120.00, 
2121.00, 
2122.00, 
2123.00, 
2124.00, 
2125.00, 
2126.00, 
2127.00, 
2128.00, 
2129.00, 
2130.00, 
2131.00, 
2132.00, 
2133.00, 
2134.00, 
2135.00, 
2136.00, 
2137.00, 
2138.00, 
2139.00, 
2140.00, 
2141.00, 
2142.00, 
2143.00, 
2144.00, 
2145.00, 
2146.00, 
2147.00, 
2148.00, 
2149.00, 
2150.00, 
2151.00, 
2152.00, 
2153.00, 
2154.00, 
2155.00, 
2156.00, 
2157.00, 
2158.00, 
2159.00, 
2160.00, 
2161.00, 
2162.00, 
2163.00, 
2164.00, 
2165.00, 
2166.00, 
2167.00, 
2168.00, 
2169.00, 
2170.00, 
2171.00, 
2172.00, 
2173.00, 
2174.00, 
2175.00, 
2176.00, 
2177.00, 
2178.00, 
2179.00, 
2180.00, 
2181.00, 
2182.00, 
2183.00, 
2184.00, 
2185.00, 
2186.00, 
2187.00, 
2188.00, 
2189.00, 
2190.00, 
2191.00, 
2192.00, 
2193.00, 
2194.00, 
2195.00, 
2196.00, 
2197.00, 
2198.00, 
2199.00, 
2200.00, 
2201.00, 
2202.00, 
2203.00, 
2204.00, 
2205.00, 
2206.00, 
2207.00, 
2208.00, 
2209.00, 
2210.00, 
2211.00, 
2212.00, 
2213.00, 
2214.00, 
2215.00, 
2216.00, 
2217.00, 
2218.00, 
2219.00, 
2220.00, 
2221.00, 
2222.00, 
2223.00, 
2224.00, 
2225.00, 
2226.00, 
2227.00, 
2228.00, 
2229.00, 
2230.00, 
2231.00, 
2232.00, 
2233.00, 
2234.00, 
2235.00, 
2236.00, 
2237.00, 
2238.00, 
2239.00, 
2240.00, 
2241.00, 
2242.00, 
2243.00, 
2244.00, 
2245.00, 
2246.00, 
2247.00, 
2248.00, 
2249.00, 
2250.00, 
2251.00, 
2252.00, 
2253.00, 
2254.00, 
2255.00, 
2256.00, 
2257.00, 
2258.00, 
2259.00, 
2260.00, 
2261.00, 
2262.00, 
2263.00, 
2264.00, 
2265.00, 
2266.00, 
2267.00, 
2268.00, 
2269.00, 
2270.00, 
2271.00, 
2272.00, 
2273.00, 
2274.00, 
2275.00, 
2276.00, 
2277.00, 
2278.00, 
2279.00, 
2280.00, 
2281.00, 
2282.00, 
2283.00, 
2284.00, 
2285.00, 
2286.00, 
2287.00, 
2288.00, 
2289.00, 
2290.00, 
2291.00, 
2292.00, 
2293.00, 
2294.00, 
2295.00, 
2296.00, 
2297.00, 
2298.00, 
2299.00, 
2300.00, 
2301.00, 
2302.00, 
2303.00, 
2304.00, 
2305.00, 
2306.00, 
2307.00, 
2308.00, 
2309.00, 
2310.00, 
2311.00, 
2312.00, 
2313.00, 
2314.00, 
2315.00, 
2316.00, 
2317.00, 
2318.00, 
2319.00, 
2320.00, 
2321.00, 
2322.00, 
2323.00, 
2324.00, 
2325.00, 
2326.00, 
2327.00, 
2328.00, 
2329.00, 
2330.00, 
2331.00, 
2332.00, 
2333.00, 
2334.00, 
2335.00, 
2336.00, 
2337.00, 
2338.00, 
2339.00, 
2340.00, 
2341.00, 
2342.00, 
2343.00, 
2344.00, 
2345.00, 
2346.00, 
2347.00, 
2348.00, 
2349.00, 
2350.00, 
2351.00, 
2352.00, 
2353.00, 
2354.00, 
2355.00, 
2356.00, 
2357.00, 
2358.00, 
2359.00, 
2360.00, 
2361.00, 
2362.00, 
2363.00, 
2364.00, 
2365.00, 
2366.00, 
2367.00, 
2368.00, 
2369.00, 
2370.00, 
2371.00, 
2372.00, 
2373.00, 
2374.00, 
2375.00, 
2376.00, 
2377.00, 
2378.00, 
2379.00, 
2380.00, 
2381.00, 
2382.00, 
2383.00, 
2384.00, 
2385.00, 
2386.00, 
2387.00, 
2388.00, 
2389.00, 
2390.00, 
2391.00, 
2392.00, 
2393.00, 
2394.00, 
2395.00, 
2396.00, 
2397.00, 
2398.00, 
2399.00, 
2400.00, 
2401.00, 
2402.00, 
2403.00, 
2404.00, 
2405.00, 
2406.00, 
2407.00, 
2408.00, 
2409.00, 
2410.00, 
2411.00, 
2412.00, 
2413.00, 
2414.00, 
2415.00, 
2416.00, 
2417.00, 
2418.00, 
2419.00, 
2420.00, 
2421.00, 
2422.00, 
2423.00, 
2424.00, 
2425.00, 
2426.00, 
2427.00, 
2428.00, 
2429.00, 
2430.00, 
2431.00, 
2432.00, 
2433.00, 
2434.00, 
2435.00, 
2436.00, 
2437.00, 
2438.00, 
2439.00, 
2440.00, 
2441.00, 
2442.00, 
2443.00, 
2444.00, 
2445.00, 
2446.00, 
2447.00, 
2448.00, 
2449.00, 
2450.00, 
2451.00, 
2452.00, 
2453.00, 
2454.00, 
2455.00, 
2456.00, 
2457.00, 
2458.00, 
2459.00, 
2460.00, 
2461.00, 
2462.00, 
2463.00, 
2464.00, 
2465.00, 
2466.00, 
2467.00, 
2468.00, 
2469.00, 
2470.00, 
2471.00, 
2472.00, 
2473.00, 
2474.00, 
2475.00, 
2476.00, 
2477.00, 
2478.00, 
2479.00, 
2480.00, 
2481.00, 
2482.00, 
2483.00, 
2484.00, 
2485.00, 
2486.00, 
2487.00, 
2488.00, 
2489.00, 
2490.00, 
2491.00, 
2492.00, 
2493.00, 
2494.00, 
2495.00, 
2496.00, 
2497.00, 
2498.00, 
2499.00, 
2500.00, 
2501.00, 
2502.00, 
2503.00, 
2504.00, 
2505.00, 
2506.00, 
2507.00, 
2508.00, 
2509.00, 
2510.00, 
2511.00, 
2512.00, 
2513.00, 
2514.00, 
2515.00, 
2516.00, 
2517.00, 
2518.00, 
2519.00, 
2520.00, 
2521.00, 
2522.00, 
2523.00, 
2524.00, 
2525.00, 
2526.00, 
2527.00, 
2528.00, 
2529.00, 
2530.00, 
2531.00, 
2532.00, 
2533.00, 
2534.00, 
2535.00, 
2536.00, 
2537.00, 
2538.00, 
2539.00, 
2540.00, 
2541.00, 
2542.00, 
2543.00, 
2544.00, 
2545.00, 
2546.00, 
2547.00, 
2548.00, 
2549.00, 
2550.00, 
2551.00, 
2552.00, 
2553.00, 
2554.00, 
2555.00, 
2556.00, 
2557.00, 
2558.00, 
2559.00, 
2560.00, 
2561.00, 
2562.00, 
2563.00, 
2564.00, 
2565.00, 
2566.00, 
2567.00, 
2568.00, 
2569.00, 
2570.00, 
2571.00, 
2572.00, 
2573.00, 
2574.00, 
2575.00, 
2576.00, 
2577.00, 
2578.00, 
2579.00, 
2580.00, 
2581.00, 
2582.00, 
2583.00, 
2584.00, 
2585.00, 
2586.00, 
2587.00, 
2588.00, 
2589.00, 
2590.00, 
2591.00, 
2592.00, 
2593.00, 
2594.00, 
2595.00, 
2596.00, 
2597.00, 
2598.00, 
2599.00, 
2600.00, 
