"2bP2 - RawData"
"Wavelength nm.","T%"
200.00,0.003
201.00,0.001
202.00,-0.001
203.00,0.001
204.00,0.005
205.00,-0.001
206.00,0.001
207.00,0.002
208.00,-0.001
209.00,0.001
210.00,0.002
211.00,0.002
212.00,0.001
213.00,0.000
214.00,0.001
215.00,-0.001
216.00,-0.001
217.00,0.001
218.00,0.001
219.00,0.002
220.00,0.000
221.00,0.000
222.00,0.002
223.00,0.003
224.00,0.001
225.00,0.002
226.00,-0.001
227.00,0.002
228.00,0.003
229.00,-0.001
230.00,-0.001
231.00,0.001
232.00,0.000
233.00,-0.000
234.00,-0.001
235.00,-0.000
236.00,-0.002
237.00,-0.001
238.00,0.000
239.00,0.000
240.00,-0.000
241.00,0.001
242.00,-0.000
243.00,0.003
244.00,0.000
245.00,0.002
246.00,-0.001
247.00,-0.002
248.00,-0.000
249.00,-0.000
250.00,-0.000
251.00,0.001
252.00,0.001
253.00,-0.001
254.00,0.000
255.00,0.000
256.00,0.000
257.00,0.000
258.00,0.001
259.00,0.002
260.00,-0.002
261.00,0.001
262.00,0.001
263.00,0.001
264.00,-0.000
265.00,0.001
266.00,0.001
267.00,0.001
268.00,-0.000
269.00,0.001
270.00,-0.000
271.00,-0.000
272.00,0.001
273.00,-0.000
274.00,-0.000
275.00,0.001
276.00,0.000
277.00,0.001
278.00,0.001
279.00,-0.001
280.00,0.001
281.00,-0.001
282.00,-0.001
283.00,-0.000
284.00,-0.001
285.00,-0.001
286.00,-0.001
287.00,0.000
288.00,0.000
289.00,-0.000
290.00,0.001
291.00,-0.001
292.00,-0.000
293.00,-0.000
294.00,0.002
295.00,-0.000
296.00,-0.001
297.00,0.000
298.00,0.000
299.00,0.002
300.00,0.003
301.00,0.003
302.00,0.005
303.00,0.007
304.00,0.012
305.00,0.017
306.00,0.027
307.00,0.040
308.00,0.058
309.00,0.092
310.00,0.128
311.00,0.174
312.00,0.239
313.00,0.315
314.00,0.409
315.00,0.524
316.00,0.668
317.00,0.829
318.00,1.019
319.00,1.242
320.00,1.509
321.00,1.799
322.00,2.112
323.00,2.480
324.00,2.843
325.00,3.247
326.00,3.633
327.00,4.089
328.00,4.534
329.00,5.023
330.00,5.497
331.00,5.969
332.00,6.505
333.00,6.941
334.00,7.515
335.00,7.996
336.00,8.516
337.00,8.986
338.00,9.474
339.00,9.924
340.00,10.389
341.00,10.835
342.00,11.223
343.00,11.634
344.00,12.030
345.00,12.389
346.00,12.701
347.00,13.042
348.00,13.342
349.00,13.633
350.00,13.910
351.00,14.127
352.00,14.315
353.00,14.516
354.00,14.768
355.00,14.959
356.00,15.099
357.00,15.232
358.00,15.395
359.00,15.538
360.00,15.692
361.00,15.801
362.00,15.859
363.00,15.987
364.00,16.035
365.00,16.064
366.00,16.088
367.00,16.137
368.00,16.156
369.00,16.141
370.00,16.158
371.00,16.187
372.00,16.141
373.00,16.186
374.00,16.163
375.00,16.088
376.00,16.044
377.00,16.033
378.00,15.952
379.00,15.880
380.00,15.856
381.00,15.809
382.00,15.811
383.00,15.801
384.00,15.805
385.00,15.809
386.00,15.744
387.00,15.797
388.00,15.824
389.00,15.802
390.00,15.786
391.00,15.762
392.00,15.784
393.00,15.768
394.00,15.771
395.00,15.748
396.00,15.673
397.00,15.707
398.00,15.654
399.00,15.671
400.00,15.660
401.00,15.632
402.00,15.664
403.00,15.665
404.00,15.647
405.00,15.646
406.00,15.619
407.00,15.602
408.00,15.601
409.00,15.540
410.00,15.518
411.00,15.518
412.00,15.484
413.00,15.474
414.00,15.456
415.00,15.476
416.00,15.500
417.00,15.449
418.00,15.495
419.00,15.546
420.00,15.570
421.00,15.563
422.00,15.563
423.00,15.638
424.00,15.633
425.00,15.680
426.00,15.711
427.00,15.750
428.00,15.782
429.00,15.808
430.00,15.865
431.00,15.929
432.00,15.943
433.00,16.014
434.00,16.062
435.00,16.122
436.00,16.179
437.00,16.238
438.00,16.318
439.00,16.366
440.00,16.440
441.00,16.502
442.00,16.581
443.00,16.655
444.00,16.757
445.00,16.827
446.00,16.920
447.00,17.023
448.00,17.111
449.00,17.213
450.00,17.299
451.00,17.369
452.00,17.472
453.00,17.586
454.00,17.694
455.00,17.813
456.00,17.925
457.00,18.027
458.00,18.138
459.00,18.270
460.00,18.395
461.00,18.505
462.00,18.617
463.00,18.764
464.00,18.880
465.00,19.024
466.00,19.159
467.00,19.259
468.00,19.375
469.00,19.496
470.00,19.614
471.00,19.698
472.00,19.848
473.00,19.947
474.00,20.081
475.00,20.199
476.00,20.340
477.00,20.467
478.00,20.607
479.00,20.783
480.00,20.926
481.00,21.044
482.00,21.238
483.00,21.372
484.00,21.527
485.00,21.675
486.00,21.857
487.00,21.994
488.00,22.127
489.00,22.253
490.00,22.421
491.00,22.577
492.00,22.710
493.00,22.902
494.00,23.055
495.00,23.135
496.00,23.186
497.00,23.376
498.00,23.553
499.00,23.718
500.00,23.864
501.00,23.974
502.00,24.126
503.00,24.284
504.00,24.355
505.00,24.534
506.00,24.671
507.00,24.779
508.00,24.902
509.00,25.036
510.00,25.160
511.00,25.239
512.00,25.477
513.00,25.636
514.00,25.742
515.00,25.893
516.00,26.027
517.00,26.162
518.00,26.287
519.00,26.356
520.00,26.410
521.00,26.573
522.00,26.687
523.00,26.748
524.00,26.854
525.00,27.004
526.00,27.083
527.00,27.180
528.00,27.212
529.00,27.396
530.00,27.534
531.00,27.659
532.00,27.744
533.00,27.848
534.00,27.940
535.00,28.081
536.00,28.141
537.00,28.184
538.00,28.248
539.00,28.405
540.00,28.470
541.00,28.534
542.00,28.618
543.00,28.653
544.00,28.819
545.00,28.885
546.00,28.884
547.00,29.027
548.00,29.095
549.00,29.163
550.00,29.293
551.00,29.370
552.00,29.432
553.00,29.530
554.00,29.608
555.00,29.633
556.00,29.686
557.00,29.756
558.00,29.853
559.00,29.907
560.00,29.956
561.00,30.067
562.00,30.116
563.00,30.174
564.00,30.238
565.00,30.264
566.00,30.356
567.00,30.371
568.00,30.422
569.00,30.481
570.00,30.492
571.00,30.630
572.00,30.626
573.00,30.606
574.00,30.685
575.00,30.734
576.00,30.756
577.00,30.823
578.00,30.950
579.00,30.979
580.00,31.010
581.00,31.155
582.00,31.223
583.00,31.233
584.00,31.366
585.00,31.422
586.00,31.491
587.00,31.555
588.00,31.594
589.00,31.577
590.00,31.683
591.00,31.723
592.00,31.731
593.00,31.778
594.00,31.851
595.00,31.985
596.00,32.052
597.00,32.106
598.00,32.171
599.00,32.210
600.00,32.267
601.00,32.258
602.00,32.297
603.00,32.369
604.00,32.403
605.00,32.484
606.00,32.547
607.00,32.506
608.00,32.607
609.00,32.678
610.00,32.874
611.00,32.823
612.00,32.861
613.00,32.872
614.00,32.998
615.00,33.049
616.00,33.183
617.00,33.159
618.00,33.190
619.00,33.319
620.00,33.345
621.00,33.413
622.00,33.492
623.00,33.572
624.00,33.669
625.00,33.711
626.00,33.750
627.00,33.900
628.00,33.869
629.00,34.012
630.00,34.093
631.00,34.160
632.00,34.208
633.00,34.400
634.00,34.520
635.00,34.575
636.00,34.610
637.00,34.741
638.00,34.805
639.00,34.913
640.00,34.987
641.00,35.048
642.00,35.141
643.00,35.277
644.00,35.364
645.00,35.436
646.00,35.607
647.00,35.697
648.00,35.758
649.00,35.852
650.00,35.905
651.00,36.111
652.00,36.191
653.00,36.235
654.00,36.267
655.00,36.558
656.00,36.811
657.00,36.733
658.00,36.826
659.00,36.999
660.00,37.042
661.00,37.155
662.00,37.208
663.00,37.399
664.00,37.634
665.00,37.800
666.00,37.786
667.00,37.877
668.00,37.826
669.00,38.123
670.00,38.438
671.00,38.383
672.00,38.595
673.00,38.565
674.00,38.619
675.00,38.880
676.00,39.135
677.00,39.255
678.00,39.152
679.00,39.448
680.00,39.590
681.00,39.824
682.00,39.911
683.00,39.829
684.00,40.072
685.00,40.171
686.00,40.175
687.00,40.336
688.00,40.396
689.00,40.463
690.00,40.707
691.00,40.953
692.00,40.868
693.00,40.907
694.00,41.211
695.00,41.204
696.00,41.109
697.00,41.281
698.00,41.875
699.00,42.282
700.00,42.039
701.00,42.081
702.00,42.290
703.00,42.464
704.00,42.559
705.00,42.491
706.00,42.704
707.00,42.794
708.00,42.742
709.00,43.118
710.00,43.537
711.00,43.112
712.00,43.249
713.00,43.452
714.00,43.683
715.00,43.663
716.00,43.749
717.00,43.901
718.00,44.029
719.00,44.079
720.00,44.145
721.00,48.525
722.00,48.600
723.00,48.660
724.00,48.708
725.00,48.749
726.00,48.889
727.00,48.967
728.00,48.984
729.00,49.065
730.00,49.133
731.00,49.210
732.00,49.178
733.00,49.231
734.00,49.313
735.00,49.548
736.00,49.526
737.00,49.600
738.00,49.677
739.00,49.714
740.00,49.807
741.00,49.904
742.00,49.969
743.00,49.989
744.00,50.038
745.00,50.097
746.00,50.208
747.00,50.086
748.00,50.150
749.00,50.204
750.00,50.256
751.00,50.256
752.00,50.357
753.00,50.425
754.00,50.441
755.00,50.445
756.00,50.456
757.00,50.582
758.00,50.619
759.00,50.577
760.00,50.768
761.00,50.693
762.00,50.687
763.00,50.787
764.00,50.798
765.00,50.828
766.00,50.944
767.00,50.916
768.00,50.899
769.00,50.959
770.00,51.065
771.00,51.016
772.00,51.146
773.00,51.142
774.00,51.152
775.00,51.214
776.00,51.222
777.00,51.245
778.00,51.306
779.00,51.347
780.00,51.311
781.00,51.378
782.00,51.402
783.00,51.426
784.00,51.421
785.00,51.352
786.00,51.422
787.00,51.464
788.00,51.368
789.00,51.432
790.00,51.465
791.00,51.527
792.00,51.466
793.00,51.538
794.00,51.443
795.00,51.508
796.00,51.570
797.00,51.500
798.00,51.577
799.00,51.475
800.00,51.513
801.00,51.585
802.00,51.612
803.00,51.539
804.00,51.473
805.00,51.484
806.00,51.521
807.00,51.518
808.00,51.567
809.00,51.599
810.00,51.513
811.00,51.568
812.00,51.615
813.00,51.519
814.00,51.523
815.00,51.564
816.00,51.516
817.00,51.522
818.00,51.527
819.00,51.543
820.00,51.534
821.00,51.491
822.00,51.514
823.00,51.475
824.00,51.594
825.00,51.472
826.00,51.464
827.00,51.527
828.00,51.578
829.00,51.495
830.00,51.522
831.00,53.846
832.00,53.866
833.00,53.840
834.00,53.867
835.00,53.863
836.00,53.842
837.00,53.846
838.00,53.804
839.00,53.769
840.00,53.768
841.00,53.754
842.00,53.726
843.00,53.771
844.00,53.761
845.00,53.723
846.00,53.748
847.00,53.719
848.00,53.745
849.00,53.639
850.00,53.649
851.00,53.609
852.00,53.618
853.00,53.585
854.00,53.570
855.00,53.555
856.00,53.535
857.00,53.513
858.00,53.503
859.00,53.466
860.00,53.502
861.00,53.470
862.00,53.470
863.00,53.451
864.00,53.410
865.00,53.442
866.00,53.449
867.00,53.440
868.00,53.415
869.00,53.429
870.00,53.428
871.00,53.389
872.00,53.387
873.00,53.434
874.00,53.365
875.00,53.387
876.00,53.383
877.00,53.342
878.00,53.321
879.00,53.358
880.00,53.331
881.00,53.326
882.00,53.333
883.00,53.319
884.00,53.265
885.00,53.295
886.00,53.256
887.00,53.235
888.00,53.227
889.00,53.217
890.00,53.219
891.00,53.203
892.00,53.186
893.00,53.155
894.00,53.162
895.00,53.136
896.00,53.138
897.00,53.052
898.00,53.101
899.00,53.093
900.00,53.058
901.00,53.029
902.00,53.154
903.00,53.034
904.00,53.013
905.00,53.007
906.00,52.998
907.00,52.975
908.00,52.937
909.00,52.926
910.00,52.889
911.00,52.878
912.00,52.878
913.00,52.896
914.00,52.838
915.00,52.835
916.00,52.795
917.00,52.783
918.00,52.767
919.00,52.733
920.00,52.726
921.00,52.729
922.00,52.723
923.00,52.695
924.00,52.653
925.00,52.651
926.00,52.651
927.00,52.621
928.00,52.603
929.00,52.616
930.00,52.582
931.00,52.559
932.00,52.540
933.00,52.551
934.00,52.532
935.00,52.500
936.00,52.486
937.00,52.449
938.00,52.454
939.00,52.449
940.00,52.434
941.00,52.415
942.00,52.376
943.00,52.381
944.00,52.347
945.00,52.345
946.00,52.335
947.00,52.309
948.00,52.276
949.00,52.262
950.00,52.245
951.00,52.232
952.00,52.206
953.00,52.218
954.00,52.163
955.00,52.147
956.00,52.117
957.00,52.096
958.00,52.083
959.00,52.104
960.00,52.031
961.00,52.028
962.00,52.012
963.00,51.969
964.00,51.962
965.00,51.953
966.00,51.955
967.00,51.934
968.00,51.917
969.00,51.938
970.00,51.936
971.00,51.951
972.00,51.872
973.00,51.961
974.00,52.022
975.00,51.945
976.00,51.954
977.00,51.950
978.00,51.977
979.00,51.939
980.00,51.959
981.00,51.954
982.00,51.912
983.00,51.936
984.00,51.919
985.00,51.927
986.00,51.883
987.00,51.907
988.00,51.868
989.00,51.863
990.00,51.859
991.00,51.845
992.00,51.870
993.00,51.834
994.00,51.831
995.00,51.824
996.00,51.825
997.00,51.796
998.00,51.779
999.00,51.794
1000.00,51.740
1001.00,51.749
1002.00,51.742
1003.00,51.761
1004.00,51.696
1005.00,51.671
1006.00,51.707
1007.00,51.677
1008.00,51.649
1009.00,51.640
1010.00,51.643
1011.00,51.618
1012.00,51.589
1013.00,51.597
1014.00,51.573
1015.00,51.584
1016.00,51.534
1017.00,51.532
1018.00,51.524
1019.00,51.482
1020.00,51.502
1021.00,51.488
1022.00,51.479
1023.00,51.434
1024.00,51.439
1025.00,51.419
1026.00,51.408
1027.00,51.390
1028.00,51.385
1029.00,51.372
1030.00,51.335
1031.00,51.354
1032.00,51.303
1033.00,51.305
1034.00,51.272
1035.00,51.239
1036.00,51.226
1037.00,51.200
1038.00,51.183
1039.00,51.164
1040.00,51.160
1041.00,51.129
1042.00,51.128
1043.00,51.106
1044.00,51.129
1045.00,51.100
1046.00,51.073
1047.00,51.096
1048.00,51.109
1049.00,51.121
1050.00,51.137
1051.00,51.173
1052.00,51.174
1053.00,51.194
1054.00,51.194
1055.00,51.210
1056.00,51.207
1057.00,51.206
1058.00,51.188
1059.00,51.181
1060.00,51.191
1061.00,51.169
1062.00,51.156
1063.00,51.189
1064.00,51.185
1065.00,51.176
1066.00,51.172
1067.00,51.154
1068.00,51.164
1069.00,51.133
1070.00,51.108
1071.00,51.098
1072.00,51.114
1073.00,51.089
1074.00,51.082
1075.00,51.074
1076.00,51.074
1077.00,51.055
1078.00,51.039
1079.00,51.024
1080.00,51.029
1081.00,51.013
1082.00,51.011
1083.00,51.009
1084.00,51.008
1085.00,50.993
1086.00,50.981
1087.00,50.986
1088.00,50.950
1089.00,50.945
1090.00,50.932
1091.00,50.942
1092.00,50.930
1093.00,50.918
1094.00,50.898
1095.00,50.890
1096.00,50.878
1097.00,50.889
1098.00,50.877
1099.00,50.857
1100.00,50.845
1101.00,50.832
1102.00,50.815
1103.00,50.820
1104.00,50.819
1105.00,50.798
1106.00,50.781
1107.00,50.786
1108.00,50.779
1109.00,50.759
1110.00,50.749
1111.00,50.759
1112.00,50.737
1113.00,50.724
1114.00,50.723
1115.00,50.721
1116.00,50.709
1117.00,50.689
1118.00,50.677
1119.00,50.671
1120.00,50.664
1121.00,50.675
1122.00,50.668
1123.00,50.672
1124.00,50.675
1125.00,50.659
1126.00,50.648
1127.00,50.668
1128.00,50.645
1129.00,50.615
1130.00,50.611
1131.00,50.606
1132.00,50.587
1133.00,50.582
1134.00,50.578
1135.00,50.586
1136.00,50.571
1137.00,50.571
1138.00,50.564
1139.00,50.577
1140.00,50.559
1141.00,50.545
1142.00,50.545
1143.00,50.551
1144.00,50.521
1145.00,50.519
1146.00,50.520
1147.00,50.509
1148.00,50.501
1149.00,50.520
1150.00,50.511
1151.00,50.508
1152.00,50.503
1153.00,50.495
1154.00,50.479
1155.00,50.471
1156.00,50.466
1157.00,50.482
1158.00,50.473
1159.00,50.461
1160.00,50.458
1161.00,50.472
1162.00,50.449
1163.00,50.452
1164.00,50.463
1165.00,50.457
1166.00,50.472
1167.00,50.476
1168.00,50.471
1169.00,50.451
1170.00,50.453
1171.00,50.436
1172.00,50.442
1173.00,50.438
1174.00,50.438
1175.00,50.436
1176.00,50.437
1177.00,50.414
1178.00,50.411
1179.00,50.426
1180.00,50.401
1181.00,50.421
1182.00,50.427
1183.00,50.404
1184.00,50.392
1185.00,50.415
1186.00,50.404
1187.00,50.426
1188.00,50.429
1189.00,50.406
1190.00,50.396
1191.00,50.389
1192.00,50.393
1193.00,50.398
1194.00,50.396
1195.00,50.373
1196.00,50.409
1197.00,50.411
1198.00,50.389
1199.00,50.377
1200.00,50.397
1201.00,50.400
1202.00,50.386
1203.00,50.400
1204.00,50.382
1205.00,50.396
1206.00,50.383
1207.00,50.390
1208.00,50.369
1209.00,50.373
1210.00,50.377
1211.00,50.372
1212.00,50.380
1213.00,50.350
1214.00,50.367
1215.00,50.350
1216.00,50.359
1217.00,50.354
1218.00,50.336
1219.00,50.356
1220.00,50.338
1221.00,50.359
1222.00,50.342
1223.00,50.356
1224.00,50.357
1225.00,50.344
1226.00,50.362
1227.00,50.365
1228.00,50.375
1229.00,50.386
1230.00,50.407
1231.00,50.383
1232.00,50.410
1233.00,50.406
1234.00,50.403
1235.00,50.405
1236.00,50.403
1237.00,50.404
1238.00,50.403
1239.00,50.403
1240.00,50.394
1241.00,50.400
1242.00,50.399
1243.00,50.418
1244.00,50.389
1245.00,50.409
1246.00,50.422
1247.00,50.399
1248.00,50.409
1249.00,50.427
1250.00,50.385
1251.00,50.383
1252.00,50.402
1253.00,50.387
1254.00,50.419
1255.00,50.412
1256.00,50.396
1257.00,50.396
1258.00,50.432
1259.00,50.434
1260.00,50.458
1261.00,50.450
1262.00,50.456
1263.00,50.457
1264.00,50.469
1265.00,50.463
1266.00,50.460
1267.00,50.469
1268.00,50.470
1269.00,50.469
1270.00,50.482
1271.00,50.485
1272.00,50.477
1273.00,50.496
1274.00,50.492
1275.00,50.488
1276.00,50.493
1277.00,50.493
1278.00,50.507
1279.00,50.517
1280.00,50.504
1281.00,50.513
1282.00,50.516
1283.00,50.516
1284.00,50.535
1285.00,50.513
1286.00,50.530
1287.00,50.528
1288.00,50.527
1289.00,50.526
1290.00,50.559
1291.00,50.552
1292.00,50.544
1293.00,50.540
1294.00,50.573
1295.00,50.583
1296.00,50.572
1297.00,50.573
1298.00,50.596
1299.00,50.579
1300.00,50.592
1301.00,50.585
1302.00,50.593
1303.00,50.602
1304.00,50.582
1305.00,50.610
1306.00,50.620
1307.00,50.620
1308.00,50.616
1309.00,50.622
1310.00,50.618
1311.00,50.602
1312.00,50.621
1313.00,50.644
1314.00,50.656
1315.00,50.660
1316.00,50.660
1317.00,50.681
1318.00,50.668
1319.00,50.670
1320.00,50.686
1321.00,50.513
1322.00,50.514
1323.00,50.499
1324.00,50.478
1325.00,50.492
1326.00,50.525
1327.00,50.499
1328.00,50.499
1329.00,50.505
1330.00,50.515
1331.00,50.518
1332.00,50.521
1333.00,50.535
1334.00,50.564
1335.00,50.563
1336.00,50.608
1337.00,50.636
1338.00,50.686
1339.00,50.733
1340.00,50.775
1341.00,50.839
1342.00,50.910
1343.00,50.949
1344.00,51.005
1345.00,51.055
1346.00,51.072
1347.00,51.110
1348.00,51.131
1349.00,51.154
1350.00,51.159
1351.00,51.183
1352.00,51.183
1353.00,51.092
1354.00,51.182
1355.00,51.182
1356.00,51.225
1357.00,51.201
1358.00,51.224
1359.00,51.226
1360.00,51.196
1361.00,51.256
1362.00,51.165
1363.00,51.276
1364.00,51.307
1365.00,51.232
1366.00,51.240
1367.00,51.229
1368.00,51.202
1369.00,51.222
1370.00,51.234
1371.00,51.214
1372.00,51.205
1373.00,51.211
1374.00,51.229
1375.00,51.196
1376.00,51.197
1377.00,51.214
1378.00,51.201
1379.00,51.186
1380.00,51.205
1381.00,51.216
1382.00,51.271
1383.00,51.195
1384.00,51.185
1385.00,51.213
1386.00,51.218
1387.00,51.123
1388.00,51.141
1389.00,51.132
1390.00,51.185
1391.00,51.183
1392.00,51.162
1393.00,51.160
1394.00,51.218
1395.00,51.165
1396.00,51.138
1397.00,51.156
1398.00,51.254
1399.00,51.213
1400.00,51.114
1401.00,51.137
1402.00,51.160
1403.00,51.145
1404.00,51.194
1405.00,51.228
1406.00,51.235
1407.00,51.247
1408.00,51.258
1409.00,51.218
1410.00,51.268
1411.00,51.257
1412.00,51.289
1413.00,51.275
1414.00,51.279
1415.00,51.304
1416.00,51.310
1417.00,51.335
1418.00,51.327
1419.00,51.328
1420.00,51.338
1421.00,51.364
1422.00,51.369
1423.00,51.375
1424.00,51.374
1425.00,51.390
1426.00,51.398
1427.00,51.423
1428.00,51.425
1429.00,51.438
1430.00,51.451
1431.00,51.472
1432.00,51.482
1433.00,51.497
1434.00,51.475
1435.00,51.524
1436.00,51.539
1437.00,51.510
1438.00,51.526
1439.00,51.549
1440.00,51.554
1441.00,51.577
1442.00,51.583
1443.00,51.614
1444.00,51.661
1445.00,51.632
1446.00,51.638
1447.00,51.670
1448.00,51.694
1449.00,51.693
1450.00,51.705
1451.00,51.709
1452.00,51.730
1453.00,51.716
1454.00,51.752
1455.00,51.776
1456.00,51.767
1457.00,51.807
1458.00,51.808
1459.00,51.834
1460.00,51.865
1461.00,51.841
1462.00,51.866
1463.00,51.863
1464.00,51.870
1465.00,51.887
1466.00,51.901
1467.00,51.913
1468.00,51.966
1469.00,51.960
1470.00,51.954
1471.00,51.978
1472.00,51.989
1473.00,52.005
1474.00,52.016
1475.00,52.033
1476.00,52.052
1477.00,52.038
1478.00,52.053
1479.00,52.077
1480.00,52.085
1481.00,52.090
1482.00,52.118
1483.00,52.111
1484.00,52.145
1485.00,52.141
1486.00,52.139
1487.00,52.169
1488.00,52.191
1489.00,52.185
1490.00,52.240
1491.00,52.245
1492.00,52.251
1493.00,52.229
1494.00,52.268
1495.00,52.272
1496.00,52.284
1497.00,52.279
1498.00,52.308
1499.00,52.321
1500.00,52.338
1501.00, 
1502.00, 
1503.00, 
1504.00, 
1505.00, 
1506.00, 
1507.00, 
1508.00, 
1509.00, 
1510.00, 
1511.00, 
1512.00, 
1513.00, 
1514.00, 
1515.00, 
1516.00, 
1517.00, 
1518.00, 
1519.00, 
1520.00, 
1521.00, 
1522.00, 
1523.00, 
1524.00, 
1525.00, 
1526.00, 
1527.00, 
1528.00, 
1529.00, 
1530.00, 
1531.00, 
1532.00, 
1533.00, 
1534.00, 
1535.00, 
1536.00, 
1537.00, 
1538.00, 
1539.00, 
1540.00, 
1541.00, 
1542.00, 
1543.00, 
1544.00, 
1545.00, 
1546.00, 
1547.00, 
1548.00, 
1549.00, 
1550.00, 
1551.00, 
1552.00, 
1553.00, 
1554.00, 
1555.00, 
1556.00, 
1557.00, 
1558.00, 
1559.00, 
1560.00, 
1561.00, 
1562.00, 
1563.00, 
1564.00, 
1565.00, 
1566.00, 
1567.00, 
1568.00, 
1569.00, 
1570.00, 
1571.00, 
1572.00, 
1573.00, 
1574.00, 
1575.00, 
1576.00, 
1577.00, 
1578.00, 
1579.00, 
1580.00, 
1581.00, 
1582.00, 
1583.00, 
1584.00, 
1585.00, 
1586.00, 
1587.00, 
1588.00, 
1589.00, 
1590.00, 
1591.00, 
1592.00, 
1593.00, 
1594.00, 
1595.00, 
1596.00, 
1597.00, 
1598.00, 
1599.00, 
1600.00, 
1601.00, 
1602.00, 
1603.00, 
1604.00, 
1605.00, 
1606.00, 
1607.00, 
1608.00, 
1609.00, 
1610.00, 
1611.00, 
1612.00, 
1613.00, 
1614.00, 
1615.00, 
1616.00, 
1617.00, 
1618.00, 
1619.00, 
1620.00, 
1621.00, 
1622.00, 
1623.00, 
1624.00, 
1625.00, 
1626.00, 
1627.00, 
1628.00, 
1629.00, 
1630.00, 
1631.00, 
1632.00, 
1633.00, 
1634.00, 
1635.00, 
1636.00, 
1637.00, 
1638.00, 
1639.00, 
1640.00, 
1641.00, 
1642.00, 
1643.00, 
1644.00, 
1645.00, 
1646.00, 
1647.00, 
1648.00, 
1649.00, 
1650.00, 
1651.00, 
1652.00, 
1653.00, 
1654.00, 
1655.00, 
1656.00, 
1657.00, 
1658.00, 
1659.00, 
1660.00, 
1661.00, 
1662.00, 
1663.00, 
1664.00, 
1665.00, 
1666.00, 
1667.00, 
1668.00, 
1669.00, 
1670.00, 
1671.00, 
1672.00, 
1673.00, 
1674.00, 
1675.00, 
1676.00, 
1677.00, 
1678.00, 
1679.00, 
1680.00, 
1681.00, 
1682.00, 
1683.00, 
1684.00, 
1685.00, 
1686.00, 
1687.00, 
1688.00, 
1689.00, 
1690.00, 
1691.00, 
1692.00, 
1693.00, 
1694.00, 
1695.00, 
1696.00, 
1697.00, 
1698.00, 
1699.00, 
1700.00, 
1701.00, 
1702.00, 
1703.00, 
1704.00, 
1705.00, 
1706.00, 
1707.00, 
1708.00, 
1709.00, 
1710.00, 
1711.00, 
1712.00, 
1713.00, 
1714.00, 
1715.00, 
1716.00, 
1717.00, 
1718.00, 
1719.00, 
1720.00, 
1721.00, 
1722.00, 
1723.00, 
1724.00, 
1725.00, 
1726.00, 
1727.00, 
1728.00, 
1729.00, 
1730.00, 
1731.00, 
1732.00, 
1733.00, 
1734.00, 
1735.00, 
1736.00, 
1737.00, 
1738.00, 
1739.00, 
1740.00, 
1741.00, 
1742.00, 
1743.00, 
1744.00, 
1745.00, 
1746.00, 
1747.00, 
1748.00, 
1749.00, 
1750.00, 
1751.00, 
1752.00, 
1753.00, 
1754.00, 
1755.00, 
1756.00, 
1757.00, 
1758.00, 
1759.00, 
1760.00, 
1761.00, 
1762.00, 
1763.00, 
1764.00, 
1765.00, 
1766.00, 
1767.00, 
1768.00, 
1769.00, 
1770.00, 
1771.00, 
1772.00, 
1773.00, 
1774.00, 
1775.00, 
1776.00, 
1777.00, 
1778.00, 
1779.00, 
1780.00, 
1781.00, 
1782.00, 
1783.00, 
1784.00, 
1785.00, 
1786.00, 
1787.00, 
1788.00, 
1789.00, 
1790.00, 
1791.00, 
1792.00, 
1793.00, 
1794.00, 
1795.00, 
1796.00, 
1797.00, 
1798.00, 
1799.00, 
1800.00, 
1801.00, 
1802.00, 
1803.00, 
1804.00, 
1805.00, 
1806.00, 
1807.00, 
1808.00, 
1809.00, 
1810.00, 
1811.00, 
1812.00, 
1813.00, 
1814.00, 
1815.00, 
1816.00, 
1817.00, 
1818.00, 
1819.00, 
1820.00, 
1821.00, 
1822.00, 
1823.00, 
1824.00, 
1825.00, 
1826.00, 
1827.00, 
1828.00, 
1829.00, 
1830.00, 
1831.00, 
1832.00, 
1833.00, 
1834.00, 
1835.00, 
1836.00, 
1837.00, 
1838.00, 
1839.00, 
1840.00, 
1841.00, 
1842.00, 
1843.00, 
1844.00, 
1845.00, 
1846.00, 
1847.00, 
1848.00, 
1849.00, 
1850.00, 
1851.00, 
1852.00, 
1853.00, 
1854.00, 
1855.00, 
1856.00, 
1857.00, 
1858.00, 
1859.00, 
1860.00, 
1861.00, 
1862.00, 
1863.00, 
1864.00, 
1865.00, 
1866.00, 
1867.00, 
1868.00, 
1869.00, 
1870.00, 
1871.00, 
1872.00, 
1873.00, 
1874.00, 
1875.00, 
1876.00, 
1877.00, 
1878.00, 
1879.00, 
1880.00, 
1881.00, 
1882.00, 
1883.00, 
1884.00, 
1885.00, 
1886.00, 
1887.00, 
1888.00, 
1889.00, 
1890.00, 
1891.00, 
1892.00, 
1893.00, 
1894.00, 
1895.00, 
1896.00, 
1897.00, 
1898.00, 
1899.00, 
1900.00, 
1901.00, 
1902.00, 
1903.00, 
1904.00, 
1905.00, 
1906.00, 
1907.00, 
1908.00, 
1909.00, 
1910.00, 
1911.00, 
1912.00, 
1913.00, 
1914.00, 
1915.00, 
1916.00, 
1917.00, 
1918.00, 
1919.00, 
1920.00, 
1921.00, 
1922.00, 
1923.00, 
1924.00, 
1925.00, 
1926.00, 
1927.00, 
1928.00, 
1929.00, 
1930.00, 
1931.00, 
1932.00, 
1933.00, 
1934.00, 
1935.00, 
1936.00, 
1937.00, 
1938.00, 
1939.00, 
1940.00, 
1941.00, 
1942.00, 
1943.00, 
1944.00, 
1945.00, 
1946.00, 
1947.00, 
1948.00, 
1949.00, 
1950.00, 
1951.00, 
1952.00, 
1953.00, 
1954.00, 
1955.00, 
1956.00, 
1957.00, 
1958.00, 
1959.00, 
1960.00, 
1961.00, 
1962.00, 
1963.00, 
1964.00, 
1965.00, 
1966.00, 
1967.00, 
1968.00, 
1969.00, 
1970.00, 
1971.00, 
1972.00, 
1973.00, 
1974.00, 
1975.00, 
1976.00, 
1977.00, 
1978.00, 
1979.00, 
1980.00, 
1981.00, 
1982.00, 
1983.00, 
1984.00, 
1985.00, 
1986.00, 
1987.00, 
1988.00, 
1989.00, 
1990.00, 
1991.00, 
1992.00, 
1993.00, 
1994.00, 
1995.00, 
1996.00, 
1997.00, 
1998.00, 
1999.00, 
2000.00, 
2001.00, 
2002.00, 
2003.00, 
2004.00, 
2005.00, 
2006.00, 
2007.00, 
2008.00, 
2009.00, 
2010.00, 
2011.00, 
2012.00, 
2013.00, 
2014.00, 
2015.00, 
2016.00, 
2017.00, 
2018.00, 
2019.00, 
2020.00, 
2021.00, 
2022.00, 
2023.00, 
2024.00, 
2025.00, 
2026.00, 
2027.00, 
2028.00, 
2029.00, 
2030.00, 
2031.00, 
2032.00, 
2033.00, 
2034.00, 
2035.00, 
2036.00, 
2037.00, 
2038.00, 
2039.00, 
2040.00, 
2041.00, 
2042.00, 
2043.00, 
2044.00, 
2045.00, 
2046.00, 
2047.00, 
2048.00, 
2049.00, 
2050.00, 
2051.00, 
2052.00, 
2053.00, 
2054.00, 
2055.00, 
2056.00, 
2057.00, 
2058.00, 
2059.00, 
2060.00, 
2061.00, 
2062.00, 
2063.00, 
2064.00, 
2065.00, 
2066.00, 
2067.00, 
2068.00, 
2069.00, 
2070.00, 
2071.00, 
2072.00, 
2073.00, 
2074.00, 
2075.00, 
2076.00, 
2077.00, 
2078.00, 
2079.00, 
2080.00, 
2081.00, 
2082.00, 
2083.00, 
2084.00, 
2085.00, 
2086.00, 
2087.00, 
2088.00, 
2089.00, 
2090.00, 
2091.00, 
2092.00, 
2093.00, 
2094.00, 
2095.00, 
2096.00, 
2097.00, 
2098.00, 
2099.00, 
2100.00, 
2101.00, 
2102.00, 
2103.00, 
2104.00, 
2105.00, 
2106.00, 
2107.00, 
2108.00, 
2109.00, 
2110.00, 
2111.00, 
2112.00, 
2113.00, 
2114.00, 
2115.00, 
2116.00, 
2117.00, 
2118.00, 
2119.00, 
2120.00, 
2121.00, 
2122.00, 
2123.00, 
2124.00, 
2125.00, 
2126.00, 
2127.00, 
2128.00, 
2129.00, 
2130.00, 
2131.00, 
2132.00, 
2133.00, 
2134.00, 
2135.00, 
2136.00, 
2137.00, 
2138.00, 
2139.00, 
2140.00, 
2141.00, 
2142.00, 
2143.00, 
2144.00, 
2145.00, 
2146.00, 
2147.00, 
2148.00, 
2149.00, 
2150.00, 
2151.00, 
2152.00, 
2153.00, 
2154.00, 
2155.00, 
2156.00, 
2157.00, 
2158.00, 
2159.00, 
2160.00, 
2161.00, 
2162.00, 
2163.00, 
2164.00, 
2165.00, 
2166.00, 
2167.00, 
2168.00, 
2169.00, 
2170.00, 
2171.00, 
2172.00, 
2173.00, 
2174.00, 
2175.00, 
2176.00, 
2177.00, 
2178.00, 
2179.00, 
2180.00, 
2181.00, 
2182.00, 
2183.00, 
2184.00, 
2185.00, 
2186.00, 
2187.00, 
2188.00, 
2189.00, 
2190.00, 
2191.00, 
2192.00, 
2193.00, 
2194.00, 
2195.00, 
2196.00, 
2197.00, 
2198.00, 
2199.00, 
2200.00, 
2201.00, 
2202.00, 
2203.00, 
2204.00, 
2205.00, 
2206.00, 
2207.00, 
2208.00, 
2209.00, 
2210.00, 
2211.00, 
2212.00, 
2213.00, 
2214.00, 
2215.00, 
2216.00, 
2217.00, 
2218.00, 
2219.00, 
2220.00, 
2221.00, 
2222.00, 
2223.00, 
2224.00, 
2225.00, 
2226.00, 
2227.00, 
2228.00, 
2229.00, 
2230.00, 
2231.00, 
2232.00, 
2233.00, 
2234.00, 
2235.00, 
2236.00, 
2237.00, 
2238.00, 
2239.00, 
2240.00, 
2241.00, 
2242.00, 
2243.00, 
2244.00, 
2245.00, 
2246.00, 
2247.00, 
2248.00, 
2249.00, 
2250.00, 
2251.00, 
2252.00, 
2253.00, 
2254.00, 
2255.00, 
2256.00, 
2257.00, 
2258.00, 
2259.00, 
2260.00, 
2261.00, 
2262.00, 
2263.00, 
2264.00, 
2265.00, 
2266.00, 
2267.00, 
2268.00, 
2269.00, 
2270.00, 
2271.00, 
2272.00, 
2273.00, 
2274.00, 
2275.00, 
2276.00, 
2277.00, 
2278.00, 
2279.00, 
2280.00, 
2281.00, 
2282.00, 
2283.00, 
2284.00, 
2285.00, 
2286.00, 
2287.00, 
2288.00, 
2289.00, 
2290.00, 
2291.00, 
2292.00, 
2293.00, 
2294.00, 
2295.00, 
2296.00, 
2297.00, 
2298.00, 
2299.00, 
2300.00, 
2301.00, 
2302.00, 
2303.00, 
2304.00, 
2305.00, 
2306.00, 
2307.00, 
2308.00, 
2309.00, 
2310.00, 
2311.00, 
2312.00, 
2313.00, 
2314.00, 
2315.00, 
2316.00, 
2317.00, 
2318.00, 
2319.00, 
2320.00, 
2321.00, 
2322.00, 
2323.00, 
2324.00, 
2325.00, 
2326.00, 
2327.00, 
2328.00, 
2329.00, 
2330.00, 
2331.00, 
2332.00, 
2333.00, 
2334.00, 
2335.00, 
2336.00, 
2337.00, 
2338.00, 
2339.00, 
2340.00, 
2341.00, 
2342.00, 
2343.00, 
2344.00, 
2345.00, 
2346.00, 
2347.00, 
2348.00, 
2349.00, 
2350.00, 
2351.00, 
2352.00, 
2353.00, 
2354.00, 
2355.00, 
2356.00, 
2357.00, 
2358.00, 
2359.00, 
2360.00, 
2361.00, 
2362.00, 
2363.00, 
2364.00, 
2365.00, 
2366.00, 
2367.00, 
2368.00, 
2369.00, 
2370.00, 
2371.00, 
2372.00, 
2373.00, 
2374.00, 
2375.00, 
2376.00, 
2377.00, 
2378.00, 
2379.00, 
2380.00, 
2381.00, 
2382.00, 
2383.00, 
2384.00, 
2385.00, 
2386.00, 
2387.00, 
2388.00, 
2389.00, 
2390.00, 
2391.00, 
2392.00, 
2393.00, 
2394.00, 
2395.00, 
2396.00, 
2397.00, 
2398.00, 
2399.00, 
2400.00, 
2401.00, 
2402.00, 
2403.00, 
2404.00, 
2405.00, 
2406.00, 
2407.00, 
2408.00, 
2409.00, 
2410.00, 
2411.00, 
2412.00, 
2413.00, 
2414.00, 
2415.00, 
2416.00, 
2417.00, 
2418.00, 
2419.00, 
2420.00, 
2421.00, 
2422.00, 
2423.00, 
2424.00, 
2425.00, 
2426.00, 
2427.00, 
2428.00, 
2429.00, 
2430.00, 
2431.00, 
2432.00, 
2433.00, 
2434.00, 
2435.00, 
2436.00, 
2437.00, 
2438.00, 
2439.00, 
2440.00, 
2441.00, 
2442.00, 
2443.00, 
2444.00, 
2445.00, 
2446.00, 
2447.00, 
2448.00, 
2449.00, 
2450.00, 
2451.00, 
2452.00, 
2453.00, 
2454.00, 
2455.00, 
2456.00, 
2457.00, 
2458.00, 
2459.00, 
2460.00, 
2461.00, 
2462.00, 
2463.00, 
2464.00, 
2465.00, 
2466.00, 
2467.00, 
2468.00, 
2469.00, 
2470.00, 
2471.00, 
2472.00, 
2473.00, 
2474.00, 
2475.00, 
2476.00, 
2477.00, 
2478.00, 
2479.00, 
2480.00, 
2481.00, 
2482.00, 
2483.00, 
2484.00, 
2485.00, 
2486.00, 
2487.00, 
2488.00, 
2489.00, 
2490.00, 
2491.00, 
2492.00, 
2493.00, 
2494.00, 
2495.00, 
2496.00, 
2497.00, 
2498.00, 
2499.00, 
2500.00, 
2501.00, 
2502.00, 
2503.00, 
2504.00, 
2505.00, 
2506.00, 
2507.00, 
2508.00, 
2509.00, 
2510.00, 
2511.00, 
2512.00, 
2513.00, 
2514.00, 
2515.00, 
2516.00, 
2517.00, 
2518.00, 
2519.00, 
2520.00, 
2521.00, 
2522.00, 
2523.00, 
2524.00, 
2525.00, 
2526.00, 
2527.00, 
2528.00, 
2529.00, 
2530.00, 
2531.00, 
2532.00, 
2533.00, 
2534.00, 
2535.00, 
2536.00, 
2537.00, 
2538.00, 
2539.00, 
2540.00, 
2541.00, 
2542.00, 
2543.00, 
2544.00, 
2545.00, 
2546.00, 
2547.00, 
2548.00, 
2549.00, 
2550.00, 
2551.00, 
2552.00, 
2553.00, 
2554.00, 
2555.00, 
2556.00, 
2557.00, 
2558.00, 
2559.00, 
2560.00, 
2561.00, 
2562.00, 
2563.00, 
2564.00, 
2565.00, 
2566.00, 
2567.00, 
2568.00, 
2569.00, 
2570.00, 
2571.00, 
2572.00, 
2573.00, 
2574.00, 
2575.00, 
2576.00, 
2577.00, 
2578.00, 
2579.00, 
2580.00, 
2581.00, 
2582.00, 
2583.00, 
2584.00, 
2585.00, 
2586.00, 
2587.00, 
2588.00, 
2589.00, 
2590.00, 
2591.00, 
2592.00, 
2593.00, 
2594.00, 
2595.00, 
2596.00, 
2597.00, 
2598.00, 
2599.00, 
2600.00, 
