"2bP2 - RawData"
"Wavelength nm.","T%"
200.00,-0.002
201.00,0.002
202.00,0.002
203.00,-0.001
204.00,0.001
205.00,0.002
206.00,0.001
207.00,0.001
208.00,0.002
209.00,0.001
210.00,0.003
211.00,0.000
212.00,-0.001
213.00,0.003
214.00,0.002
215.00,0.002
216.00,0.000
217.00,0.002
218.00,-0.000
219.00,0.001
220.00,0.001
221.00,0.001
222.00,0.002
223.00,-0.000
224.00,0.002
225.00,-0.000
226.00,0.002
227.00,-0.000
228.00,0.000
229.00,0.000
230.00,-0.001
231.00,0.001
232.00,-0.001
233.00,0.002
234.00,-0.001
235.00,0.000
236.00,0.000
237.00,-0.001
238.00,-0.000
239.00,0.000
240.00,0.003
241.00,0.002
242.00,0.000
243.00,0.002
244.00,-0.000
245.00,0.001
246.00,0.001
247.00,0.001
248.00,0.002
249.00,0.001
250.00,0.003
251.00,-0.001
252.00,-0.001
253.00,-0.000
254.00,-0.001
255.00,0.000
256.00,0.000
257.00,0.001
258.00,0.001
259.00,-0.001
260.00,-0.001
261.00,0.000
262.00,0.000
263.00,-0.001
264.00,0.000
265.00,0.000
266.00,0.001
267.00,0.001
268.00,0.002
269.00,-0.000
270.00,-0.000
271.00,-0.000
272.00,-0.001
273.00,-0.000
274.00,0.000
275.00,0.000
276.00,0.001
277.00,-0.001
278.00,0.000
279.00,0.001
280.00,0.002
281.00,-0.001
282.00,-0.001
283.00,-0.001
284.00,0.002
285.00,0.001
286.00,0.001
287.00,-0.000
288.00,-0.000
289.00,-0.001
290.00,0.001
291.00,0.001
292.00,0.001
293.00,-0.001
294.00,-0.000
295.00,0.001
296.00,0.000
297.00,0.000
298.00,0.001
299.00,0.001
300.00,0.003
301.00,0.005
302.00,0.006
303.00,0.009
304.00,0.014
305.00,0.023
306.00,0.035
307.00,0.051
308.00,0.081
309.00,0.123
310.00,0.170
311.00,0.228
312.00,0.316
313.00,0.421
314.00,0.546
315.00,0.706
316.00,0.891
317.00,1.127
318.00,1.379
319.00,1.690
320.00,2.044
321.00,2.424
322.00,2.864
323.00,3.360
324.00,3.872
325.00,4.385
326.00,4.934
327.00,5.554
328.00,6.174
329.00,6.794
330.00,7.454
331.00,8.139
332.00,8.817
333.00,9.545
334.00,10.160
335.00,10.904
336.00,11.557
337.00,12.264
338.00,12.938
339.00,13.534
340.00,14.168
341.00,14.824
342.00,15.390
343.00,15.920
344.00,16.459
345.00,16.994
346.00,17.458
347.00,17.877
348.00,18.356
349.00,18.719
350.00,19.118
351.00,19.480
352.00,19.779
353.00,20.089
354.00,20.385
355.00,20.667
356.00,20.924
357.00,21.120
358.00,21.398
359.00,21.634
360.00,21.806
361.00,21.918
362.00,22.156
363.00,22.302
364.00,22.348
365.00,22.429
366.00,22.547
367.00,22.669
368.00,22.736
369.00,22.781
370.00,22.805
371.00,22.810
372.00,22.848
373.00,22.766
374.00,22.811
375.00,22.840
376.00,22.772
377.00,22.717
378.00,22.638
379.00,22.562
380.00,22.555
381.00,22.559
382.00,22.579
383.00,22.560
384.00,22.546
385.00,22.624
386.00,22.594
387.00,22.641
388.00,22.697
389.00,22.671
390.00,22.735
391.00,22.738
392.00,22.754
393.00,22.729
394.00,22.763
395.00,22.802
396.00,22.791
397.00,22.800
398.00,22.805
399.00,22.775
400.00,22.764
401.00,22.768
402.00,22.753
403.00,22.782
404.00,22.762
405.00,22.756
406.00,22.720
407.00,22.686
408.00,22.682
409.00,22.641
410.00,22.604
411.00,22.604
412.00,22.532
413.00,22.575
414.00,22.542
415.00,22.577
416.00,22.597
417.00,22.585
418.00,22.616
419.00,22.691
420.00,22.719
421.00,22.776
422.00,22.798
423.00,22.821
424.00,22.862
425.00,22.909
426.00,22.960
427.00,23.002
428.00,23.016
429.00,23.070
430.00,23.106
431.00,23.157
432.00,23.216
433.00,23.250
434.00,23.290
435.00,23.378
436.00,23.461
437.00,23.513
438.00,23.584
439.00,23.665
440.00,23.733
441.00,23.793
442.00,23.892
443.00,23.925
444.00,24.071
445.00,24.161
446.00,24.243
447.00,24.332
448.00,24.436
449.00,24.553
450.00,24.646
451.00,24.736
452.00,24.850
453.00,24.941
454.00,25.036
455.00,25.134
456.00,25.257
457.00,25.380
458.00,25.481
459.00,25.627
460.00,25.747
461.00,25.889
462.00,25.984
463.00,26.124
464.00,26.296
465.00,26.399
466.00,26.478
467.00,26.698
468.00,26.685
469.00,26.895
470.00,26.969
471.00,27.076
472.00,27.206
473.00,27.300
474.00,27.417
475.00,27.512
476.00,27.632
477.00,27.750
478.00,27.872
479.00,28.063
480.00,28.185
481.00,28.306
482.00,28.472
483.00,28.590
484.00,28.767
485.00,28.941
486.00,29.071
487.00,29.214
488.00,29.350
489.00,29.529
490.00,29.689
491.00,29.766
492.00,30.032
493.00,30.173
494.00,30.187
495.00,30.357
496.00,30.485
497.00,30.567
498.00,30.731
499.00,30.852
500.00,30.981
501.00,31.085
502.00,31.250
503.00,31.352
504.00,31.426
505.00,31.577
506.00,31.716
507.00,31.767
508.00,31.916
509.00,32.099
510.00,32.197
511.00,32.291
512.00,32.458
513.00,32.556
514.00,32.668
515.00,32.841
516.00,32.950
517.00,33.042
518.00,33.205
519.00,33.202
520.00,33.238
521.00,33.375
522.00,33.493
523.00,33.418
524.00,33.635
525.00,33.804
526.00,33.884
527.00,33.918
528.00,34.007
529.00,34.163
530.00,34.332
531.00,34.443
532.00,34.493
533.00,34.622
534.00,34.729
535.00,34.757
536.00,34.845
537.00,34.919
538.00,34.958
539.00,35.039
540.00,35.149
541.00,35.162
542.00,35.244
543.00,35.340
544.00,35.385
545.00,35.426
546.00,35.450
547.00,35.616
548.00,35.638
549.00,35.666
550.00,35.777
551.00,35.873
552.00,35.912
553.00,36.001
554.00,36.057
555.00,35.993
556.00,36.108
557.00,36.376
558.00,36.339
559.00,36.386
560.00,36.455
561.00,36.519
562.00,36.586
563.00,36.569
564.00,36.647
565.00,36.679
566.00,36.711
567.00,36.753
568.00,36.820
569.00,36.867
570.00,36.915
571.00,36.965
572.00,36.962
573.00,36.964
574.00,37.034
575.00,37.014
576.00,37.029
577.00,37.122
578.00,37.229
579.00,37.277
580.00,37.327
581.00,37.487
582.00,37.533
583.00,37.517
584.00,37.646
585.00,37.724
586.00,37.744
587.00,37.789
588.00,37.771
589.00,37.756
590.00,37.898
591.00,37.976
592.00,37.942
593.00,37.993
594.00,38.030
595.00,38.146
596.00,38.157
597.00,38.217
598.00,38.323
599.00,38.312
600.00,38.373
601.00,38.409
602.00,38.338
603.00,38.291
604.00,38.565
605.00,38.670
606.00,38.559
607.00,38.644
608.00,38.807
609.00,38.851
610.00,38.714
611.00,38.807
612.00,38.837
613.00,38.925
614.00,38.963
615.00,39.061
616.00,39.141
617.00,39.120
618.00,39.135
619.00,39.202
620.00,39.298
621.00,39.338
622.00,39.433
623.00,39.458
624.00,39.540
625.00,39.573
626.00,39.609
627.00,39.700
628.00,39.757
629.00,39.772
630.00,39.881
631.00,39.879
632.00,39.987
633.00,40.129
634.00,40.194
635.00,40.295
636.00,40.319
637.00,40.401
638.00,40.361
639.00,40.474
640.00,40.521
641.00,40.569
642.00,40.698
643.00,40.709
644.00,40.782
645.00,40.813
646.00,41.057
647.00,41.104
648.00,41.161
649.00,41.220
650.00,41.232
651.00,41.447
652.00,41.527
653.00,41.515
654.00,41.579
655.00,41.812
656.00,42.028
657.00,42.007
658.00,42.015
659.00,42.150
660.00,42.117
661.00,42.263
662.00,42.321
663.00,42.377
664.00,42.659
665.00,42.768
666.00,42.743
667.00,42.838
668.00,42.869
669.00,43.063
670.00,43.290
671.00,43.208
672.00,43.340
673.00,43.443
674.00,43.478
675.00,43.524
676.00,43.715
677.00,43.914
678.00,43.741
679.00,43.922
680.00,44.023
681.00,44.217
682.00,44.166
683.00,44.234
684.00,44.397
685.00,44.531
686.00,44.495
687.00,44.556
688.00,44.630
689.00,44.694
690.00,44.828
691.00,45.186
692.00,44.930
693.00,45.002
694.00,45.292
695.00,45.388
696.00,45.464
697.00,45.372
698.00,45.385
699.00,45.635
700.00,45.887
701.00,45.719
702.00,45.923
703.00,46.141
704.00,46.185
705.00,46.065
706.00,46.157
707.00,46.206
708.00,46.206
709.00,46.589
710.00,46.897
711.00,46.477
712.00,46.507
713.00,46.692
714.00,46.858
715.00,46.800
716.00,46.904
717.00,46.976
718.00,47.243
719.00,47.143
720.00,47.138
721.00,51.710
722.00,51.764
723.00,51.718
724.00,51.694
725.00,51.789
726.00,51.834
727.00,51.786
728.00,51.891
729.00,51.801
730.00,51.929
731.00,51.929
732.00,51.966
733.00,51.977
734.00,52.043
735.00,52.103
736.00,52.120
737.00,52.117
738.00,52.264
739.00,52.239
740.00,52.187
741.00,52.254
742.00,52.309
743.00,52.327
744.00,52.317
745.00,52.358
746.00,52.504
747.00,52.389
748.00,52.375
749.00,52.425
750.00,52.363
751.00,52.387
752.00,52.459
753.00,52.396
754.00,52.445
755.00,52.405
756.00,52.452
757.00,52.436
758.00,52.555
759.00,52.488
760.00,52.411
761.00,52.544
762.00,52.540
763.00,52.607
764.00,52.549
765.00,52.569
766.00,52.576
767.00,52.598
768.00,52.655
769.00,52.613
770.00,52.674
771.00,52.585
772.00,52.748
773.00,52.708
774.00,52.675
775.00,52.700
776.00,52.657
777.00,52.767
778.00,52.721
779.00,52.793
780.00,52.695
781.00,52.773
782.00,52.770
783.00,52.701
784.00,52.749
785.00,52.723
786.00,52.706
787.00,52.797
788.00,52.777
789.00,52.751
790.00,52.687
791.00,52.739
792.00,52.731
793.00,52.659
794.00,52.685
795.00,52.726
796.00,52.723
797.00,52.625
798.00,52.652
799.00,52.539
800.00,52.693
801.00,52.628
802.00,52.601
803.00,52.581
804.00,52.596
805.00,52.623
806.00,52.606
807.00,52.534
808.00,52.651
809.00,52.520
810.00,52.571
811.00,52.532
812.00,52.546
813.00,52.493
814.00,52.492
815.00,52.528
816.00,52.466
817.00,52.468
818.00,52.431
819.00,52.374
820.00,52.412
821.00,52.392
822.00,52.407
823.00,52.370
824.00,52.441
825.00,52.219
826.00,52.293
827.00,52.394
828.00,52.376
829.00,52.368
830.00,52.335
831.00,54.765
832.00,54.758
833.00,54.674
834.00,54.696
835.00,54.655
836.00,54.654
837.00,54.639
838.00,54.621
839.00,54.592
840.00,54.569
841.00,54.585
842.00,54.567
843.00,54.566
844.00,54.541
845.00,54.495
846.00,54.494
847.00,54.477
848.00,54.455
849.00,54.403
850.00,54.426
851.00,54.399
852.00,54.391
853.00,54.310
854.00,54.303
855.00,54.226
856.00,54.241
857.00,54.239
858.00,54.187
859.00,54.175
860.00,54.188
861.00,54.158
862.00,54.136
863.00,54.131
864.00,54.126
865.00,54.161
866.00,54.081
867.00,54.079
868.00,54.049
869.00,54.074
870.00,54.066
871.00,54.029
872.00,53.991
873.00,54.174
874.00,54.023
875.00,53.995
876.00,54.000
877.00,53.960
878.00,53.980
879.00,53.933
880.00,53.955
881.00,53.929
882.00,53.971
883.00,53.906
884.00,53.878
885.00,53.871
886.00,53.864
887.00,53.814
888.00,53.778
889.00,53.785
890.00,53.775
891.00,53.760
892.00,53.731
893.00,53.716
894.00,53.730
895.00,53.682
896.00,53.658
897.00,53.668
898.00,53.634
899.00,53.630
900.00,53.604
901.00,53.593
902.00,53.577
903.00,53.543
904.00,53.559
905.00,53.541
906.00,53.502
907.00,53.637
908.00,53.472
909.00,53.442
910.00,53.407
911.00,53.426
912.00,53.430
913.00,53.383
914.00,53.372
915.00,53.364
916.00,53.329
917.00,53.261
918.00,53.373
919.00,53.236
920.00,53.218
921.00,53.234
922.00,53.224
923.00,53.215
924.00,53.156
925.00,53.157
926.00,53.136
927.00,53.133
928.00,53.102
929.00,53.105
930.00,53.014
931.00,53.109
932.00,53.011
933.00,53.027
934.00,53.005
935.00,52.989
936.00,52.960
937.00,52.948
938.00,52.929
939.00,52.914
940.00,52.881
941.00,52.886
942.00,52.840
943.00,52.848
944.00,52.798
945.00,52.815
946.00,52.799
947.00,52.757
948.00,52.748
949.00,52.721
950.00,52.714
951.00,52.707
952.00,52.684
953.00,52.638
954.00,52.623
955.00,52.578
956.00,52.576
957.00,52.513
958.00,52.534
959.00,52.491
960.00,52.491
961.00,52.471
962.00,52.487
963.00,52.444
964.00,52.429
965.00,52.425
966.00,52.409
967.00,52.424
968.00,52.398
969.00,52.410
970.00,52.385
971.00,52.391
972.00,52.355
973.00,52.400
974.00,52.345
975.00,52.384
976.00,52.408
977.00,52.379
978.00,52.444
979.00,52.468
980.00,52.390
981.00,52.397
982.00,52.383
983.00,52.366
984.00,52.361
985.00,52.381
986.00,52.330
987.00,52.329
988.00,52.339
989.00,52.338
990.00,52.305
991.00,52.269
992.00,52.309
993.00,52.270
994.00,52.247
995.00,52.257
996.00,52.233
997.00,52.229
998.00,52.189
999.00,52.213
1000.00,52.176
1001.00,52.171
1002.00,52.148
1003.00,52.150
1004.00,52.138
1005.00,52.094
1006.00,52.151
1007.00,52.109
1008.00,52.088
1009.00,52.077
1010.00,52.062
1011.00,52.075
1012.00,52.042
1013.00,52.045
1014.00,52.009
1015.00,52.032
1016.00,51.973
1017.00,51.985
1018.00,51.974
1019.00,51.920
1020.00,51.932
1021.00,51.897
1022.00,51.911
1023.00,51.854
1024.00,51.849
1025.00,51.883
1026.00,51.829
1027.00,51.806
1028.00,51.812
1029.00,51.788
1030.00,51.755
1031.00,51.764
1032.00,51.719
1033.00,51.731
1034.00,51.701
1035.00,51.658
1036.00,51.637
1037.00,51.620
1038.00,51.593
1039.00,51.572
1040.00,51.562
1041.00,51.525
1042.00,51.522
1043.00,51.492
1044.00,51.539
1045.00,51.524
1046.00,51.489
1047.00,51.540
1048.00,51.551
1049.00,51.544
1050.00,51.554
1051.00,51.601
1052.00,51.588
1053.00,51.595
1054.00,51.584
1055.00,51.614
1056.00,51.624
1057.00,51.615
1058.00,51.619
1059.00,51.605
1060.00,51.606
1061.00,51.580
1062.00,51.564
1063.00,51.572
1064.00,51.570
1065.00,51.556
1066.00,51.553
1067.00,51.553
1068.00,51.569
1069.00,51.538
1070.00,51.528
1071.00,51.493
1072.00,51.538
1073.00,51.501
1074.00,51.496
1075.00,51.477
1076.00,51.463
1077.00,51.472
1078.00,51.453
1079.00,51.445
1080.00,51.455
1081.00,51.436
1082.00,51.424
1083.00,51.424
1084.00,51.418
1085.00,51.406
1086.00,51.401
1087.00,51.379
1088.00,51.366
1089.00,51.362
1090.00,51.346
1091.00,51.368
1092.00,51.357
1093.00,51.341
1094.00,51.321
1095.00,51.305
1096.00,51.294
1097.00,51.300
1098.00,51.287
1099.00,51.277
1100.00,51.275
1101.00,51.250
1102.00,51.250
1103.00,51.247
1104.00,51.217
1105.00,51.214
1106.00,51.202
1107.00,51.194
1108.00,51.184
1109.00,51.174
1110.00,51.181
1111.00,51.182
1112.00,51.164
1113.00,51.168
1114.00,51.149
1115.00,51.134
1116.00,51.130
1117.00,51.114
1118.00,51.089
1119.00,51.103
1120.00,51.080
1121.00,51.078
1122.00,51.061
1123.00,51.068
1124.00,51.069
1125.00,51.058
1126.00,51.043
1127.00,51.047
1128.00,51.041
1129.00,51.031
1130.00,51.007
1131.00,51.031
1132.00,50.996
1133.00,51.022
1134.00,50.987
1135.00,50.988
1136.00,50.978
1137.00,50.972
1138.00,50.987
1139.00,50.989
1140.00,50.971
1141.00,50.956
1142.00,50.938
1143.00,50.970
1144.00,50.931
1145.00,50.930
1146.00,50.931
1147.00,50.927
1148.00,50.918
1149.00,50.944
1150.00,50.948
1151.00,50.943
1152.00,50.939
1153.00,50.923
1154.00,50.913
1155.00,50.908
1156.00,50.882
1157.00,50.909
1158.00,50.906
1159.00,50.893
1160.00,50.892
1161.00,50.898
1162.00,50.881
1163.00,50.882
1164.00,50.880
1165.00,50.882
1166.00,50.880
1167.00,50.852
1168.00,50.892
1169.00,50.875
1170.00,50.863
1171.00,50.849
1172.00,50.854
1173.00,50.846
1174.00,50.854
1175.00,50.851
1176.00,50.867
1177.00,50.860
1178.00,50.843
1179.00,50.866
1180.00,50.845
1181.00,50.849
1182.00,50.852
1183.00,50.843
1184.00,50.834
1185.00,50.849
1186.00,50.821
1187.00,50.840
1188.00,50.842
1189.00,50.839
1190.00,50.838
1191.00,50.841
1192.00,50.874
1193.00,50.863
1194.00,50.847
1195.00,50.814
1196.00,50.844
1197.00,50.835
1198.00,50.814
1199.00,50.812
1200.00,50.811
1201.00,50.844
1202.00,50.829
1203.00,50.813
1204.00,50.809
1205.00,50.837
1206.00,50.825
1207.00,50.834
1208.00,50.826
1209.00,50.822
1210.00,50.817
1211.00,50.794
1212.00,50.822
1213.00,50.786
1214.00,50.799
1215.00,50.787
1216.00,50.793
1217.00,50.800
1218.00,50.781
1219.00,50.797
1220.00,50.794
1221.00,50.812
1222.00,50.787
1223.00,50.819
1224.00,50.807
1225.00,50.771
1226.00,50.786
1227.00,50.786
1228.00,50.791
1229.00,50.806
1230.00,50.825
1231.00,50.828
1232.00,50.866
1233.00,50.841
1234.00,50.845
1235.00,50.830
1236.00,50.817
1237.00,50.832
1238.00,50.822
1239.00,50.831
1240.00,50.811
1241.00,50.821
1242.00,50.836
1243.00,50.844
1244.00,50.804
1245.00,50.838
1246.00,50.845
1247.00,50.815
1248.00,50.827
1249.00,50.835
1250.00,50.850
1251.00,50.859
1252.00,50.855
1253.00,50.872
1254.00,50.921
1255.00,50.861
1256.00,50.848
1257.00,50.846
1258.00,50.877
1259.00,50.858
1260.00,50.888
1261.00,50.885
1262.00,50.888
1263.00,50.879
1264.00,50.893
1265.00,50.899
1266.00,50.890
1267.00,50.923
1268.00,50.933
1269.00,50.914
1270.00,50.934
1271.00,50.933
1272.00,50.920
1273.00,50.939
1274.00,50.938
1275.00,50.950
1276.00,50.949
1277.00,50.952
1278.00,50.968
1279.00,50.963
1280.00,50.951
1281.00,50.981
1282.00,50.972
1283.00,50.971
1284.00,50.970
1285.00,50.954
1286.00,50.988
1287.00,50.987
1288.00,50.971
1289.00,50.974
1290.00,50.998
1291.00,50.998
1292.00,50.992
1293.00,50.982
1294.00,50.993
1295.00,51.019
1296.00,50.998
1297.00,51.023
1298.00,51.074
1299.00,51.025
1300.00,51.049
1301.00,51.036
1302.00,51.055
1303.00,51.055
1304.00,51.034
1305.00,51.066
1306.00,51.078
1307.00,51.084
1308.00,51.081
1309.00,51.103
1310.00,51.093
1311.00,51.103
1312.00,51.120
1313.00,51.096
1314.00,51.134
1315.00,51.149
1316.00,51.114
1317.00,51.143
1318.00,51.137
1319.00,51.143
1320.00,51.150
1321.00,51.281
1322.00,51.279
1323.00,51.266
1324.00,51.238
1325.00,51.283
1326.00,51.306
1327.00,51.272
1328.00,51.280
1329.00,51.265
1330.00,51.253
1331.00,51.259
1332.00,51.254
1333.00,51.261
1334.00,51.283
1335.00,51.308
1336.00,51.332
1337.00,51.376
1338.00,51.433
1339.00,51.472
1340.00,51.541
1341.00,51.597
1342.00,51.649
1343.00,51.696
1344.00,51.747
1345.00,51.791
1346.00,51.824
1347.00,51.850
1348.00,51.888
1349.00,51.895
1350.00,51.906
1351.00,51.926
1352.00,51.931
1353.00,51.960
1354.00,51.952
1355.00,51.925
1356.00,51.957
1357.00,51.971
1358.00,52.004
1359.00,52.038
1360.00,51.940
1361.00,51.980
1362.00,52.038
1363.00,52.022
1364.00,52.024
1365.00,51.983
1366.00,52.016
1367.00,51.948
1368.00,51.944
1369.00,52.012
1370.00,51.959
1371.00,51.912
1372.00,51.949
1373.00,51.991
1374.00,51.991
1375.00,51.948
1376.00,51.932
1377.00,51.922
1378.00,51.928
1379.00,51.959
1380.00,51.940
1381.00,51.999
1382.00,51.935
1383.00,51.960
1384.00,51.928
1385.00,51.887
1386.00,51.955
1387.00,51.946
1388.00,51.921
1389.00,51.845
1390.00,51.881
1391.00,51.961
1392.00,51.924
1393.00,51.891
1394.00,51.977
1395.00,51.968
1396.00,51.899
1397.00,51.859
1398.00,51.964
1399.00,51.952
1400.00,52.068
1401.00,51.916
1402.00,51.950
1403.00,51.963
1404.00,51.956
1405.00,51.965
1406.00,51.965
1407.00,51.976
1408.00,52.047
1409.00,51.967
1410.00,52.003
1411.00,51.976
1412.00,52.035
1413.00,51.984
1414.00,51.991
1415.00,52.012
1416.00,52.026
1417.00,52.053
1418.00,52.054
1419.00,52.037
1420.00,52.057
1421.00,52.102
1422.00,52.086
1423.00,52.115
1424.00,52.124
1425.00,52.139
1426.00,52.142
1427.00,52.165
1428.00,52.164
1429.00,52.154
1430.00,52.171
1431.00,52.204
1432.00,52.219
1433.00,52.233
1434.00,52.223
1435.00,52.277
1436.00,52.280
1437.00,52.281
1438.00,52.287
1439.00,52.320
1440.00,52.325
1441.00,52.324
1442.00,52.339
1443.00,52.350
1444.00,52.443
1445.00,52.391
1446.00,52.387
1447.00,52.447
1448.00,52.478
1449.00,52.482
1450.00,52.474
1451.00,52.490
1452.00,52.498
1453.00,52.503
1454.00,52.527
1455.00,52.546
1456.00,52.579
1457.00,52.573
1458.00,52.601
1459.00,52.614
1460.00,52.633
1461.00,52.633
1462.00,52.664
1463.00,52.653
1464.00,52.663
1465.00,52.684
1466.00,52.683
1467.00,52.692
1468.00,52.760
1469.00,52.728
1470.00,52.749
1471.00,52.757
1472.00,52.757
1473.00,52.769
1474.00,52.793
1475.00,52.811
1476.00,52.822
1477.00,52.795
1478.00,52.834
1479.00,52.862
1480.00,52.871
1481.00,52.866
1482.00,52.892
1483.00,52.908
1484.00,52.924
1485.00,52.923
1486.00,52.934
1487.00,52.969
1488.00,52.978
1489.00,52.954
1490.00,52.976
1491.00,52.989
1492.00,53.014
1493.00,53.002
1494.00,53.036
1495.00,53.023
1496.00,53.031
1497.00,53.021
1498.00,53.042
1499.00,53.053
1500.00,53.074
1501.00, 
1502.00, 
1503.00, 
1504.00, 
1505.00, 
1506.00, 
1507.00, 
1508.00, 
1509.00, 
1510.00, 
1511.00, 
1512.00, 
1513.00, 
1514.00, 
1515.00, 
1516.00, 
1517.00, 
1518.00, 
1519.00, 
1520.00, 
1521.00, 
1522.00, 
1523.00, 
1524.00, 
1525.00, 
1526.00, 
1527.00, 
1528.00, 
1529.00, 
1530.00, 
1531.00, 
1532.00, 
1533.00, 
1534.00, 
1535.00, 
1536.00, 
1537.00, 
1538.00, 
1539.00, 
1540.00, 
1541.00, 
1542.00, 
1543.00, 
1544.00, 
1545.00, 
1546.00, 
1547.00, 
1548.00, 
1549.00, 
1550.00, 
1551.00, 
1552.00, 
1553.00, 
1554.00, 
1555.00, 
1556.00, 
1557.00, 
1558.00, 
1559.00, 
1560.00, 
1561.00, 
1562.00, 
1563.00, 
1564.00, 
1565.00, 
1566.00, 
1567.00, 
1568.00, 
1569.00, 
1570.00, 
1571.00, 
1572.00, 
1573.00, 
1574.00, 
1575.00, 
1576.00, 
1577.00, 
1578.00, 
1579.00, 
1580.00, 
1581.00, 
1582.00, 
1583.00, 
1584.00, 
1585.00, 
1586.00, 
1587.00, 
1588.00, 
1589.00, 
1590.00, 
1591.00, 
1592.00, 
1593.00, 
1594.00, 
1595.00, 
1596.00, 
1597.00, 
1598.00, 
1599.00, 
1600.00, 
1601.00, 
1602.00, 
1603.00, 
1604.00, 
1605.00, 
1606.00, 
1607.00, 
1608.00, 
1609.00, 
1610.00, 
1611.00, 
1612.00, 
1613.00, 
1614.00, 
1615.00, 
1616.00, 
1617.00, 
1618.00, 
1619.00, 
1620.00, 
1621.00, 
1622.00, 
1623.00, 
1624.00, 
1625.00, 
1626.00, 
1627.00, 
1628.00, 
1629.00, 
1630.00, 
1631.00, 
1632.00, 
1633.00, 
1634.00, 
1635.00, 
1636.00, 
1637.00, 
1638.00, 
1639.00, 
1640.00, 
1641.00, 
1642.00, 
1643.00, 
1644.00, 
1645.00, 
1646.00, 
1647.00, 
1648.00, 
1649.00, 
1650.00, 
1651.00, 
1652.00, 
1653.00, 
1654.00, 
1655.00, 
1656.00, 
1657.00, 
1658.00, 
1659.00, 
1660.00, 
1661.00, 
1662.00, 
1663.00, 
1664.00, 
1665.00, 
1666.00, 
1667.00, 
1668.00, 
1669.00, 
1670.00, 
1671.00, 
1672.00, 
1673.00, 
1674.00, 
1675.00, 
1676.00, 
1677.00, 
1678.00, 
1679.00, 
1680.00, 
1681.00, 
1682.00, 
1683.00, 
1684.00, 
1685.00, 
1686.00, 
1687.00, 
1688.00, 
1689.00, 
1690.00, 
1691.00, 
1692.00, 
1693.00, 
1694.00, 
1695.00, 
1696.00, 
1697.00, 
1698.00, 
1699.00, 
1700.00, 
1701.00, 
1702.00, 
1703.00, 
1704.00, 
1705.00, 
1706.00, 
1707.00, 
1708.00, 
1709.00, 
1710.00, 
1711.00, 
1712.00, 
1713.00, 
1714.00, 
1715.00, 
1716.00, 
1717.00, 
1718.00, 
1719.00, 
1720.00, 
1721.00, 
1722.00, 
1723.00, 
1724.00, 
1725.00, 
1726.00, 
1727.00, 
1728.00, 
1729.00, 
1730.00, 
1731.00, 
1732.00, 
1733.00, 
1734.00, 
1735.00, 
1736.00, 
1737.00, 
1738.00, 
1739.00, 
1740.00, 
1741.00, 
1742.00, 
1743.00, 
1744.00, 
1745.00, 
1746.00, 
1747.00, 
1748.00, 
1749.00, 
1750.00, 
1751.00, 
1752.00, 
1753.00, 
1754.00, 
1755.00, 
1756.00, 
1757.00, 
1758.00, 
1759.00, 
1760.00, 
1761.00, 
1762.00, 
1763.00, 
1764.00, 
1765.00, 
1766.00, 
1767.00, 
1768.00, 
1769.00, 
1770.00, 
1771.00, 
1772.00, 
1773.00, 
1774.00, 
1775.00, 
1776.00, 
1777.00, 
1778.00, 
1779.00, 
1780.00, 
1781.00, 
1782.00, 
1783.00, 
1784.00, 
1785.00, 
1786.00, 
1787.00, 
1788.00, 
1789.00, 
1790.00, 
1791.00, 
1792.00, 
1793.00, 
1794.00, 
1795.00, 
1796.00, 
1797.00, 
1798.00, 
1799.00, 
1800.00, 
1801.00, 
1802.00, 
1803.00, 
1804.00, 
1805.00, 
1806.00, 
1807.00, 
1808.00, 
1809.00, 
1810.00, 
1811.00, 
1812.00, 
1813.00, 
1814.00, 
1815.00, 
1816.00, 
1817.00, 
1818.00, 
1819.00, 
1820.00, 
1821.00, 
1822.00, 
1823.00, 
1824.00, 
1825.00, 
1826.00, 
1827.00, 
1828.00, 
1829.00, 
1830.00, 
1831.00, 
1832.00, 
1833.00, 
1834.00, 
1835.00, 
1836.00, 
1837.00, 
1838.00, 
1839.00, 
1840.00, 
1841.00, 
1842.00, 
1843.00, 
1844.00, 
1845.00, 
1846.00, 
1847.00, 
1848.00, 
1849.00, 
1850.00, 
1851.00, 
1852.00, 
1853.00, 
1854.00, 
1855.00, 
1856.00, 
1857.00, 
1858.00, 
1859.00, 
1860.00, 
1861.00, 
1862.00, 
1863.00, 
1864.00, 
1865.00, 
1866.00, 
1867.00, 
1868.00, 
1869.00, 
1870.00, 
1871.00, 
1872.00, 
1873.00, 
1874.00, 
1875.00, 
1876.00, 
1877.00, 
1878.00, 
1879.00, 
1880.00, 
1881.00, 
1882.00, 
1883.00, 
1884.00, 
1885.00, 
1886.00, 
1887.00, 
1888.00, 
1889.00, 
1890.00, 
1891.00, 
1892.00, 
1893.00, 
1894.00, 
1895.00, 
1896.00, 
1897.00, 
1898.00, 
1899.00, 
1900.00, 
1901.00, 
1902.00, 
1903.00, 
1904.00, 
1905.00, 
1906.00, 
1907.00, 
1908.00, 
1909.00, 
1910.00, 
1911.00, 
1912.00, 
1913.00, 
1914.00, 
1915.00, 
1916.00, 
1917.00, 
1918.00, 
1919.00, 
1920.00, 
1921.00, 
1922.00, 
1923.00, 
1924.00, 
1925.00, 
1926.00, 
1927.00, 
1928.00, 
1929.00, 
1930.00, 
1931.00, 
1932.00, 
1933.00, 
1934.00, 
1935.00, 
1936.00, 
1937.00, 
1938.00, 
1939.00, 
1940.00, 
1941.00, 
1942.00, 
1943.00, 
1944.00, 
1945.00, 
1946.00, 
1947.00, 
1948.00, 
1949.00, 
1950.00, 
1951.00, 
1952.00, 
1953.00, 
1954.00, 
1955.00, 
1956.00, 
1957.00, 
1958.00, 
1959.00, 
1960.00, 
1961.00, 
1962.00, 
1963.00, 
1964.00, 
1965.00, 
1966.00, 
1967.00, 
1968.00, 
1969.00, 
1970.00, 
1971.00, 
1972.00, 
1973.00, 
1974.00, 
1975.00, 
1976.00, 
1977.00, 
1978.00, 
1979.00, 
1980.00, 
1981.00, 
1982.00, 
1983.00, 
1984.00, 
1985.00, 
1986.00, 
1987.00, 
1988.00, 
1989.00, 
1990.00, 
1991.00, 
1992.00, 
1993.00, 
1994.00, 
1995.00, 
1996.00, 
1997.00, 
1998.00, 
1999.00, 
2000.00, 
2001.00, 
2002.00, 
2003.00, 
2004.00, 
2005.00, 
2006.00, 
2007.00, 
2008.00, 
2009.00, 
2010.00, 
2011.00, 
2012.00, 
2013.00, 
2014.00, 
2015.00, 
2016.00, 
2017.00, 
2018.00, 
2019.00, 
2020.00, 
2021.00, 
2022.00, 
2023.00, 
2024.00, 
2025.00, 
2026.00, 
2027.00, 
2028.00, 
2029.00, 
2030.00, 
2031.00, 
2032.00, 
2033.00, 
2034.00, 
2035.00, 
2036.00, 
2037.00, 
2038.00, 
2039.00, 
2040.00, 
2041.00, 
2042.00, 
2043.00, 
2044.00, 
2045.00, 
2046.00, 
2047.00, 
2048.00, 
2049.00, 
2050.00, 
2051.00, 
2052.00, 
2053.00, 
2054.00, 
2055.00, 
2056.00, 
2057.00, 
2058.00, 
2059.00, 
2060.00, 
2061.00, 
2062.00, 
2063.00, 
2064.00, 
2065.00, 
2066.00, 
2067.00, 
2068.00, 
2069.00, 
2070.00, 
2071.00, 
2072.00, 
2073.00, 
2074.00, 
2075.00, 
2076.00, 
2077.00, 
2078.00, 
2079.00, 
2080.00, 
2081.00, 
2082.00, 
2083.00, 
2084.00, 
2085.00, 
2086.00, 
2087.00, 
2088.00, 
2089.00, 
2090.00, 
2091.00, 
2092.00, 
2093.00, 
2094.00, 
2095.00, 
2096.00, 
2097.00, 
2098.00, 
2099.00, 
2100.00, 
2101.00, 
2102.00, 
2103.00, 
2104.00, 
2105.00, 
2106.00, 
2107.00, 
2108.00, 
2109.00, 
2110.00, 
2111.00, 
2112.00, 
2113.00, 
2114.00, 
2115.00, 
2116.00, 
2117.00, 
2118.00, 
2119.00, 
2120.00, 
2121.00, 
2122.00, 
2123.00, 
2124.00, 
2125.00, 
2126.00, 
2127.00, 
2128.00, 
2129.00, 
2130.00, 
2131.00, 
2132.00, 
2133.00, 
2134.00, 
2135.00, 
2136.00, 
2137.00, 
2138.00, 
2139.00, 
2140.00, 
2141.00, 
2142.00, 
2143.00, 
2144.00, 
2145.00, 
2146.00, 
2147.00, 
2148.00, 
2149.00, 
2150.00, 
2151.00, 
2152.00, 
2153.00, 
2154.00, 
2155.00, 
2156.00, 
2157.00, 
2158.00, 
2159.00, 
2160.00, 
2161.00, 
2162.00, 
2163.00, 
2164.00, 
2165.00, 
2166.00, 
2167.00, 
2168.00, 
2169.00, 
2170.00, 
2171.00, 
2172.00, 
2173.00, 
2174.00, 
2175.00, 
2176.00, 
2177.00, 
2178.00, 
2179.00, 
2180.00, 
2181.00, 
2182.00, 
2183.00, 
2184.00, 
2185.00, 
2186.00, 
2187.00, 
2188.00, 
2189.00, 
2190.00, 
2191.00, 
2192.00, 
2193.00, 
2194.00, 
2195.00, 
2196.00, 
2197.00, 
2198.00, 
2199.00, 
2200.00, 
2201.00, 
2202.00, 
2203.00, 
2204.00, 
2205.00, 
2206.00, 
2207.00, 
2208.00, 
2209.00, 
2210.00, 
2211.00, 
2212.00, 
2213.00, 
2214.00, 
2215.00, 
2216.00, 
2217.00, 
2218.00, 
2219.00, 
2220.00, 
2221.00, 
2222.00, 
2223.00, 
2224.00, 
2225.00, 
2226.00, 
2227.00, 
2228.00, 
2229.00, 
2230.00, 
2231.00, 
2232.00, 
2233.00, 
2234.00, 
2235.00, 
2236.00, 
2237.00, 
2238.00, 
2239.00, 
2240.00, 
2241.00, 
2242.00, 
2243.00, 
2244.00, 
2245.00, 
2246.00, 
2247.00, 
2248.00, 
2249.00, 
2250.00, 
2251.00, 
2252.00, 
2253.00, 
2254.00, 
2255.00, 
2256.00, 
2257.00, 
2258.00, 
2259.00, 
2260.00, 
2261.00, 
2262.00, 
2263.00, 
2264.00, 
2265.00, 
2266.00, 
2267.00, 
2268.00, 
2269.00, 
2270.00, 
2271.00, 
2272.00, 
2273.00, 
2274.00, 
2275.00, 
2276.00, 
2277.00, 
2278.00, 
2279.00, 
2280.00, 
2281.00, 
2282.00, 
2283.00, 
2284.00, 
2285.00, 
2286.00, 
2287.00, 
2288.00, 
2289.00, 
2290.00, 
2291.00, 
2292.00, 
2293.00, 
2294.00, 
2295.00, 
2296.00, 
2297.00, 
2298.00, 
2299.00, 
2300.00, 
2301.00, 
2302.00, 
2303.00, 
2304.00, 
2305.00, 
2306.00, 
2307.00, 
2308.00, 
2309.00, 
2310.00, 
2311.00, 
2312.00, 
2313.00, 
2314.00, 
2315.00, 
2316.00, 
2317.00, 
2318.00, 
2319.00, 
2320.00, 
2321.00, 
2322.00, 
2323.00, 
2324.00, 
2325.00, 
2326.00, 
2327.00, 
2328.00, 
2329.00, 
2330.00, 
2331.00, 
2332.00, 
2333.00, 
2334.00, 
2335.00, 
2336.00, 
2337.00, 
2338.00, 
2339.00, 
2340.00, 
2341.00, 
2342.00, 
2343.00, 
2344.00, 
2345.00, 
2346.00, 
2347.00, 
2348.00, 
2349.00, 
2350.00, 
2351.00, 
2352.00, 
2353.00, 
2354.00, 
2355.00, 
2356.00, 
2357.00, 
2358.00, 
2359.00, 
2360.00, 
2361.00, 
2362.00, 
2363.00, 
2364.00, 
2365.00, 
2366.00, 
2367.00, 
2368.00, 
2369.00, 
2370.00, 
2371.00, 
2372.00, 
2373.00, 
2374.00, 
2375.00, 
2376.00, 
2377.00, 
2378.00, 
2379.00, 
2380.00, 
2381.00, 
2382.00, 
2383.00, 
2384.00, 
2385.00, 
2386.00, 
2387.00, 
2388.00, 
2389.00, 
2390.00, 
2391.00, 
2392.00, 
2393.00, 
2394.00, 
2395.00, 
2396.00, 
2397.00, 
2398.00, 
2399.00, 
2400.00, 
2401.00, 
2402.00, 
2403.00, 
2404.00, 
2405.00, 
2406.00, 
2407.00, 
2408.00, 
2409.00, 
2410.00, 
2411.00, 
2412.00, 
2413.00, 
2414.00, 
2415.00, 
2416.00, 
2417.00, 
2418.00, 
2419.00, 
2420.00, 
2421.00, 
2422.00, 
2423.00, 
2424.00, 
2425.00, 
2426.00, 
2427.00, 
2428.00, 
2429.00, 
2430.00, 
2431.00, 
2432.00, 
2433.00, 
2434.00, 
2435.00, 
2436.00, 
2437.00, 
2438.00, 
2439.00, 
2440.00, 
2441.00, 
2442.00, 
2443.00, 
2444.00, 
2445.00, 
2446.00, 
2447.00, 
2448.00, 
2449.00, 
2450.00, 
2451.00, 
2452.00, 
2453.00, 
2454.00, 
2455.00, 
2456.00, 
2457.00, 
2458.00, 
2459.00, 
2460.00, 
2461.00, 
2462.00, 
2463.00, 
2464.00, 
2465.00, 
2466.00, 
2467.00, 
2468.00, 
2469.00, 
2470.00, 
2471.00, 
2472.00, 
2473.00, 
2474.00, 
2475.00, 
2476.00, 
2477.00, 
2478.00, 
2479.00, 
2480.00, 
2481.00, 
2482.00, 
2483.00, 
2484.00, 
2485.00, 
2486.00, 
2487.00, 
2488.00, 
2489.00, 
2490.00, 
2491.00, 
2492.00, 
2493.00, 
2494.00, 
2495.00, 
2496.00, 
2497.00, 
2498.00, 
2499.00, 
2500.00, 
2501.00, 
2502.00, 
2503.00, 
2504.00, 
2505.00, 
2506.00, 
2507.00, 
2508.00, 
2509.00, 
2510.00, 
2511.00, 
2512.00, 
2513.00, 
2514.00, 
2515.00, 
2516.00, 
2517.00, 
2518.00, 
2519.00, 
2520.00, 
2521.00, 
2522.00, 
2523.00, 
2524.00, 
2525.00, 
2526.00, 
2527.00, 
2528.00, 
2529.00, 
2530.00, 
2531.00, 
2532.00, 
2533.00, 
2534.00, 
2535.00, 
2536.00, 
2537.00, 
2538.00, 
2539.00, 
2540.00, 
2541.00, 
2542.00, 
2543.00, 
2544.00, 
2545.00, 
2546.00, 
2547.00, 
2548.00, 
2549.00, 
2550.00, 
2551.00, 
2552.00, 
2553.00, 
2554.00, 
2555.00, 
2556.00, 
2557.00, 
2558.00, 
2559.00, 
2560.00, 
2561.00, 
2562.00, 
2563.00, 
2564.00, 
2565.00, 
2566.00, 
2567.00, 
2568.00, 
2569.00, 
2570.00, 
2571.00, 
2572.00, 
2573.00, 
2574.00, 
2575.00, 
2576.00, 
2577.00, 
2578.00, 
2579.00, 
2580.00, 
2581.00, 
2582.00, 
2583.00, 
2584.00, 
2585.00, 
2586.00, 
2587.00, 
2588.00, 
2589.00, 
2590.00, 
2591.00, 
2592.00, 
2593.00, 
2594.00, 
2595.00, 
2596.00, 
2597.00, 
2598.00, 
2599.00, 
2600.00, 
