"clean_2 - RawData"
"Wavelength nm.","T%"
200.00,0.004
201.00,0.007
202.00,-0.001
203.00,0.006
204.00,0.006
205.00,0.003
206.00,0.002
207.00,0.003
208.00,0.005
209.00,0.001
210.00,0.001
211.00,0.001
212.00,0.003
213.00,0.007
214.00,0.010
215.00,0.004
216.00,0.004
217.00,0.005
218.00,0.001
219.00,0.002
220.00,0.005
221.00,0.005
222.00,0.005
223.00,0.006
224.00,0.006
225.00,0.008
226.00,0.007
227.00,0.006
228.00,0.007
229.00,0.006
230.00,0.006
231.00,0.004
232.00,0.003
233.00,0.007
234.00,0.005
235.00,0.004
236.00,0.005
237.00,0.005
238.00,0.003
239.00,0.006
240.00,0.004
241.00,0.005
242.00,0.004
243.00,0.004
244.00,0.003
245.00,0.004
246.00,0.001
247.00,0.003
248.00,0.001
249.00,0.002
250.00,0.003
251.00,0.003
252.00,0.001
253.00,0.002
254.00,0.004
255.00,0.003
256.00,0.001
257.00,-0.000
258.00,0.003
259.00,0.003
260.00,0.001
261.00,0.000
262.00,0.002
263.00,0.001
264.00,0.002
265.00,0.001
266.00,0.002
267.00,0.002
268.00,-0.000
269.00,0.000
270.00,0.002
271.00,0.000
272.00,0.002
273.00,0.001
274.00,0.002
275.00,0.001
276.00,0.003
277.00,0.001
278.00,0.002
279.00,0.001
280.00,0.001
281.00,0.001
282.00,0.000
283.00,0.002
284.00,0.000
285.00,0.001
286.00,0.002
287.00,0.002
288.00,0.000
289.00,-0.000
290.00,-0.001
291.00,0.001
292.00,0.002
293.00,0.001
294.00,0.001
295.00,-0.000
296.00,0.002
297.00,0.003
298.00,0.006
299.00,0.010
300.00,0.018
301.00,0.021
302.00,0.036
303.00,0.058
304.00,0.086
305.00,0.138
306.00,0.210
307.00,0.306
308.00,0.493
309.00,0.744
310.00,1.007
311.00,1.378
312.00,1.858
313.00,2.520
314.00,3.226
315.00,4.126
316.00,5.235
317.00,6.527
318.00,7.902
319.00,9.528
320.00,11.280
321.00,13.136
322.00,15.446
323.00,17.888
324.00,20.251
325.00,22.520
326.00,25.035
327.00,27.748
328.00,30.518
329.00,33.081
330.00,35.748
331.00,38.410
332.00,41.046
333.00,43.879
334.00,46.588
335.00,48.867
336.00,51.252
337.00,54.005
338.00,56.036
339.00,58.365
340.00,60.306
341.00,62.143
342.00,63.976
343.00,65.904
344.00,67.681
345.00,69.200
346.00,70.670
347.00,71.963
348.00,73.178
349.00,74.480
350.00,75.556
351.00,76.587
352.00,77.325
353.00,78.466
354.00,79.386
355.00,80.060
356.00,80.930
357.00,81.537
358.00,82.203
359.00,82.837
360.00,83.296
361.00,83.921
362.00,84.263
363.00,84.506
364.00,84.961
365.00,85.350
366.00,85.413
367.00,85.490
368.00,85.889
369.00,86.106
370.00,86.301
371.00,86.393
372.00,86.492
373.00,86.375
374.00,86.075
375.00,86.276
376.00,86.154
377.00,85.906
378.00,85.783
379.00,85.491
380.00,85.725
381.00,85.640
382.00,85.811
383.00,86.085
384.00,86.375
385.00,86.552
386.00,86.645
387.00,86.995
388.00,87.296
389.00,87.329
390.00,87.711
391.00,87.881
392.00,87.982
393.00,88.071
394.00,88.250
395.00,88.652
396.00,88.674
397.00,88.727
398.00,88.710
399.00,88.910
400.00,88.822
401.00,88.872
402.00,88.993
403.00,88.835
404.00,88.952
405.00,88.875
406.00,89.022
407.00,89.095
408.00,88.947
409.00,89.008
410.00,89.063
411.00,88.984
412.00,88.955
413.00,88.858
414.00,88.882
415.00,88.820
416.00,88.747
417.00,88.895
418.00,88.838
419.00,88.748
420.00,88.952
421.00,88.969
422.00,88.750
423.00,88.841
424.00,88.813
425.00,88.931
426.00,88.906
427.00,88.825
428.00,88.911
429.00,88.939
430.00,88.877
431.00,88.891
432.00,88.873
433.00,88.787
434.00,89.025
435.00,88.925
436.00,88.877
437.00,88.892
438.00,88.856
439.00,88.788
440.00,88.871
441.00,88.849
442.00,88.922
443.00,88.892
444.00,88.981
445.00,88.942
446.00,88.971
447.00,89.055
448.00,89.056
449.00,88.896
450.00,89.032
451.00,88.980
452.00,89.161
453.00,89.128
454.00,89.324
455.00,89.167
456.00,89.372
457.00,89.447
458.00,89.405
459.00,89.327
460.00,89.460
461.00,89.605
462.00,89.407
463.00,89.489
464.00,89.241
465.00,89.489
466.00,89.545
467.00,89.503
468.00,89.474
469.00,89.456
470.00,89.593
471.00,89.693
472.00,89.774
473.00,89.588
474.00,89.596
475.00,89.642
476.00,89.858
477.00,89.650
478.00,89.757
479.00,89.769
480.00,89.751
481.00,89.715
482.00,89.673
483.00,89.791
484.00,89.768
485.00,89.799
486.00,89.815
487.00,89.885
488.00,89.795
489.00,89.868
490.00,89.800
491.00,89.846
492.00,89.829
493.00,89.807
494.00,89.691
495.00,89.844
496.00,89.760
497.00,89.758
498.00,89.833
499.00,89.717
500.00,89.924
501.00,89.989
502.00,89.865
503.00,89.770
504.00,89.896
505.00,89.884
506.00,89.826
507.00,89.760
508.00,89.906
509.00,89.997
510.00,89.869
511.00,90.037
512.00,89.947
513.00,90.023
514.00,89.928
515.00,90.049
516.00,89.957
517.00,89.862
518.00,89.844
519.00,90.062
520.00,89.921
521.00,89.952
522.00,89.773
523.00,89.975
524.00,89.792
525.00,89.892
526.00,89.901
527.00,89.913
528.00,89.905
529.00,89.780
530.00,89.976
531.00,89.884
532.00,89.846
533.00,89.844
534.00,89.556
535.00,89.892
536.00,89.805
537.00,89.821
538.00,89.787
539.00,89.907
540.00,89.934
541.00,89.804
542.00,89.806
543.00,89.738
544.00,89.806
545.00,89.830
546.00,89.756
547.00,89.865
548.00,89.726
549.00,89.720
550.00,89.725
551.00,89.669
552.00,89.650
553.00,89.676
554.00,89.735
555.00,89.603
556.00,89.630
557.00,89.512
558.00,89.666
559.00,89.693
560.00,89.564
561.00,89.480
562.00,89.413
563.00,89.669
564.00,89.523
565.00,89.603
566.00,89.650
567.00,89.500
568.00,89.607
569.00,89.517
570.00,89.518
571.00,89.815
572.00,89.444
573.00,89.497
574.00,89.510
575.00,89.482
576.00,89.418
577.00,89.261
578.00,89.193
579.00,89.277
580.00,89.326
581.00,89.360
582.00,89.194
583.00,89.284
584.00,89.217
585.00,89.310
586.00,89.349
587.00,89.175
588.00,89.053
589.00,89.082
590.00,89.019
591.00,88.948
592.00,89.021
593.00,88.890
594.00,88.754
595.00,88.782
596.00,88.994
597.00,88.796
598.00,89.022
599.00,88.985
600.00,88.731
601.00,88.634
602.00,88.808
603.00,88.811
604.00,88.698
605.00,88.783
606.00,88.650
607.00,88.542
608.00,88.565
609.00,88.566
610.00,88.458
611.00,88.536
612.00,88.519
613.00,88.429
614.00,88.404
615.00,88.384
616.00,88.404
617.00,88.400
618.00,88.222
619.00,88.313
620.00,88.247
621.00,88.271
622.00,88.211
623.00,88.100
624.00,88.087
625.00,88.156
626.00,88.059
627.00,87.896
628.00,88.123
629.00,88.027
630.00,87.990
631.00,87.853
632.00,87.936
633.00,87.798
634.00,88.046
635.00,87.657
636.00,87.442
637.00,87.698
638.00,87.680
639.00,87.703
640.00,87.619
641.00,87.737
642.00,87.567
643.00,87.635
644.00,87.554
645.00,87.401
646.00,87.432
647.00,87.426
648.00,87.361
649.00,87.391
650.00,87.318
651.00,87.453
652.00,87.631
653.00,87.124
654.00,87.133
655.00,87.159
656.00,87.100
657.00,87.108
658.00,87.077
659.00,87.310
660.00,87.265
661.00,86.977
662.00,86.907
663.00,86.956
664.00,87.002
665.00,86.859
666.00,86.819
667.00,86.729
668.00,87.188
669.00,87.242
670.00,86.761
671.00,86.702
672.00,86.849
673.00,86.354
674.00,86.550
675.00,86.391
676.00,86.605
677.00,86.660
678.00,86.652
679.00,86.522
680.00,86.221
681.00,86.324
682.00,86.142
683.00,86.201
684.00,86.426
685.00,86.353
686.00,86.081
687.00,86.196
688.00,85.917
689.00,86.289
690.00,86.113
691.00,85.948
692.00,85.940
693.00,85.780
694.00,85.569
695.00,85.726
696.00,85.722
697.00,85.633
698.00,85.749
699.00,85.792
700.00,85.618
701.00,85.689
702.00,85.483
703.00,85.472
704.00,85.333
705.00,85.560
706.00,85.528
707.00,85.315
708.00,85.260
709.00,85.166
710.00,85.065
711.00,85.262
712.00,85.245
713.00,85.123
714.00,84.856
715.00,85.007
716.00,84.910
717.00,84.859
718.00,84.955
719.00,84.939
720.00,84.930
721.00,84.769
722.00,84.802
723.00,84.480
724.00,84.586
725.00,84.655
726.00,84.516
727.00,84.549
728.00,84.400
729.00,84.248
730.00,84.372
731.00,84.410
732.00,84.079
733.00,84.235
734.00,84.143
735.00,84.129
736.00,84.130
737.00,84.155
738.00,83.988
739.00,84.030
740.00,84.001
741.00,83.902
742.00,83.734
743.00,83.938
744.00,83.774
745.00,83.971
746.00,83.810
747.00,83.681
748.00,83.508
749.00,83.612
750.00,83.582
751.00,83.579
752.00,83.471
753.00,83.391
754.00,83.421
755.00,83.415
756.00,83.393
757.00,83.180
758.00,83.217
759.00,83.054
760.00,83.087
761.00,83.083
762.00,83.087
763.00,83.059
764.00,82.873
765.00,82.857
766.00,82.934
767.00,82.877
768.00,82.788
769.00,82.916
770.00,82.617
771.00,82.663
772.00,82.628
773.00,82.739
774.00,82.453
775.00,82.604
776.00,82.486
777.00,82.414
778.00,82.310
779.00,82.203
780.00,82.379
781.00,82.214
782.00,82.335
783.00,82.234
784.00,82.285
785.00,82.052
786.00,82.208
787.00,82.195
788.00,82.035
789.00,82.112
790.00,81.805
791.00,81.951
792.00,81.833
793.00,82.084
794.00,81.743
795.00,81.875
796.00,81.799
797.00,81.774
798.00,81.594
799.00,81.832
800.00,81.286
801.00,81.442
802.00,81.511
803.00,81.375
804.00,81.609
805.00,81.594
806.00,81.301
807.00,81.413
808.00,81.465
809.00,81.402
810.00,81.360
811.00,81.000
812.00,81.562
813.00,81.201
814.00,81.273
815.00,81.197
816.00,81.154
817.00,81.198
818.00,81.004
819.00,81.091
820.00,81.007
821.00,81.094
822.00,81.105
823.00,80.912
824.00,80.815
825.00,80.832
826.00,80.725
827.00,80.939
828.00,80.666
829.00,81.032
830.00,80.803
831.00,80.655
832.00,80.892
833.00,80.816
834.00,80.678
835.00,80.674
836.00,80.640
837.00,80.604
838.00,80.681
839.00,80.656
840.00,80.671
841.00,80.524
842.00,80.370
843.00,80.506
844.00,80.537
845.00,80.411
846.00,80.400
847.00,80.469
848.00,80.452
849.00,80.313
850.00,80.332
851.00,80.330
852.00,80.239
853.00,80.278
854.00,80.295
855.00,80.216
856.00,80.132
857.00,80.287
858.00,80.119
859.00,80.129
860.00,80.221
861.00,80.060
862.00,80.030
863.00,80.090
864.00,79.993
865.00,79.961
866.00,80.033
867.00,79.943
868.00,80.014
869.00,79.981
870.00,79.939
871.00,79.912
872.00,79.879
873.00,79.769
874.00,79.923
875.00,79.828
876.00,79.739
877.00,79.845
878.00,79.632
879.00,79.723
880.00,79.776
881.00,79.609
882.00,79.739
883.00,79.719
884.00,79.695
885.00,79.617
886.00,79.679
887.00,79.521
888.00,79.595
889.00,79.538
890.00,79.498
891.00,79.493
892.00,79.521
893.00,79.543
894.00,79.531
895.00,79.476
896.00,79.433
897.00,79.417
898.00,79.455
899.00,79.400
900.00,79.374
901.00,79.327
902.00,79.299
903.00,79.318
904.00,79.251
905.00,79.275
906.00,79.263
907.00,79.226
908.00,79.228
909.00,79.277
910.00,79.217
911.00,79.171
912.00,79.179
913.00,79.207
914.00,79.152
915.00,79.096
916.00,79.113
917.00,79.155
918.00,79.088
919.00,79.090
920.00,79.041
921.00,79.066
922.00,79.103
923.00,79.006
924.00,78.996
925.00,79.014
926.00,78.989
927.00,78.967
928.00,78.950
929.00,78.952
930.00,78.942
931.00,78.927
932.00,78.903
933.00,78.902
934.00,78.911
935.00,78.881
936.00,78.920
937.00,78.855
938.00,78.834
939.00,78.842
940.00,78.806
941.00,78.818
942.00,78.759
943.00,78.786
944.00,78.768
945.00,78.780
946.00,78.768
947.00,78.757
948.00,78.758
949.00,78.724
950.00,78.736
951.00,78.703
952.00,78.697
953.00,78.697
954.00,78.702
955.00,78.693
956.00,78.666
957.00,78.661
958.00,78.657
959.00,78.642
960.00,78.636
961.00,78.647
962.00,78.627
963.00,78.613
964.00,78.605
965.00,78.588
966.00,78.599
967.00,78.580
968.00,78.552
969.00,78.583
970.00,78.563
971.00,78.520
972.00,78.584
973.00,78.531
974.00,78.585
975.00,78.529
976.00,78.530
977.00,78.516
978.00,78.515
979.00,78.500
980.00,78.473
981.00,78.479
982.00,78.461
983.00,78.495
984.00,78.479
985.00,78.471
986.00,78.464
987.00,78.477
988.00,78.431
989.00,78.392
990.00,78.455
991.00,78.470
992.00,78.450
993.00,78.422
994.00,78.419
995.00,78.424
996.00,78.393
997.00,78.423
998.00,78.412
999.00,78.402
1000.00,78.409
1001.00,78.402
1002.00,78.435
1003.00,78.357
1004.00,78.388
1005.00,78.378
1006.00,78.392
1007.00,78.374
1008.00,78.341
1009.00,78.345
1010.00,78.348
1011.00,78.380
1012.00,78.352
1013.00,78.349
1014.00,78.344
1015.00,78.337
1016.00,78.346
1017.00,78.335
1018.00,78.344
1019.00,78.334
1020.00,78.329
1021.00,78.332
1022.00,78.314
1023.00,78.299
1024.00,78.307
1025.00,78.315
1026.00,78.279
1027.00,78.288
1028.00,78.303
1029.00,78.291
1030.00,78.294
1031.00,78.281
1032.00,78.310
1033.00,78.287
1034.00,78.260
1035.00,78.303
1036.00,78.280
1037.00,78.266
1038.00,78.259
1039.00,78.254
1040.00,78.251
1041.00,78.247
1042.00,78.239
1043.00,78.246
1044.00,78.265
1045.00,78.241
1046.00,78.264
1047.00,78.259
1048.00,78.235
1049.00,78.247
1050.00,78.267
1051.00,78.240
1052.00,78.218
1053.00,78.214
1054.00,78.224
1055.00,78.228
1056.00,78.209
1057.00,78.201
1058.00,78.232
1059.00,78.200
1060.00,78.211
1061.00,78.206
1062.00,78.205
1063.00,78.218
1064.00,78.211
1065.00,78.215
1066.00,78.212
1067.00,78.185
1068.00,78.212
1069.00,78.211
1070.00,78.187
1071.00,78.171
1072.00,78.199
1073.00,78.197
1074.00,78.185
1075.00,78.185
1076.00,78.191
1077.00,78.205
1078.00,78.187
1079.00,78.204
1080.00,78.200
1081.00,78.171
1082.00,78.184
1083.00,78.197
1084.00,78.195
1085.00,78.171
1086.00,78.171
1087.00,78.198
1088.00,78.201
1089.00,78.181
1090.00,78.190
1091.00,78.211
1092.00,78.183
1093.00,78.212
1094.00,78.200
1095.00,78.196
1096.00,78.217
1097.00,78.189
1098.00,78.209
1099.00,78.197
1100.00,78.178
1101.00,78.192
1102.00,78.220
1103.00,78.196
1104.00,78.200
1105.00,78.211
1106.00,78.199
1107.00,78.204
1108.00,78.193
1109.00,78.224
1110.00,78.214
1111.00,78.196
1112.00,78.210
1113.00,78.222
1114.00,78.200
1115.00,78.207
1116.00,78.199
1117.00,78.228
1118.00,78.203
1119.00,78.208
1120.00,78.233
1121.00,78.210
1122.00,78.214
1123.00,78.252
1124.00,78.219
1125.00,78.242
1126.00,78.215
1127.00,78.242
1128.00,78.234
1129.00,78.248
1130.00,78.230
1131.00,78.258
1132.00,78.252
1133.00,78.230
1134.00,78.286
1135.00,78.283
1136.00,78.244
1137.00,78.255
1138.00,78.255
1139.00,78.261
1140.00,78.286
1141.00,78.271
1142.00,78.268
1143.00,78.291
1144.00,78.260
1145.00,78.293
1146.00,78.301
1147.00,78.289
1148.00,78.307
1149.00,78.329
1150.00,78.308
1151.00,78.307
1152.00,78.307
1153.00,78.319
1154.00,78.331
1155.00,78.313
1156.00,78.339
1157.00,78.355
1158.00,78.335
1159.00,78.345
1160.00,78.343
1161.00,78.353
1162.00,78.360
1163.00,78.365
1164.00,78.377
1165.00,78.378
1166.00,78.358
1167.00,78.373
1168.00,78.395
1169.00,78.370
1170.00,78.387
1171.00,78.382
1172.00,78.391
1173.00,78.405
1174.00,78.397
1175.00,78.428
1176.00,78.431
1177.00,78.406
1178.00,78.444
1179.00,78.443
1180.00,78.433
1181.00,78.439
1182.00,78.456
1183.00,78.453
1184.00,78.449
1185.00,78.442
1186.00,78.459
1187.00,78.486
1188.00,78.449
1189.00,78.494
1190.00,78.498
1191.00,78.492
1192.00,78.514
1193.00,78.516
1194.00,78.536
1195.00,78.524
1196.00,78.530
1197.00,78.543
1198.00,78.549
1199.00,78.513
1200.00,78.539
1201.00,78.564
1202.00,78.563
1203.00,78.563
1204.00,78.564
1205.00,78.574
1206.00,78.602
1207.00,78.604
1208.00,78.632
1209.00,78.632
1210.00,78.617
1211.00,78.638
1212.00,78.640
1213.00,78.635
1214.00,78.631
1215.00,78.642
1216.00,78.653
1217.00,78.677
1218.00,78.665
1219.00,78.691
1220.00,78.718
1221.00,78.697
1222.00,78.730
1223.00,78.743
1224.00,78.732
1225.00,78.750
1226.00,78.742
1227.00,78.760
1228.00,78.755
1229.00,78.744
1230.00,78.788
1231.00,78.814
1232.00,78.773
1233.00,78.803
1234.00,78.829
1235.00,78.818
1236.00,78.831
1237.00,78.844
1238.00,78.856
1239.00,78.859
1240.00,78.867
1241.00,78.880
1242.00,78.883
1243.00,78.876
1244.00,78.894
1245.00,78.909
1246.00,78.890
1247.00,78.903
1248.00,78.916
1249.00,78.929
1250.00,78.947
1251.00,78.950
1252.00,78.972
1253.00,78.992
1254.00,78.973
1255.00,79.010
1256.00,79.025
1257.00,79.011
1258.00,79.016
1259.00,79.038
1260.00,79.048
1261.00,79.032
1262.00,79.049
1263.00,79.081
1264.00,79.104
1265.00,79.069
1266.00,79.127
1267.00,79.132
1268.00,79.119
1269.00,79.152
1270.00,79.150
1271.00,79.155
1272.00,79.174
1273.00,79.179
1274.00,79.214
1275.00,79.201
1276.00,79.199
1277.00,79.235
1278.00,79.250
1279.00,79.227
1280.00,79.266
1281.00,79.275
1282.00,79.291
1283.00,79.291
1284.00,79.280
1285.00,79.343
1286.00,79.358
1287.00,79.344
1288.00,79.381
1289.00,79.399
1290.00,79.387
1291.00,79.405
1292.00,79.437
1293.00,79.461
1294.00,79.446
1295.00,79.459
1296.00,79.490
1297.00,79.517
1298.00,79.496
1299.00,79.532
1300.00,79.542
1301.00,79.519
1302.00,79.549
1303.00,79.567
1304.00,79.587
1305.00,79.577
1306.00,79.594
1307.00,79.643
1308.00,79.660
1309.00,79.637
1310.00,79.666
1311.00,79.709
1312.00,79.674
1313.00,79.706
1314.00,79.715
1315.00,79.736
1316.00,79.761
1317.00,79.748
1318.00,79.792
1319.00,79.794
1320.00,79.791
1321.00,79.822
1322.00,79.851
1323.00,79.824
1324.00,79.868
1325.00,79.861
1326.00,79.871
1327.00,79.885
1328.00,79.869
1329.00,79.896
1330.00,79.921
1331.00,79.884
1332.00,79.946
1333.00,79.941
1334.00,79.957
1335.00,79.992
1336.00,80.010
1337.00,80.015
1338.00,80.056
1339.00,80.037
1340.00,80.086
1341.00,80.107
1342.00,80.080
1343.00,80.142
1344.00,80.157
1345.00,80.155
1346.00,80.104
1347.00,80.255
1348.00,80.228
1349.00,80.269
1350.00,80.180
1351.00,80.247
1352.00,80.354
1353.00,79.325
1354.00,80.331
1355.00,80.455
1356.00,80.419
1357.00,80.373
1358.00,80.213
1359.00,80.188
1360.00,80.422
1361.00,80.870
1362.00,80.295
1363.00,80.028
1364.00,80.798
1365.00,80.763
1366.00,80.402
1367.00,80.760
1368.00,80.575
1369.00,80.340
1370.00,80.653
1371.00,80.784
1372.00,80.609
1373.00,80.528
1374.00,80.626
1375.00,80.486
1376.00,80.787
1377.00,80.816
1378.00,79.864
1379.00,81.186
1380.00,80.421
1381.00,81.619
1382.00,80.908
1383.00,80.577
1384.00,80.887
1385.00,80.918
1386.00,80.587
1387.00,80.911
1388.00,80.866
1389.00,80.805
1390.00,80.337
1391.00,80.824
1392.00,80.796
1393.00,80.986
1394.00,80.790
1395.00,80.996
1396.00,80.915
1397.00,80.716
1398.00,80.944
1399.00,80.985
1400.00,80.995
1401.00,80.968
1402.00,80.758
1403.00,81.077
1404.00,80.988
1405.00,81.014
1406.00,80.995
1407.00,81.038
1408.00,81.114
1409.00,81.072
1410.00,81.103
1411.00,81.066
1412.00,81.140
1413.00,81.076
1414.00,81.090
1415.00,81.156
1416.00,81.163
1417.00,81.300
1418.00,81.252
1419.00,81.215
1420.00,81.255
1421.00,81.289
1422.00,81.269
1423.00,81.341
1424.00,81.341
1425.00,81.358
1426.00,81.418
1427.00,81.381
1428.00,81.436
1429.00,81.499
1430.00,81.447
1431.00,81.494
1432.00,81.507
1433.00,81.511
1434.00,81.557
1435.00,81.546
1436.00,81.605
1437.00,81.639
1438.00,81.604
1439.00,81.683
1440.00,81.674
1441.00,81.685
1442.00,81.743
1443.00,81.769
1444.00,81.843
1445.00,82.028
1446.00,81.802
1447.00,81.831
1448.00,81.872
1449.00,81.885
1450.00,81.903
1451.00,81.923
1452.00,81.923
1453.00,81.983
1454.00,82.003
1455.00,81.987
1456.00,82.042
1457.00,82.071
1458.00,82.053
1459.00,82.105
1460.00,82.101
1461.00,82.137
1462.00,82.166
1463.00,82.133
1464.00,82.190
1465.00,82.203
1466.00,82.207
1467.00,82.267
1468.00,82.256
1469.00,82.253
1470.00,82.337
1471.00,82.321
1472.00,82.357
1473.00,82.392
1474.00,82.385
1475.00,82.383
1476.00,82.426
1477.00,82.407
1478.00,82.470
1479.00,82.449
1480.00,82.484
1481.00,82.519
1482.00,82.501
1483.00,82.556
1484.00,82.579
1485.00,82.562
1486.00,82.631
1487.00,82.645
1488.00,82.616
1489.00,82.648
1490.00,82.697
1491.00,82.685
1492.00,82.707
1493.00,82.690
1494.00,82.738
1495.00,82.762
1496.00,82.720
1497.00,82.813
1498.00,82.818
1499.00,82.812
1500.00,82.863
1501.00, 
1502.00, 
1503.00, 
1504.00, 
1505.00, 
1506.00, 
1507.00, 
1508.00, 
1509.00, 
1510.00, 
1511.00, 
1512.00, 
1513.00, 
1514.00, 
1515.00, 
1516.00, 
1517.00, 
1518.00, 
1519.00, 
1520.00, 
1521.00, 
1522.00, 
1523.00, 
1524.00, 
1525.00, 
1526.00, 
1527.00, 
1528.00, 
1529.00, 
1530.00, 
1531.00, 
1532.00, 
1533.00, 
1534.00, 
1535.00, 
1536.00, 
1537.00, 
1538.00, 
1539.00, 
1540.00, 
1541.00, 
1542.00, 
1543.00, 
1544.00, 
1545.00, 
1546.00, 
1547.00, 
1548.00, 
1549.00, 
1550.00, 
1551.00, 
1552.00, 
1553.00, 
1554.00, 
1555.00, 
1556.00, 
1557.00, 
1558.00, 
1559.00, 
1560.00, 
1561.00, 
1562.00, 
1563.00, 
1564.00, 
1565.00, 
1566.00, 
1567.00, 
1568.00, 
1569.00, 
1570.00, 
1571.00, 
1572.00, 
1573.00, 
1574.00, 
1575.00, 
1576.00, 
1577.00, 
1578.00, 
1579.00, 
1580.00, 
1581.00, 
1582.00, 
1583.00, 
1584.00, 
1585.00, 
1586.00, 
1587.00, 
1588.00, 
1589.00, 
1590.00, 
1591.00, 
1592.00, 
1593.00, 
1594.00, 
1595.00, 
1596.00, 
1597.00, 
1598.00, 
1599.00, 
1600.00, 
1601.00, 
1602.00, 
1603.00, 
1604.00, 
1605.00, 
1606.00, 
1607.00, 
1608.00, 
1609.00, 
1610.00, 
1611.00, 
1612.00, 
1613.00, 
1614.00, 
1615.00, 
1616.00, 
1617.00, 
1618.00, 
1619.00, 
1620.00, 
1621.00, 
1622.00, 
1623.00, 
1624.00, 
1625.00, 
1626.00, 
1627.00, 
1628.00, 
1629.00, 
1630.00, 
1631.00, 
1632.00, 
1633.00, 
1634.00, 
1635.00, 
1636.00, 
1637.00, 
1638.00, 
1639.00, 
1640.00, 
1641.00, 
1642.00, 
1643.00, 
1644.00, 
1645.00, 
1646.00, 
1647.00, 
1648.00, 
1649.00, 
1650.00, 
1651.00, 
1652.00, 
1653.00, 
1654.00, 
1655.00, 
1656.00, 
1657.00, 
1658.00, 
1659.00, 
1660.00, 
1661.00, 
1662.00, 
1663.00, 
1664.00, 
1665.00, 
1666.00, 
1667.00, 
1668.00, 
1669.00, 
1670.00, 
1671.00, 
1672.00, 
1673.00, 
1674.00, 
1675.00, 
1676.00, 
1677.00, 
1678.00, 
1679.00, 
1680.00, 
1681.00, 
1682.00, 
1683.00, 
1684.00, 
1685.00, 
1686.00, 
1687.00, 
1688.00, 
1689.00, 
1690.00, 
1691.00, 
1692.00, 
1693.00, 
1694.00, 
1695.00, 
1696.00, 
1697.00, 
1698.00, 
1699.00, 
1700.00, 
1701.00, 
1702.00, 
1703.00, 
1704.00, 
1705.00, 
1706.00, 
1707.00, 
1708.00, 
1709.00, 
1710.00, 
1711.00, 
1712.00, 
1713.00, 
1714.00, 
1715.00, 
1716.00, 
1717.00, 
1718.00, 
1719.00, 
1720.00, 
1721.00, 
1722.00, 
1723.00, 
1724.00, 
1725.00, 
1726.00, 
1727.00, 
1728.00, 
1729.00, 
1730.00, 
1731.00, 
1732.00, 
1733.00, 
1734.00, 
1735.00, 
1736.00, 
1737.00, 
1738.00, 
1739.00, 
1740.00, 
1741.00, 
1742.00, 
1743.00, 
1744.00, 
1745.00, 
1746.00, 
1747.00, 
1748.00, 
1749.00, 
1750.00, 
1751.00, 
1752.00, 
1753.00, 
1754.00, 
1755.00, 
1756.00, 
1757.00, 
1758.00, 
1759.00, 
1760.00, 
1761.00, 
1762.00, 
1763.00, 
1764.00, 
1765.00, 
1766.00, 
1767.00, 
1768.00, 
1769.00, 
1770.00, 
1771.00, 
1772.00, 
1773.00, 
1774.00, 
1775.00, 
1776.00, 
1777.00, 
1778.00, 
1779.00, 
1780.00, 
1781.00, 
1782.00, 
1783.00, 
1784.00, 
1785.00, 
1786.00, 
1787.00, 
1788.00, 
1789.00, 
1790.00, 
1791.00, 
1792.00, 
1793.00, 
1794.00, 
1795.00, 
1796.00, 
1797.00, 
1798.00, 
1799.00, 
1800.00, 
1801.00, 
1802.00, 
1803.00, 
1804.00, 
1805.00, 
1806.00, 
1807.00, 
1808.00, 
1809.00, 
1810.00, 
1811.00, 
1812.00, 
1813.00, 
1814.00, 
1815.00, 
1816.00, 
1817.00, 
1818.00, 
1819.00, 
1820.00, 
1821.00, 
1822.00, 
1823.00, 
1824.00, 
1825.00, 
1826.00, 
1827.00, 
1828.00, 
1829.00, 
1830.00, 
1831.00, 
1832.00, 
1833.00, 
1834.00, 
1835.00, 
1836.00, 
1837.00, 
1838.00, 
1839.00, 
1840.00, 
1841.00, 
1842.00, 
1843.00, 
1844.00, 
1845.00, 
1846.00, 
1847.00, 
1848.00, 
1849.00, 
1850.00, 
1851.00, 
1852.00, 
1853.00, 
1854.00, 
1855.00, 
1856.00, 
1857.00, 
1858.00, 
1859.00, 
1860.00, 
1861.00, 
1862.00, 
1863.00, 
1864.00, 
1865.00, 
1866.00, 
1867.00, 
1868.00, 
1869.00, 
1870.00, 
1871.00, 
1872.00, 
1873.00, 
1874.00, 
1875.00, 
1876.00, 
1877.00, 
1878.00, 
1879.00, 
1880.00, 
1881.00, 
1882.00, 
1883.00, 
1884.00, 
1885.00, 
1886.00, 
1887.00, 
1888.00, 
1889.00, 
1890.00, 
1891.00, 
1892.00, 
1893.00, 
1894.00, 
1895.00, 
1896.00, 
1897.00, 
1898.00, 
1899.00, 
1900.00, 
1901.00, 
1902.00, 
1903.00, 
1904.00, 
1905.00, 
1906.00, 
1907.00, 
1908.00, 
1909.00, 
1910.00, 
1911.00, 
1912.00, 
1913.00, 
1914.00, 
1915.00, 
1916.00, 
1917.00, 
1918.00, 
1919.00, 
1920.00, 
1921.00, 
1922.00, 
1923.00, 
1924.00, 
1925.00, 
1926.00, 
1927.00, 
1928.00, 
1929.00, 
1930.00, 
1931.00, 
1932.00, 
1933.00, 
1934.00, 
1935.00, 
1936.00, 
1937.00, 
1938.00, 
1939.00, 
1940.00, 
1941.00, 
1942.00, 
1943.00, 
1944.00, 
1945.00, 
1946.00, 
1947.00, 
1948.00, 
1949.00, 
1950.00, 
1951.00, 
1952.00, 
1953.00, 
1954.00, 
1955.00, 
1956.00, 
1957.00, 
1958.00, 
1959.00, 
1960.00, 
1961.00, 
1962.00, 
1963.00, 
1964.00, 
1965.00, 
1966.00, 
1967.00, 
1968.00, 
1969.00, 
1970.00, 
1971.00, 
1972.00, 
1973.00, 
1974.00, 
1975.00, 
1976.00, 
1977.00, 
1978.00, 
1979.00, 
1980.00, 
1981.00, 
1982.00, 
1983.00, 
1984.00, 
1985.00, 
1986.00, 
1987.00, 
1988.00, 
1989.00, 
1990.00, 
1991.00, 
1992.00, 
1993.00, 
1994.00, 
1995.00, 
1996.00, 
1997.00, 
1998.00, 
1999.00, 
2000.00, 
2001.00, 
2002.00, 
2003.00, 
2004.00, 
2005.00, 
2006.00, 
2007.00, 
2008.00, 
2009.00, 
2010.00, 
2011.00, 
2012.00, 
2013.00, 
2014.00, 
2015.00, 
2016.00, 
2017.00, 
2018.00, 
2019.00, 
2020.00, 
2021.00, 
2022.00, 
2023.00, 
2024.00, 
2025.00, 
2026.00, 
2027.00, 
2028.00, 
2029.00, 
2030.00, 
2031.00, 
2032.00, 
2033.00, 
2034.00, 
2035.00, 
2036.00, 
2037.00, 
2038.00, 
2039.00, 
2040.00, 
2041.00, 
2042.00, 
2043.00, 
2044.00, 
2045.00, 
2046.00, 
2047.00, 
2048.00, 
2049.00, 
2050.00, 
2051.00, 
2052.00, 
2053.00, 
2054.00, 
2055.00, 
2056.00, 
2057.00, 
2058.00, 
2059.00, 
2060.00, 
2061.00, 
2062.00, 
2063.00, 
2064.00, 
2065.00, 
2066.00, 
2067.00, 
2068.00, 
2069.00, 
2070.00, 
2071.00, 
2072.00, 
2073.00, 
2074.00, 
2075.00, 
2076.00, 
2077.00, 
2078.00, 
2079.00, 
2080.00, 
2081.00, 
2082.00, 
2083.00, 
2084.00, 
2085.00, 
2086.00, 
2087.00, 
2088.00, 
2089.00, 
2090.00, 
2091.00, 
2092.00, 
2093.00, 
2094.00, 
2095.00, 
2096.00, 
2097.00, 
2098.00, 
2099.00, 
2100.00, 
2101.00, 
2102.00, 
2103.00, 
2104.00, 
2105.00, 
2106.00, 
2107.00, 
2108.00, 
2109.00, 
2110.00, 
2111.00, 
2112.00, 
2113.00, 
2114.00, 
2115.00, 
2116.00, 
2117.00, 
2118.00, 
2119.00, 
2120.00, 
2121.00, 
2122.00, 
2123.00, 
2124.00, 
2125.00, 
2126.00, 
2127.00, 
2128.00, 
2129.00, 
2130.00, 
2131.00, 
2132.00, 
2133.00, 
2134.00, 
2135.00, 
2136.00, 
2137.00, 
2138.00, 
2139.00, 
2140.00, 
2141.00, 
2142.00, 
2143.00, 
2144.00, 
2145.00, 
2146.00, 
2147.00, 
2148.00, 
2149.00, 
2150.00, 
2151.00, 
2152.00, 
2153.00, 
2154.00, 
2155.00, 
2156.00, 
2157.00, 
2158.00, 
2159.00, 
2160.00, 
2161.00, 
2162.00, 
2163.00, 
2164.00, 
2165.00, 
2166.00, 
2167.00, 
2168.00, 
2169.00, 
2170.00, 
2171.00, 
2172.00, 
2173.00, 
2174.00, 
2175.00, 
2176.00, 
2177.00, 
2178.00, 
2179.00, 
2180.00, 
2181.00, 
2182.00, 
2183.00, 
2184.00, 
2185.00, 
2186.00, 
2187.00, 
2188.00, 
2189.00, 
2190.00, 
2191.00, 
2192.00, 
2193.00, 
2194.00, 
2195.00, 
2196.00, 
2197.00, 
2198.00, 
2199.00, 
2200.00, 
2201.00, 
2202.00, 
2203.00, 
2204.00, 
2205.00, 
2206.00, 
2207.00, 
2208.00, 
2209.00, 
2210.00, 
2211.00, 
2212.00, 
2213.00, 
2214.00, 
2215.00, 
2216.00, 
2217.00, 
2218.00, 
2219.00, 
2220.00, 
2221.00, 
2222.00, 
2223.00, 
2224.00, 
2225.00, 
2226.00, 
2227.00, 
2228.00, 
2229.00, 
2230.00, 
2231.00, 
2232.00, 
2233.00, 
2234.00, 
2235.00, 
2236.00, 
2237.00, 
2238.00, 
2239.00, 
2240.00, 
2241.00, 
2242.00, 
2243.00, 
2244.00, 
2245.00, 
2246.00, 
2247.00, 
2248.00, 
2249.00, 
2250.00, 
2251.00, 
2252.00, 
2253.00, 
2254.00, 
2255.00, 
2256.00, 
2257.00, 
2258.00, 
2259.00, 
2260.00, 
2261.00, 
2262.00, 
2263.00, 
2264.00, 
2265.00, 
2266.00, 
2267.00, 
2268.00, 
2269.00, 
2270.00, 
2271.00, 
2272.00, 
2273.00, 
2274.00, 
2275.00, 
2276.00, 
2277.00, 
2278.00, 
2279.00, 
2280.00, 
2281.00, 
2282.00, 
2283.00, 
2284.00, 
2285.00, 
2286.00, 
2287.00, 
2288.00, 
2289.00, 
2290.00, 
2291.00, 
2292.00, 
2293.00, 
2294.00, 
2295.00, 
2296.00, 
2297.00, 
2298.00, 
2299.00, 
2300.00, 
2301.00, 
2302.00, 
2303.00, 
2304.00, 
2305.00, 
2306.00, 
2307.00, 
2308.00, 
2309.00, 
2310.00, 
2311.00, 
2312.00, 
2313.00, 
2314.00, 
2315.00, 
2316.00, 
2317.00, 
2318.00, 
2319.00, 
2320.00, 
2321.00, 
2322.00, 
2323.00, 
2324.00, 
2325.00, 
2326.00, 
2327.00, 
2328.00, 
2329.00, 
2330.00, 
2331.00, 
2332.00, 
2333.00, 
2334.00, 
2335.00, 
2336.00, 
2337.00, 
2338.00, 
2339.00, 
2340.00, 
2341.00, 
2342.00, 
2343.00, 
2344.00, 
2345.00, 
2346.00, 
2347.00, 
2348.00, 
2349.00, 
2350.00, 
2351.00, 
2352.00, 
2353.00, 
2354.00, 
2355.00, 
2356.00, 
2357.00, 
2358.00, 
2359.00, 
2360.00, 
2361.00, 
2362.00, 
2363.00, 
2364.00, 
2365.00, 
2366.00, 
2367.00, 
2368.00, 
2369.00, 
2370.00, 
2371.00, 
2372.00, 
2373.00, 
2374.00, 
2375.00, 
2376.00, 
2377.00, 
2378.00, 
2379.00, 
2380.00, 
2381.00, 
2382.00, 
2383.00, 
2384.00, 
2385.00, 
2386.00, 
2387.00, 
2388.00, 
2389.00, 
2390.00, 
2391.00, 
2392.00, 
2393.00, 
2394.00, 
2395.00, 
2396.00, 
2397.00, 
2398.00, 
2399.00, 
2400.00, 
2401.00, 
2402.00, 
2403.00, 
2404.00, 
2405.00, 
2406.00, 
2407.00, 
2408.00, 
2409.00, 
2410.00, 
2411.00, 
2412.00, 
2413.00, 
2414.00, 
2415.00, 
2416.00, 
2417.00, 
2418.00, 
2419.00, 
2420.00, 
2421.00, 
2422.00, 
2423.00, 
2424.00, 
2425.00, 
2426.00, 
2427.00, 
2428.00, 
2429.00, 
2430.00, 
2431.00, 
2432.00, 
2433.00, 
2434.00, 
2435.00, 
2436.00, 
2437.00, 
2438.00, 
2439.00, 
2440.00, 
2441.00, 
2442.00, 
2443.00, 
2444.00, 
2445.00, 
2446.00, 
2447.00, 
2448.00, 
2449.00, 
2450.00, 
2451.00, 
2452.00, 
2453.00, 
2454.00, 
2455.00, 
2456.00, 
2457.00, 
2458.00, 
2459.00, 
2460.00, 
2461.00, 
2462.00, 
2463.00, 
2464.00, 
2465.00, 
2466.00, 
2467.00, 
2468.00, 
2469.00, 
2470.00, 
2471.00, 
2472.00, 
2473.00, 
2474.00, 
2475.00, 
2476.00, 
2477.00, 
2478.00, 
2479.00, 
2480.00, 
2481.00, 
2482.00, 
2483.00, 
2484.00, 
2485.00, 
2486.00, 
2487.00, 
2488.00, 
2489.00, 
2490.00, 
2491.00, 
2492.00, 
2493.00, 
2494.00, 
2495.00, 
2496.00, 
2497.00, 
2498.00, 
2499.00, 
2500.00, 
2501.00, 
2502.00, 
2503.00, 
2504.00, 
2505.00, 
2506.00, 
2507.00, 
2508.00, 
2509.00, 
2510.00, 
2511.00, 
2512.00, 
2513.00, 
2514.00, 
2515.00, 
2516.00, 
2517.00, 
2518.00, 
2519.00, 
2520.00, 
2521.00, 
2522.00, 
2523.00, 
2524.00, 
2525.00, 
2526.00, 
2527.00, 
2528.00, 
2529.00, 
2530.00, 
2531.00, 
2532.00, 
2533.00, 
2534.00, 
2535.00, 
2536.00, 
2537.00, 
2538.00, 
2539.00, 
2540.00, 
2541.00, 
2542.00, 
2543.00, 
2544.00, 
2545.00, 
2546.00, 
2547.00, 
2548.00, 
2549.00, 
2550.00, 
2551.00, 
2552.00, 
2553.00, 
2554.00, 
2555.00, 
2556.00, 
2557.00, 
2558.00, 
2559.00, 
2560.00, 
2561.00, 
2562.00, 
2563.00, 
2564.00, 
2565.00, 
2566.00, 
2567.00, 
2568.00, 
2569.00, 
2570.00, 
2571.00, 
2572.00, 
2573.00, 
2574.00, 
2575.00, 
2576.00, 
2577.00, 
2578.00, 
2579.00, 
2580.00, 
2581.00, 
2582.00, 
2583.00, 
2584.00, 
2585.00, 
2586.00, 
2587.00, 
2588.00, 
2589.00, 
2590.00, 
2591.00, 
2592.00, 
2593.00, 
2594.00, 
2595.00, 
2596.00, 
2597.00, 
2598.00, 
2599.00, 
2600.00, 
