"1cP2 - RawData"
"Wavelength nm.","T%"
200.00,0.003
201.00,0.005
202.00,0.002
203.00,0.004
204.00,0.000
205.00,0.000
206.00,0.001
207.00,0.001
208.00,0.003
209.00,-0.002
210.00,0.002
211.00,0.000
212.00,0.001
213.00,-0.000
214.00,-0.000
215.00,-0.000
216.00,-0.001
217.00,-0.002
218.00,0.003
219.00,0.000
220.00,-0.000
221.00,0.001
222.00,0.002
223.00,-0.001
224.00,0.001
225.00,0.001
226.00,0.000
227.00,0.001
228.00,0.001
229.00,0.002
230.00,0.002
231.00,0.001
232.00,0.003
233.00,0.002
234.00,0.002
235.00,0.001
236.00,0.001
237.00,0.001
238.00,-0.000
239.00,0.002
240.00,0.000
241.00,0.003
242.00,0.001
243.00,-0.000
244.00,-0.002
245.00,0.001
246.00,0.001
247.00,0.001
248.00,0.001
249.00,-0.001
250.00,0.002
251.00,-0.001
252.00,0.001
253.00,-0.000
254.00,-0.000
255.00,0.001
256.00,0.001
257.00,0.000
258.00,-0.001
259.00,0.001
260.00,0.000
261.00,0.000
262.00,-0.001
263.00,-0.000
264.00,0.001
265.00,-0.000
266.00,-0.001
267.00,0.002
268.00,0.000
269.00,0.000
270.00,-0.001
271.00,0.000
272.00,0.001
273.00,0.001
274.00,0.001
275.00,0.000
276.00,0.001
277.00,0.000
278.00,0.000
279.00,-0.000
280.00,0.000
281.00,0.001
282.00,0.001
283.00,0.000
284.00,-0.001
285.00,-0.000
286.00,0.001
287.00,-0.000
288.00,0.000
289.00,0.001
290.00,-0.000
291.00,0.000
292.00,0.001
293.00,-0.001
294.00,-0.000
295.00,0.002
296.00,-0.000
297.00,0.000
298.00,0.001
299.00,0.001
300.00,-0.000
301.00,0.000
302.00,0.002
303.00,0.001
304.00,0.002
305.00,0.002
306.00,0.003
307.00,0.007
308.00,0.012
309.00,0.018
310.00,0.034
311.00,0.046
312.00,0.076
313.00,0.115
314.00,0.172
315.00,0.255
316.00,0.357
317.00,0.514
318.00,0.699
319.00,0.954
320.00,1.271
321.00,1.644
322.00,2.096
323.00,2.648
324.00,3.264
325.00,3.961
326.00,4.684
327.00,5.583
328.00,6.537
329.00,7.556
330.00,8.653
331.00,9.788
332.00,10.966
333.00,12.305
334.00,13.584
335.00,14.988
336.00,16.361
337.00,17.733
338.00,19.223
339.00,20.507
340.00,21.860
341.00,23.264
342.00,24.547
343.00,25.889
344.00,27.030
345.00,28.374
346.00,29.422
347.00,30.553
348.00,31.670
349.00,32.557
350.00,33.522
351.00,34.381
352.00,35.174
353.00,36.004
354.00,36.764
355.00,37.481
356.00,38.176
357.00,38.733
358.00,39.339
359.00,40.078
360.00,40.631
361.00,41.097
362.00,41.568
363.00,42.017
364.00,42.381
365.00,42.552
366.00,42.963
367.00,43.212
368.00,43.494
369.00,43.666
370.00,43.884
371.00,43.965
372.00,44.006
373.00,44.133
374.00,44.207
375.00,44.195
376.00,44.170
377.00,44.098
378.00,43.991
379.00,43.877
380.00,43.917
381.00,44.000
382.00,44.089
383.00,44.262
384.00,44.469
385.00,44.686
386.00,44.821
387.00,45.178
388.00,45.429
389.00,45.545
390.00,45.786
391.00,45.943
392.00,46.029
393.00,46.239
394.00,46.331
395.00,46.512
396.00,46.535
397.00,46.649
398.00,46.773
399.00,46.802
400.00,46.874
401.00,46.933
402.00,46.995
403.00,46.981
404.00,47.050
405.00,47.055
406.00,47.077
407.00,47.077
408.00,47.077
409.00,46.949
410.00,46.822
411.00,46.916
412.00,46.804
413.00,46.847
414.00,46.781
415.00,46.783
416.00,46.871
417.00,46.721
418.00,46.795
419.00,46.900
420.00,46.918
421.00,46.954
422.00,46.935
423.00,47.061
424.00,47.048
425.00,46.967
426.00,47.020
427.00,47.054
428.00,47.147
429.00,47.131
430.00,47.124
431.00,47.166
432.00,47.170
433.00,47.242
434.00,47.198
435.00,47.186
436.00,47.208
437.00,47.229
438.00,47.289
439.00,47.347
440.00,47.391
441.00,47.351
442.00,47.468
443.00,47.382
444.00,47.531
445.00,47.559
446.00,47.591
447.00,47.627
448.00,47.722
449.00,47.807
450.00,47.842
451.00,47.893
452.00,47.934
453.00,48.111
454.00,48.148
455.00,48.047
456.00,48.175
457.00,48.155
458.00,48.183
459.00,48.280
460.00,48.390
461.00,48.437
462.00,48.485
463.00,48.539
464.00,48.618
465.00,48.616
466.00,48.704
467.00,48.731
468.00,48.744
469.00,48.742
470.00,48.721
471.00,48.748
472.00,48.855
473.00,48.758
474.00,48.826
475.00,48.894
476.00,48.835
477.00,48.889
478.00,48.920
479.00,49.060
480.00,49.067
481.00,49.115
482.00,49.207
483.00,49.227
484.00,49.407
485.00,49.401
486.00,49.466
487.00,49.504
488.00,49.545
489.00,49.653
490.00,49.744
491.00,49.752
492.00,49.773
493.00,49.961
494.00,50.024
495.00,50.060
496.00,50.023
497.00,49.910
498.00,50.126
499.00,50.134
500.00,50.234
501.00,50.237
502.00,50.336
503.00,50.345
504.00,50.284
505.00,50.444
506.00,50.463
507.00,50.406
508.00,50.444
509.00,50.582
510.00,50.608
511.00,50.618
512.00,50.768
513.00,50.819
514.00,50.814
515.00,50.949
516.00,50.992
517.00,50.907
518.00,51.014
519.00,51.030
520.00,50.994
521.00,51.018
522.00,50.984
523.00,50.965
524.00,50.998
525.00,51.065
526.00,51.100
527.00,51.020
528.00,51.058
529.00,51.207
530.00,51.340
531.00,51.398
532.00,51.448
533.00,51.482
534.00,51.527
535.00,51.582
536.00,51.536
537.00,51.605
538.00,51.608
539.00,51.577
540.00,51.609
541.00,51.645
542.00,51.628
543.00,51.587
544.00,51.668
545.00,51.713
546.00,51.720
547.00,51.892
548.00,51.924
549.00,51.861
550.00,51.899
551.00,52.029
552.00,52.032
553.00,51.963
554.00,52.046
555.00,52.015
556.00,52.000
557.00,52.058
558.00,52.053
559.00,52.131
560.00,52.151
561.00,52.142
562.00,52.193
563.00,52.185
564.00,52.160
565.00,52.145
566.00,52.118
567.00,52.133
568.00,52.101
569.00,52.201
570.00,52.259
571.00,52.048
572.00,52.087
573.00,52.135
574.00,52.088
575.00,52.114
576.00,52.042
577.00,52.052
578.00,52.167
579.00,52.232
580.00,52.176
581.00,52.392
582.00,52.448
583.00,52.251
584.00,52.443
585.00,52.557
586.00,52.474
587.00,52.515
588.00,52.459
589.00,52.353
590.00,52.484
591.00,52.466
592.00,52.341
593.00,52.392
594.00,52.555
595.00,52.609
596.00,52.591
597.00,52.592
598.00,52.632
599.00,52.515
600.00,52.549
601.00,52.605
602.00,52.532
603.00,52.573
604.00,52.620
605.00,52.559
606.00,52.484
607.00,52.491
608.00,52.664
609.00,52.693
610.00,52.524
611.00,52.564
612.00,52.548
613.00,52.626
614.00,52.601
615.00,52.635
616.00,52.725
617.00,52.589
618.00,52.549
619.00,52.490
620.00,52.539
621.00,52.593
622.00,52.544
623.00,52.571
624.00,52.612
625.00,52.517
626.00,52.647
627.00,52.622
628.00,52.504
629.00,52.350
630.00,52.426
631.00,52.557
632.00,52.551
633.00,52.577
634.00,52.626
635.00,52.709
636.00,52.646
637.00,52.590
638.00,52.574
639.00,52.616
640.00,52.504
641.00,52.528
642.00,52.596
643.00,52.511
644.00,52.533
645.00,52.525
646.00,52.640
647.00,52.602
648.00,52.633
649.00,52.493
650.00,52.364
651.00,52.527
652.00,52.537
653.00,52.354
654.00,52.349
655.00,52.498
656.00,52.748
657.00,52.382
658.00,52.493
659.00,52.610
660.00,52.612
661.00,52.418
662.00,52.337
663.00,52.413
664.00,52.717
665.00,52.744
666.00,52.449
667.00,52.569
668.00,52.550
669.00,52.560
670.00,52.743
671.00,52.588
672.00,52.541
673.00,52.575
674.00,52.586
675.00,52.564
676.00,52.653
677.00,52.739
678.00,52.375
679.00,52.461
680.00,52.518
681.00,52.612
682.00,52.558
683.00,52.463
684.00,52.555
685.00,52.446
686.00,52.281
687.00,52.272
688.00,52.258
689.00,52.241
690.00,52.450
691.00,52.633
692.00,52.331
693.00,52.265
694.00,52.316
695.00,52.350
696.00,52.351
697.00,52.232
698.00,52.288
699.00,52.452
700.00,52.360
701.00,52.157
702.00,52.264
703.00,52.327
704.00,52.287
705.00,52.150
706.00,52.193
707.00,52.076
708.00,51.910
709.00,52.213
710.00,52.534
711.00,51.943
712.00,52.065
713.00,52.109
714.00,52.038
715.00,51.987
716.00,51.927
717.00,51.970
718.00,52.072
719.00,51.866
720.00,51.926
721.00,56.785
722.00,56.666
723.00,56.627
724.00,56.512
725.00,56.481
726.00,56.358
727.00,56.318
728.00,56.316
729.00,56.324
730.00,56.148
731.00,56.060
732.00,56.041
733.00,56.048
734.00,55.933
735.00,55.931
736.00,55.836
737.00,55.828
738.00,55.815
739.00,55.776
740.00,55.764
741.00,55.723
742.00,55.662
743.00,55.664
744.00,55.483
745.00,55.428
746.00,55.388
747.00,55.259
748.00,55.275
749.00,55.118
750.00,55.060
751.00,55.051
752.00,55.035
753.00,54.930
754.00,54.919
755.00,54.851
756.00,54.747
757.00,54.703
758.00,54.666
759.00,54.637
760.00,54.608
761.00,54.601
762.00,54.569
763.00,54.496
764.00,54.390
765.00,54.383
766.00,54.373
767.00,54.374
768.00,54.312
769.00,54.262
770.00,54.316
771.00,54.169
772.00,54.207
773.00,54.158
774.00,54.077
775.00,54.084
776.00,54.007
777.00,54.060
778.00,53.883
779.00,53.940
780.00,53.869
781.00,53.834
782.00,53.868
783.00,53.812
784.00,53.786
785.00,53.610
786.00,53.652
787.00,53.604
788.00,53.454
789.00,53.479
790.00,53.468
791.00,53.499
792.00,53.323
793.00,53.317
794.00,53.125
795.00,53.329
796.00,53.197
797.00,53.085
798.00,53.142
799.00,53.055
800.00,53.029
801.00,52.969
802.00,52.972
803.00,52.940
804.00,52.830
805.00,52.872
806.00,52.821
807.00,52.730
808.00,52.653
809.00,52.679
810.00,52.566
811.00,52.691
812.00,52.617
813.00,52.573
814.00,52.572
815.00,52.501
816.00,52.498
817.00,52.340
818.00,52.275
819.00,52.303
820.00,52.272
821.00,52.264
822.00,52.217
823.00,52.204
824.00,52.150
825.00,52.129
826.00,52.078
827.00,52.098
828.00,52.126
829.00,51.970
830.00,52.049
831.00,54.339
832.00,54.314
833.00,54.231
834.00,54.263
835.00,54.259
836.00,54.132
837.00,54.112
838.00,54.109
839.00,54.101
840.00,54.010
841.00,54.016
842.00,53.942
843.00,53.956
844.00,53.922
845.00,53.851
846.00,53.861
847.00,53.791
848.00,53.806
849.00,53.751
850.00,53.675
851.00,53.598
852.00,53.612
853.00,53.525
854.00,53.527
855.00,53.463
856.00,53.456
857.00,53.422
858.00,53.344
859.00,53.352
860.00,53.305
861.00,53.298
862.00,53.383
863.00,53.291
864.00,53.188
865.00,53.253
866.00,53.188
867.00,53.181
868.00,53.160
869.00,53.124
870.00,53.087
871.00,53.081
872.00,53.083
873.00,53.069
874.00,53.062
875.00,52.993
876.00,52.982
877.00,52.957
878.00,52.930
879.00,52.902
880.00,52.879
881.00,52.853
882.00,52.855
883.00,52.847
884.00,52.801
885.00,52.758
886.00,52.756
887.00,52.703
888.00,52.690
889.00,52.661
890.00,52.678
891.00,52.618
892.00,52.597
893.00,52.561
894.00,52.560
895.00,52.516
896.00,52.494
897.00,52.450
898.00,52.439
899.00,52.440
900.00,52.398
901.00,52.420
902.00,52.397
903.00,52.359
904.00,52.344
905.00,52.378
906.00,52.245
907.00,52.269
908.00,52.223
909.00,52.241
910.00,52.197
911.00,52.174
912.00,52.182
913.00,52.103
914.00,52.089
915.00,52.048
916.00,52.036
917.00,52.019
918.00,52.018
919.00,51.972
920.00,51.924
921.00,51.950
922.00,51.936
923.00,51.866
924.00,51.867
925.00,51.844
926.00,51.820
927.00,51.818
928.00,51.787
929.00,51.803
930.00,51.739
931.00,51.742
932.00,51.688
933.00,51.694
934.00,51.648
935.00,51.657
936.00,51.604
937.00,51.599
938.00,51.575
939.00,51.565
940.00,51.541
941.00,51.530
942.00,51.471
943.00,51.477
944.00,51.448
945.00,51.427
946.00,51.387
947.00,51.351
948.00,51.344
949.00,51.331
950.00,51.306
951.00,51.278
952.00,51.284
953.00,51.205
954.00,51.207
955.00,51.172
956.00,51.157
957.00,51.077
958.00,51.144
959.00,51.089
960.00,51.083
961.00,51.049
962.00,51.086
963.00,51.024
964.00,51.004
965.00,50.996
966.00,50.993
967.00,50.966
968.00,50.959
969.00,50.983
970.00,50.945
971.00,50.966
972.00,50.915
973.00,50.960
974.00,50.977
975.00,50.917
976.00,50.949
977.00,50.926
978.00,50.963
979.00,50.922
980.00,50.929
981.00,50.916
982.00,50.893
983.00,50.909
984.00,50.892
985.00,50.925
986.00,50.866
987.00,50.897
988.00,50.860
989.00,50.825
990.00,50.834
991.00,50.808
992.00,50.832
993.00,50.799
994.00,50.779
995.00,50.777
996.00,50.774
997.00,50.747
998.00,50.718
999.00,50.757
1000.00,50.688
1001.00,50.690
1002.00,50.618
1003.00,50.672
1004.00,50.655
1005.00,50.619
1006.00,50.650
1007.00,50.601
1008.00,50.602
1009.00,50.575
1010.00,50.579
1011.00,50.571
1012.00,50.543
1013.00,50.546
1014.00,50.501
1015.00,50.521
1016.00,50.470
1017.00,50.491
1018.00,50.451
1019.00,50.422
1020.00,50.439
1021.00,50.405
1022.00,50.390
1023.00,50.385
1024.00,50.368
1025.00,50.348
1026.00,50.330
1027.00,50.302
1028.00,50.313
1029.00,50.309
1030.00,50.243
1031.00,50.273
1032.00,50.238
1033.00,50.218
1034.00,50.205
1035.00,50.168
1036.00,50.134
1037.00,50.134
1038.00,50.115
1039.00,50.092
1040.00,50.081
1041.00,50.033
1042.00,50.035
1043.00,50.020
1044.00,50.038
1045.00,50.023
1046.00,50.012
1047.00,50.026
1048.00,50.040
1049.00,50.044
1050.00,50.055
1051.00,50.107
1052.00,50.079
1053.00,50.104
1054.00,50.121
1055.00,50.107
1056.00,50.132
1057.00,50.137
1058.00,50.124
1059.00,50.120
1060.00,50.120
1061.00,50.103
1062.00,50.090
1063.00,50.084
1064.00,50.081
1065.00,50.095
1066.00,50.068
1067.00,50.079
1068.00,50.094
1069.00,50.057
1070.00,50.043
1071.00,50.011
1072.00,50.051
1073.00,50.021
1074.00,50.003
1075.00,49.998
1076.00,50.012
1077.00,49.976
1078.00,49.959
1079.00,49.965
1080.00,49.967
1081.00,49.955
1082.00,49.946
1083.00,49.950
1084.00,49.941
1085.00,49.929
1086.00,49.933
1087.00,49.929
1088.00,49.893
1089.00,49.901
1090.00,49.892
1091.00,49.892
1092.00,49.885
1093.00,49.870
1094.00,49.875
1095.00,49.835
1096.00,49.815
1097.00,49.823
1098.00,49.811
1099.00,49.799
1100.00,49.832
1101.00,49.795
1102.00,49.785
1103.00,49.788
1104.00,49.765
1105.00,49.757
1106.00,49.748
1107.00,49.729
1108.00,49.733
1109.00,49.748
1110.00,49.704
1111.00,49.714
1112.00,49.699
1113.00,49.692
1114.00,49.701
1115.00,49.704
1116.00,49.694
1117.00,49.682
1118.00,49.661
1119.00,49.665
1120.00,49.657
1121.00,49.635
1122.00,49.636
1123.00,49.649
1124.00,49.615
1125.00,49.612
1126.00,49.606
1127.00,49.605
1128.00,49.604
1129.00,49.576
1130.00,49.599
1131.00,49.596
1132.00,49.584
1133.00,49.577
1134.00,49.539
1135.00,49.539
1136.00,49.566
1137.00,49.554
1138.00,49.565
1139.00,49.575
1140.00,49.529
1141.00,49.545
1142.00,49.535
1143.00,49.521
1144.00,49.519
1145.00,49.526
1146.00,49.539
1147.00,49.525
1148.00,49.507
1149.00,49.537
1150.00,49.538
1151.00,49.512
1152.00,49.501
1153.00,49.515
1154.00,49.488
1155.00,49.507
1156.00,49.505
1157.00,49.501
1158.00,49.501
1159.00,49.499
1160.00,49.499
1161.00,49.520
1162.00,49.498
1163.00,49.520
1164.00,49.519
1165.00,49.501
1166.00,49.510
1167.00,49.491
1168.00,49.507
1169.00,49.499
1170.00,49.486
1171.00,49.466
1172.00,49.463
1173.00,49.447
1174.00,49.467
1175.00,49.477
1176.00,49.467
1177.00,49.485
1178.00,49.473
1179.00,49.482
1180.00,49.487
1181.00,49.493
1182.00,49.484
1183.00,49.478
1184.00,49.470
1185.00,49.485
1186.00,49.461
1187.00,49.467
1188.00,49.477
1189.00,49.472
1190.00,49.470
1191.00,49.464
1192.00,49.477
1193.00,49.476
1194.00,49.485
1195.00,49.449
1196.00,49.489
1197.00,49.485
1198.00,49.461
1199.00,49.471
1200.00,49.479
1201.00,49.489
1202.00,49.475
1203.00,49.471
1204.00,49.469
1205.00,49.498
1206.00,49.466
1207.00,49.478
1208.00,49.467
1209.00,49.466
1210.00,49.476
1211.00,49.472
1212.00,49.484
1213.00,49.455
1214.00,49.485
1215.00,49.471
1216.00,49.476
1217.00,49.474
1218.00,49.470
1219.00,49.491
1220.00,49.463
1221.00,49.494
1222.00,49.486
1223.00,49.496
1224.00,49.499
1225.00,49.493
1226.00,49.496
1227.00,49.498
1228.00,49.504
1229.00,49.516
1230.00,49.552
1231.00,49.521
1232.00,49.555
1233.00,49.550
1234.00,49.538
1235.00,49.554
1236.00,49.559
1237.00,49.570
1238.00,49.585
1239.00,49.567
1240.00,49.574
1241.00,49.587
1242.00,49.569
1243.00,49.601
1244.00,49.565
1245.00,49.589
1246.00,49.612
1247.00,49.588
1248.00,49.590
1249.00,49.615
1250.00,49.604
1251.00,49.596
1252.00,49.613
1253.00,49.593
1254.00,49.640
1255.00,49.632
1256.00,49.595
1257.00,49.610
1258.00,49.638
1259.00,49.647
1260.00,49.670
1261.00,49.647
1262.00,49.655
1263.00,49.658
1264.00,49.649
1265.00,49.661
1266.00,49.687
1267.00,49.685
1268.00,49.713
1269.00,49.712
1270.00,49.715
1271.00,49.725
1272.00,49.698
1273.00,49.736
1274.00,49.738
1275.00,49.721
1276.00,49.740
1277.00,49.731
1278.00,49.735
1279.00,49.750
1280.00,49.732
1281.00,49.767
1282.00,49.781
1283.00,49.795
1284.00,49.782
1285.00,49.803
1286.00,49.813
1287.00,49.822
1288.00,49.807
1289.00,49.788
1290.00,49.836
1291.00,49.833
1292.00,49.835
1293.00,49.839
1294.00,49.843
1295.00,49.878
1296.00,49.866
1297.00,49.868
1298.00,49.896
1299.00,49.877
1300.00,49.883
1301.00,49.888
1302.00,49.900
1303.00,49.905
1304.00,49.904
1305.00,49.922
1306.00,49.941
1307.00,49.941
1308.00,49.936
1309.00,49.960
1310.00,49.958
1311.00,49.935
1312.00,49.954
1313.00,49.967
1314.00,49.997
1315.00,50.015
1316.00,49.990
1317.00,50.029
1318.00,50.036
1319.00,50.026
1320.00,50.045
1321.00,50.225
1322.00,50.195
1323.00,50.203
1324.00,50.184
1325.00,50.194
1326.00,50.202
1327.00,50.201
1328.00,50.224
1329.00,50.206
1330.00,50.187
1331.00,50.212
1332.00,50.210
1333.00,50.210
1334.00,50.255
1335.00,50.273
1336.00,50.274
1337.00,50.332
1338.00,50.380
1339.00,50.449
1340.00,50.512
1341.00,50.558
1342.00,50.627
1343.00,50.670
1344.00,50.694
1345.00,50.791
1346.00,50.833
1347.00,50.796
1348.00,50.848
1349.00,50.875
1350.00,50.900
1351.00,50.930
1352.00,50.912
1353.00,50.984
1354.00,50.924
1355.00,50.815
1356.00,50.945
1357.00,50.951
1358.00,51.010
1359.00,51.068
1360.00,51.065
1361.00,50.740
1362.00,50.769
1363.00,51.078
1364.00,50.994
1365.00,51.061
1366.00,51.114
1367.00,50.935
1368.00,50.969
1369.00,51.081
1370.00,50.985
1371.00,50.926
1372.00,50.994
1373.00,51.006
1374.00,51.001
1375.00,51.007
1376.00,50.974
1377.00,51.012
1378.00,51.094
1379.00,51.047
1380.00,51.015
1381.00,50.935
1382.00,50.991
1383.00,51.051
1384.00,50.951
1385.00,50.928
1386.00,51.040
1387.00,50.953
1388.00,50.853
1389.00,50.711
1390.00,51.054
1391.00,50.912
1392.00,51.070
1393.00,51.133
1394.00,51.009
1395.00,50.833
1396.00,50.879
1397.00,50.883
1398.00,51.238
1399.00,50.932
1400.00,50.922
1401.00,50.970
1402.00,51.189
1403.00,50.979
1404.00,50.999
1405.00,51.082
1406.00,51.050
1407.00,51.075
1408.00,51.034
1409.00,51.017
1410.00,51.068
1411.00,51.098
1412.00,51.149
1413.00,50.937
1414.00,51.053
1415.00,51.075
1416.00,51.143
1417.00,51.220
1418.00,51.116
1419.00,51.144
1420.00,51.182
1421.00,51.197
1422.00,51.198
1423.00,51.215
1424.00,51.201
1425.00,51.230
1426.00,51.254
1427.00,51.283
1428.00,51.266
1429.00,51.274
1430.00,51.300
1431.00,51.315
1432.00,51.323
1433.00,51.393
1434.00,51.393
1435.00,51.407
1436.00,51.459
1437.00,51.437
1438.00,51.452
1439.00,51.494
1440.00,51.494
1441.00,51.498
1442.00,51.520
1443.00,51.548
1444.00,51.635
1445.00,51.552
1446.00,51.560
1447.00,51.610
1448.00,51.645
1449.00,51.736
1450.00,51.738
1451.00,51.669
1452.00,51.698
1453.00,51.724
1454.00,51.717
1455.00,51.756
1456.00,51.774
1457.00,51.754
1458.00,51.808
1459.00,51.820
1460.00,51.840
1461.00,51.851
1462.00,51.871
1463.00,51.896
1464.00,51.905
1465.00,51.905
1466.00,51.938
1467.00,51.959
1468.00,51.998
1469.00,51.978
1470.00,52.005
1471.00,52.006
1472.00,52.023
1473.00,52.042
1474.00,52.088
1475.00,52.070
1476.00,52.079
1477.00,52.091
1478.00,52.111
1479.00,52.117
1480.00,52.126
1481.00,52.144
1482.00,52.172
1483.00,52.198
1484.00,52.199
1485.00,52.215
1486.00,52.236
1487.00,52.245
1488.00,52.297
1489.00,52.292
1490.00,52.290
1491.00,52.320
1492.00,52.339
1493.00,52.319
1494.00,52.363
1495.00,52.344
1496.00,52.375
1497.00,52.376
1498.00,52.358
1499.00,52.405
1500.00,52.415
1501.00, 
1502.00, 
1503.00, 
1504.00, 
1505.00, 
1506.00, 
1507.00, 
1508.00, 
1509.00, 
1510.00, 
1511.00, 
1512.00, 
1513.00, 
1514.00, 
1515.00, 
1516.00, 
1517.00, 
1518.00, 
1519.00, 
1520.00, 
1521.00, 
1522.00, 
1523.00, 
1524.00, 
1525.00, 
1526.00, 
1527.00, 
1528.00, 
1529.00, 
1530.00, 
1531.00, 
1532.00, 
1533.00, 
1534.00, 
1535.00, 
1536.00, 
1537.00, 
1538.00, 
1539.00, 
1540.00, 
1541.00, 
1542.00, 
1543.00, 
1544.00, 
1545.00, 
1546.00, 
1547.00, 
1548.00, 
1549.00, 
1550.00, 
1551.00, 
1552.00, 
1553.00, 
1554.00, 
1555.00, 
1556.00, 
1557.00, 
1558.00, 
1559.00, 
1560.00, 
1561.00, 
1562.00, 
1563.00, 
1564.00, 
1565.00, 
1566.00, 
1567.00, 
1568.00, 
1569.00, 
1570.00, 
1571.00, 
1572.00, 
1573.00, 
1574.00, 
1575.00, 
1576.00, 
1577.00, 
1578.00, 
1579.00, 
1580.00, 
1581.00, 
1582.00, 
1583.00, 
1584.00, 
1585.00, 
1586.00, 
1587.00, 
1588.00, 
1589.00, 
1590.00, 
1591.00, 
1592.00, 
1593.00, 
1594.00, 
1595.00, 
1596.00, 
1597.00, 
1598.00, 
1599.00, 
1600.00, 
1601.00, 
1602.00, 
1603.00, 
1604.00, 
1605.00, 
1606.00, 
1607.00, 
1608.00, 
1609.00, 
1610.00, 
1611.00, 
1612.00, 
1613.00, 
1614.00, 
1615.00, 
1616.00, 
1617.00, 
1618.00, 
1619.00, 
1620.00, 
1621.00, 
1622.00, 
1623.00, 
1624.00, 
1625.00, 
1626.00, 
1627.00, 
1628.00, 
1629.00, 
1630.00, 
1631.00, 
1632.00, 
1633.00, 
1634.00, 
1635.00, 
1636.00, 
1637.00, 
1638.00, 
1639.00, 
1640.00, 
1641.00, 
1642.00, 
1643.00, 
1644.00, 
1645.00, 
1646.00, 
1647.00, 
1648.00, 
1649.00, 
1650.00, 
1651.00, 
1652.00, 
1653.00, 
1654.00, 
1655.00, 
1656.00, 
1657.00, 
1658.00, 
1659.00, 
1660.00, 
1661.00, 
1662.00, 
1663.00, 
1664.00, 
1665.00, 
1666.00, 
1667.00, 
1668.00, 
1669.00, 
1670.00, 
1671.00, 
1672.00, 
1673.00, 
1674.00, 
1675.00, 
1676.00, 
1677.00, 
1678.00, 
1679.00, 
1680.00, 
1681.00, 
1682.00, 
1683.00, 
1684.00, 
1685.00, 
1686.00, 
1687.00, 
1688.00, 
1689.00, 
1690.00, 
1691.00, 
1692.00, 
1693.00, 
1694.00, 
1695.00, 
1696.00, 
1697.00, 
1698.00, 
1699.00, 
1700.00, 
1701.00, 
1702.00, 
1703.00, 
1704.00, 
1705.00, 
1706.00, 
1707.00, 
1708.00, 
1709.00, 
1710.00, 
1711.00, 
1712.00, 
1713.00, 
1714.00, 
1715.00, 
1716.00, 
1717.00, 
1718.00, 
1719.00, 
1720.00, 
1721.00, 
1722.00, 
1723.00, 
1724.00, 
1725.00, 
1726.00, 
1727.00, 
1728.00, 
1729.00, 
1730.00, 
1731.00, 
1732.00, 
1733.00, 
1734.00, 
1735.00, 
1736.00, 
1737.00, 
1738.00, 
1739.00, 
1740.00, 
1741.00, 
1742.00, 
1743.00, 
1744.00, 
1745.00, 
1746.00, 
1747.00, 
1748.00, 
1749.00, 
1750.00, 
1751.00, 
1752.00, 
1753.00, 
1754.00, 
1755.00, 
1756.00, 
1757.00, 
1758.00, 
1759.00, 
1760.00, 
1761.00, 
1762.00, 
1763.00, 
1764.00, 
1765.00, 
1766.00, 
1767.00, 
1768.00, 
1769.00, 
1770.00, 
1771.00, 
1772.00, 
1773.00, 
1774.00, 
1775.00, 
1776.00, 
1777.00, 
1778.00, 
1779.00, 
1780.00, 
1781.00, 
1782.00, 
1783.00, 
1784.00, 
1785.00, 
1786.00, 
1787.00, 
1788.00, 
1789.00, 
1790.00, 
1791.00, 
1792.00, 
1793.00, 
1794.00, 
1795.00, 
1796.00, 
1797.00, 
1798.00, 
1799.00, 
1800.00, 
1801.00, 
1802.00, 
1803.00, 
1804.00, 
1805.00, 
1806.00, 
1807.00, 
1808.00, 
1809.00, 
1810.00, 
1811.00, 
1812.00, 
1813.00, 
1814.00, 
1815.00, 
1816.00, 
1817.00, 
1818.00, 
1819.00, 
1820.00, 
1821.00, 
1822.00, 
1823.00, 
1824.00, 
1825.00, 
1826.00, 
1827.00, 
1828.00, 
1829.00, 
1830.00, 
1831.00, 
1832.00, 
1833.00, 
1834.00, 
1835.00, 
1836.00, 
1837.00, 
1838.00, 
1839.00, 
1840.00, 
1841.00, 
1842.00, 
1843.00, 
1844.00, 
1845.00, 
1846.00, 
1847.00, 
1848.00, 
1849.00, 
1850.00, 
1851.00, 
1852.00, 
1853.00, 
1854.00, 
1855.00, 
1856.00, 
1857.00, 
1858.00, 
1859.00, 
1860.00, 
1861.00, 
1862.00, 
1863.00, 
1864.00, 
1865.00, 
1866.00, 
1867.00, 
1868.00, 
1869.00, 
1870.00, 
1871.00, 
1872.00, 
1873.00, 
1874.00, 
1875.00, 
1876.00, 
1877.00, 
1878.00, 
1879.00, 
1880.00, 
1881.00, 
1882.00, 
1883.00, 
1884.00, 
1885.00, 
1886.00, 
1887.00, 
1888.00, 
1889.00, 
1890.00, 
1891.00, 
1892.00, 
1893.00, 
1894.00, 
1895.00, 
1896.00, 
1897.00, 
1898.00, 
1899.00, 
1900.00, 
1901.00, 
1902.00, 
1903.00, 
1904.00, 
1905.00, 
1906.00, 
1907.00, 
1908.00, 
1909.00, 
1910.00, 
1911.00, 
1912.00, 
1913.00, 
1914.00, 
1915.00, 
1916.00, 
1917.00, 
1918.00, 
1919.00, 
1920.00, 
1921.00, 
1922.00, 
1923.00, 
1924.00, 
1925.00, 
1926.00, 
1927.00, 
1928.00, 
1929.00, 
1930.00, 
1931.00, 
1932.00, 
1933.00, 
1934.00, 
1935.00, 
1936.00, 
1937.00, 
1938.00, 
1939.00, 
1940.00, 
1941.00, 
1942.00, 
1943.00, 
1944.00, 
1945.00, 
1946.00, 
1947.00, 
1948.00, 
1949.00, 
1950.00, 
1951.00, 
1952.00, 
1953.00, 
1954.00, 
1955.00, 
1956.00, 
1957.00, 
1958.00, 
1959.00, 
1960.00, 
1961.00, 
1962.00, 
1963.00, 
1964.00, 
1965.00, 
1966.00, 
1967.00, 
1968.00, 
1969.00, 
1970.00, 
1971.00, 
1972.00, 
1973.00, 
1974.00, 
1975.00, 
1976.00, 
1977.00, 
1978.00, 
1979.00, 
1980.00, 
1981.00, 
1982.00, 
1983.00, 
1984.00, 
1985.00, 
1986.00, 
1987.00, 
1988.00, 
1989.00, 
1990.00, 
1991.00, 
1992.00, 
1993.00, 
1994.00, 
1995.00, 
1996.00, 
1997.00, 
1998.00, 
1999.00, 
2000.00, 
2001.00, 
2002.00, 
2003.00, 
2004.00, 
2005.00, 
2006.00, 
2007.00, 
2008.00, 
2009.00, 
2010.00, 
2011.00, 
2012.00, 
2013.00, 
2014.00, 
2015.00, 
2016.00, 
2017.00, 
2018.00, 
2019.00, 
2020.00, 
2021.00, 
2022.00, 
2023.00, 
2024.00, 
2025.00, 
2026.00, 
2027.00, 
2028.00, 
2029.00, 
2030.00, 
2031.00, 
2032.00, 
2033.00, 
2034.00, 
2035.00, 
2036.00, 
2037.00, 
2038.00, 
2039.00, 
2040.00, 
2041.00, 
2042.00, 
2043.00, 
2044.00, 
2045.00, 
2046.00, 
2047.00, 
2048.00, 
2049.00, 
2050.00, 
2051.00, 
2052.00, 
2053.00, 
2054.00, 
2055.00, 
2056.00, 
2057.00, 
2058.00, 
2059.00, 
2060.00, 
2061.00, 
2062.00, 
2063.00, 
2064.00, 
2065.00, 
2066.00, 
2067.00, 
2068.00, 
2069.00, 
2070.00, 
2071.00, 
2072.00, 
2073.00, 
2074.00, 
2075.00, 
2076.00, 
2077.00, 
2078.00, 
2079.00, 
2080.00, 
2081.00, 
2082.00, 
2083.00, 
2084.00, 
2085.00, 
2086.00, 
2087.00, 
2088.00, 
2089.00, 
2090.00, 
2091.00, 
2092.00, 
2093.00, 
2094.00, 
2095.00, 
2096.00, 
2097.00, 
2098.00, 
2099.00, 
2100.00, 
2101.00, 
2102.00, 
2103.00, 
2104.00, 
2105.00, 
2106.00, 
2107.00, 
2108.00, 
2109.00, 
2110.00, 
2111.00, 
2112.00, 
2113.00, 
2114.00, 
2115.00, 
2116.00, 
2117.00, 
2118.00, 
2119.00, 
2120.00, 
2121.00, 
2122.00, 
2123.00, 
2124.00, 
2125.00, 
2126.00, 
2127.00, 
2128.00, 
2129.00, 
2130.00, 
2131.00, 
2132.00, 
2133.00, 
2134.00, 
2135.00, 
2136.00, 
2137.00, 
2138.00, 
2139.00, 
2140.00, 
2141.00, 
2142.00, 
2143.00, 
2144.00, 
2145.00, 
2146.00, 
2147.00, 
2148.00, 
2149.00, 
2150.00, 
2151.00, 
2152.00, 
2153.00, 
2154.00, 
2155.00, 
2156.00, 
2157.00, 
2158.00, 
2159.00, 
2160.00, 
2161.00, 
2162.00, 
2163.00, 
2164.00, 
2165.00, 
2166.00, 
2167.00, 
2168.00, 
2169.00, 
2170.00, 
2171.00, 
2172.00, 
2173.00, 
2174.00, 
2175.00, 
2176.00, 
2177.00, 
2178.00, 
2179.00, 
2180.00, 
2181.00, 
2182.00, 
2183.00, 
2184.00, 
2185.00, 
2186.00, 
2187.00, 
2188.00, 
2189.00, 
2190.00, 
2191.00, 
2192.00, 
2193.00, 
2194.00, 
2195.00, 
2196.00, 
2197.00, 
2198.00, 
2199.00, 
2200.00, 
2201.00, 
2202.00, 
2203.00, 
2204.00, 
2205.00, 
2206.00, 
2207.00, 
2208.00, 
2209.00, 
2210.00, 
2211.00, 
2212.00, 
2213.00, 
2214.00, 
2215.00, 
2216.00, 
2217.00, 
2218.00, 
2219.00, 
2220.00, 
2221.00, 
2222.00, 
2223.00, 
2224.00, 
2225.00, 
2226.00, 
2227.00, 
2228.00, 
2229.00, 
2230.00, 
2231.00, 
2232.00, 
2233.00, 
2234.00, 
2235.00, 
2236.00, 
2237.00, 
2238.00, 
2239.00, 
2240.00, 
2241.00, 
2242.00, 
2243.00, 
2244.00, 
2245.00, 
2246.00, 
2247.00, 
2248.00, 
2249.00, 
2250.00, 
2251.00, 
2252.00, 
2253.00, 
2254.00, 
2255.00, 
2256.00, 
2257.00, 
2258.00, 
2259.00, 
2260.00, 
2261.00, 
2262.00, 
2263.00, 
2264.00, 
2265.00, 
2266.00, 
2267.00, 
2268.00, 
2269.00, 
2270.00, 
2271.00, 
2272.00, 
2273.00, 
2274.00, 
2275.00, 
2276.00, 
2277.00, 
2278.00, 
2279.00, 
2280.00, 
2281.00, 
2282.00, 
2283.00, 
2284.00, 
2285.00, 
2286.00, 
2287.00, 
2288.00, 
2289.00, 
2290.00, 
2291.00, 
2292.00, 
2293.00, 
2294.00, 
2295.00, 
2296.00, 
2297.00, 
2298.00, 
2299.00, 
2300.00, 
2301.00, 
2302.00, 
2303.00, 
2304.00, 
2305.00, 
2306.00, 
2307.00, 
2308.00, 
2309.00, 
2310.00, 
2311.00, 
2312.00, 
2313.00, 
2314.00, 
2315.00, 
2316.00, 
2317.00, 
2318.00, 
2319.00, 
2320.00, 
2321.00, 
2322.00, 
2323.00, 
2324.00, 
2325.00, 
2326.00, 
2327.00, 
2328.00, 
2329.00, 
2330.00, 
2331.00, 
2332.00, 
2333.00, 
2334.00, 
2335.00, 
2336.00, 
2337.00, 
2338.00, 
2339.00, 
2340.00, 
2341.00, 
2342.00, 
2343.00, 
2344.00, 
2345.00, 
2346.00, 
2347.00, 
2348.00, 
2349.00, 
2350.00, 
2351.00, 
2352.00, 
2353.00, 
2354.00, 
2355.00, 
2356.00, 
2357.00, 
2358.00, 
2359.00, 
2360.00, 
2361.00, 
2362.00, 
2363.00, 
2364.00, 
2365.00, 
2366.00, 
2367.00, 
2368.00, 
2369.00, 
2370.00, 
2371.00, 
2372.00, 
2373.00, 
2374.00, 
2375.00, 
2376.00, 
2377.00, 
2378.00, 
2379.00, 
2380.00, 
2381.00, 
2382.00, 
2383.00, 
2384.00, 
2385.00, 
2386.00, 
2387.00, 
2388.00, 
2389.00, 
2390.00, 
2391.00, 
2392.00, 
2393.00, 
2394.00, 
2395.00, 
2396.00, 
2397.00, 
2398.00, 
2399.00, 
2400.00, 
2401.00, 
2402.00, 
2403.00, 
2404.00, 
2405.00, 
2406.00, 
2407.00, 
2408.00, 
2409.00, 
2410.00, 
2411.00, 
2412.00, 
2413.00, 
2414.00, 
2415.00, 
2416.00, 
2417.00, 
2418.00, 
2419.00, 
2420.00, 
2421.00, 
2422.00, 
2423.00, 
2424.00, 
2425.00, 
2426.00, 
2427.00, 
2428.00, 
2429.00, 
2430.00, 
2431.00, 
2432.00, 
2433.00, 
2434.00, 
2435.00, 
2436.00, 
2437.00, 
2438.00, 
2439.00, 
2440.00, 
2441.00, 
2442.00, 
2443.00, 
2444.00, 
2445.00, 
2446.00, 
2447.00, 
2448.00, 
2449.00, 
2450.00, 
2451.00, 
2452.00, 
2453.00, 
2454.00, 
2455.00, 
2456.00, 
2457.00, 
2458.00, 
2459.00, 
2460.00, 
2461.00, 
2462.00, 
2463.00, 
2464.00, 
2465.00, 
2466.00, 
2467.00, 
2468.00, 
2469.00, 
2470.00, 
2471.00, 
2472.00, 
2473.00, 
2474.00, 
2475.00, 
2476.00, 
2477.00, 
2478.00, 
2479.00, 
2480.00, 
2481.00, 
2482.00, 
2483.00, 
2484.00, 
2485.00, 
2486.00, 
2487.00, 
2488.00, 
2489.00, 
2490.00, 
2491.00, 
2492.00, 
2493.00, 
2494.00, 
2495.00, 
2496.00, 
2497.00, 
2498.00, 
2499.00, 
2500.00, 
2501.00, 
2502.00, 
2503.00, 
2504.00, 
2505.00, 
2506.00, 
2507.00, 
2508.00, 
2509.00, 
2510.00, 
2511.00, 
2512.00, 
2513.00, 
2514.00, 
2515.00, 
2516.00, 
2517.00, 
2518.00, 
2519.00, 
2520.00, 
2521.00, 
2522.00, 
2523.00, 
2524.00, 
2525.00, 
2526.00, 
2527.00, 
2528.00, 
2529.00, 
2530.00, 
2531.00, 
2532.00, 
2533.00, 
2534.00, 
2535.00, 
2536.00, 
2537.00, 
2538.00, 
2539.00, 
2540.00, 
2541.00, 
2542.00, 
2543.00, 
2544.00, 
2545.00, 
2546.00, 
2547.00, 
2548.00, 
2549.00, 
2550.00, 
2551.00, 
2552.00, 
2553.00, 
2554.00, 
2555.00, 
2556.00, 
2557.00, 
2558.00, 
2559.00, 
2560.00, 
2561.00, 
2562.00, 
2563.00, 
2564.00, 
2565.00, 
2566.00, 
2567.00, 
2568.00, 
2569.00, 
2570.00, 
2571.00, 
2572.00, 
2573.00, 
2574.00, 
2575.00, 
2576.00, 
2577.00, 
2578.00, 
2579.00, 
2580.00, 
2581.00, 
2582.00, 
2583.00, 
2584.00, 
2585.00, 
2586.00, 
2587.00, 
2588.00, 
2589.00, 
2590.00, 
2591.00, 
2592.00, 
2593.00, 
2594.00, 
2595.00, 
2596.00, 
2597.00, 
2598.00, 
2599.00, 
2600.00, 
