"2aP2 - RawData"
"Wavelength nm.","T%"
200.00,-0.000
201.00,0.001
202.00,0.005
203.00,0.001
204.00,-0.001
205.00,0.002
206.00,-0.001
207.00,-0.000
208.00,0.000
209.00,0.001
210.00,0.002
211.00,0.002
212.00,0.002
213.00,-0.001
214.00,0.003
215.00,0.002
216.00,-0.000
217.00,0.001
218.00,0.003
219.00,-0.001
220.00,0.004
221.00,0.002
222.00,-0.001
223.00,0.001
224.00,0.001
225.00,0.001
226.00,-0.001
227.00,-0.000
228.00,0.002
229.00,0.003
230.00,0.001
231.00,0.002
232.00,0.002
233.00,0.002
234.00,0.004
235.00,0.003
236.00,0.002
237.00,-0.000
238.00,0.003
239.00,0.001
240.00,0.000
241.00,0.001
242.00,0.001
243.00,0.002
244.00,0.001
245.00,0.000
246.00,0.000
247.00,0.001
248.00,0.001
249.00,0.000
250.00,0.001
251.00,0.000
252.00,0.002
253.00,0.002
254.00,0.000
255.00,0.001
256.00,0.001
257.00,0.001
258.00,-0.001
259.00,0.002
260.00,-0.000
261.00,-0.001
262.00,-0.000
263.00,0.000
264.00,0.002
265.00,-0.000
266.00,0.001
267.00,0.000
268.00,0.000
269.00,0.000
270.00,0.000
271.00,0.001
272.00,0.001
273.00,0.000
274.00,0.000
275.00,0.000
276.00,-0.001
277.00,-0.000
278.00,0.001
279.00,-0.000
280.00,0.001
281.00,0.001
282.00,0.001
283.00,0.000
284.00,0.003
285.00,0.000
286.00,0.001
287.00,0.001
288.00,-0.002
289.00,0.000
290.00,0.001
291.00,0.001
292.00,0.000
293.00,-0.000
294.00,-0.002
295.00,-0.000
296.00,0.001
297.00,-0.001
298.00,0.000
299.00,0.001
300.00,0.002
301.00,0.002
302.00,0.006
303.00,0.007
304.00,0.009
305.00,0.016
306.00,0.026
307.00,0.037
308.00,0.058
309.00,0.090
310.00,0.129
311.00,0.174
312.00,0.230
313.00,0.315
314.00,0.415
315.00,0.538
316.00,0.682
317.00,0.861
318.00,1.056
319.00,1.306
320.00,1.564
321.00,1.892
322.00,2.234
323.00,2.629
324.00,3.032
325.00,3.444
326.00,3.885
327.00,4.376
328.00,4.905
329.00,5.419
330.00,5.942
331.00,6.493
332.00,7.023
333.00,7.627
334.00,8.178
335.00,8.726
336.00,9.311
337.00,9.881
338.00,10.457
339.00,10.955
340.00,11.497
341.00,12.022
342.00,12.487
343.00,12.964
344.00,13.407
345.00,13.866
346.00,14.259
347.00,14.580
348.00,14.985
349.00,15.289
350.00,15.632
351.00,15.931
352.00,16.165
353.00,16.408
354.00,16.686
355.00,16.910
356.00,17.142
357.00,17.308
358.00,17.474
359.00,17.716
360.00,17.903
361.00,17.994
362.00,18.127
363.00,18.269
364.00,18.283
365.00,18.350
366.00,18.461
367.00,18.510
368.00,18.539
369.00,18.597
370.00,18.634
371.00,18.639
372.00,18.620
373.00,18.617
374.00,18.624
375.00,18.636
376.00,18.601
377.00,18.535
378.00,18.466
379.00,18.379
380.00,18.383
381.00,18.365
382.00,18.365
383.00,18.368
384.00,18.365
385.00,18.401
386.00,18.392
387.00,18.422
388.00,18.470
389.00,18.463
390.00,18.476
391.00,18.506
392.00,18.511
393.00,18.507
394.00,18.500
395.00,18.518
396.00,18.489
397.00,18.514
398.00,18.498
399.00,18.516
400.00,18.512
401.00,18.509
402.00,18.473
403.00,18.461
404.00,18.470
405.00,18.422
406.00,18.449
407.00,18.423
408.00,18.440
409.00,18.391
410.00,18.326
411.00,18.324
412.00,18.294
413.00,18.326
414.00,18.325
415.00,18.301
416.00,18.360
417.00,18.317
418.00,18.379
419.00,18.480
420.00,18.505
421.00,18.536
422.00,18.567
423.00,18.608
424.00,18.646
425.00,18.648
426.00,18.659
427.00,18.762
428.00,18.744
429.00,18.821
430.00,18.885
431.00,18.959
432.00,18.965
433.00,19.048
434.00,19.109
435.00,19.149
436.00,19.245
437.00,19.300
438.00,19.385
439.00,19.443
440.00,19.494
441.00,19.606
442.00,19.670
443.00,19.767
444.00,19.890
445.00,19.959
446.00,20.032
447.00,20.166
448.00,20.262
449.00,20.344
450.00,20.426
451.00,20.543
452.00,20.653
453.00,20.763
454.00,20.862
455.00,20.991
456.00,21.126
457.00,21.238
458.00,21.328
459.00,21.444
460.00,21.606
461.00,21.692
462.00,21.869
463.00,22.014
464.00,22.124
465.00,22.269
466.00,22.384
467.00,22.519
468.00,22.634
469.00,22.749
470.00,22.837
471.00,22.988
472.00,23.119
473.00,23.168
474.00,23.291
475.00,23.480
476.00,23.566
477.00,23.707
478.00,23.823
479.00,24.035
480.00,24.175
481.00,24.266
482.00,24.448
483.00,24.590
484.00,24.740
485.00,24.931
486.00,25.082
487.00,25.241
488.00,25.378
489.00,25.544
490.00,25.700
491.00,25.832
492.00,26.087
493.00,26.241
494.00,26.223
495.00,26.374
496.00,26.498
497.00,26.651
498.00,26.876
499.00,26.965
500.00,27.145
501.00,27.235
502.00,27.329
503.00,27.549
504.00,27.634
505.00,27.822
506.00,27.909
507.00,27.972
508.00,28.137
509.00,28.315
510.00,28.394
511.00,28.514
512.00,28.672
513.00,28.821
514.00,28.929
515.00,29.093
516.00,29.178
517.00,29.316
518.00,29.435
519.00,29.481
520.00,29.524
521.00,29.677
522.00,29.815
523.00,29.813
524.00,29.949
525.00,30.068
526.00,30.171
527.00,30.273
528.00,30.321
529.00,30.512
530.00,30.679
531.00,30.789
532.00,30.843
533.00,30.945
534.00,31.055
535.00,31.116
536.00,31.192
537.00,31.312
538.00,31.394
539.00,31.424
540.00,31.539
541.00,31.601
542.00,31.638
543.00,31.739
544.00,31.816
545.00,31.900
546.00,31.934
547.00,32.077
548.00,32.144
549.00,32.186
550.00,32.267
551.00,32.427
552.00,32.489
553.00,32.499
554.00,32.594
555.00,32.627
556.00,32.709
557.00,32.774
558.00,32.831
559.00,32.887
560.00,32.955
561.00,33.039
562.00,33.143
563.00,33.163
564.00,33.252
565.00,33.265
566.00,33.272
567.00,33.336
568.00,33.386
569.00,33.468
570.00,33.506
571.00,33.549
572.00,33.579
573.00,33.558
574.00,33.619
575.00,33.647
576.00,33.630
577.00,33.717
578.00,33.799
579.00,33.818
580.00,33.874
581.00,34.054
582.00,34.132
583.00,34.127
584.00,34.258
585.00,34.348
586.00,34.321
587.00,34.410
588.00,34.415
589.00,34.389
590.00,34.537
591.00,34.617
592.00,34.558
593.00,34.576
594.00,34.712
595.00,34.822
596.00,34.878
597.00,34.931
598.00,34.994
599.00,35.010
600.00,35.045
601.00,35.070
602.00,35.148
603.00,35.174
604.00,35.255
605.00,35.296
606.00,35.319
607.00,35.375
608.00,35.498
609.00,35.570
610.00,35.450
611.00,35.483
612.00,35.593
613.00,35.821
614.00,35.779
615.00,35.813
616.00,35.888
617.00,35.916
618.00,35.958
619.00,36.058
620.00,36.125
621.00,36.168
622.00,36.264
623.00,36.343
624.00,36.417
625.00,36.479
626.00,36.527
627.00,36.631
628.00,36.711
629.00,36.751
630.00,36.740
631.00,36.853
632.00,36.958
633.00,37.051
634.00,37.146
635.00,37.249
636.00,37.383
637.00,37.363
638.00,37.435
639.00,37.564
640.00,37.599
641.00,37.712
642.00,37.809
643.00,37.877
644.00,37.982
645.00,38.082
646.00,38.233
647.00,38.303
648.00,38.307
649.00,38.394
650.00,38.485
651.00,38.700
652.00,38.749
653.00,38.721
654.00,38.856
655.00,39.009
656.00,39.306
657.00,39.202
658.00,39.240
659.00,39.286
660.00,39.625
661.00,39.585
662.00,39.651
663.00,39.801
664.00,40.091
665.00,40.249
666.00,40.213
667.00,40.257
668.00,40.398
669.00,40.714
670.00,40.824
671.00,40.746
672.00,40.939
673.00,40.996
674.00,40.970
675.00,41.158
676.00,41.432
677.00,41.534
678.00,41.438
679.00,41.853
680.00,41.901
681.00,41.974
682.00,41.851
683.00,42.112
684.00,42.359
685.00,42.368
686.00,42.145
687.00,42.450
688.00,42.517
689.00,42.570
690.00,42.943
691.00,43.173
692.00,43.002
693.00,42.976
694.00,43.227
695.00,43.404
696.00,43.457
697.00,43.520
698.00,43.705
699.00,43.845
700.00,43.961
701.00,44.013
702.00,44.126
703.00,44.306
704.00,44.377
705.00,44.346
706.00,44.533
707.00,44.631
708.00,44.495
709.00,44.910
710.00,45.398
711.00,44.937
712.00,44.957
713.00,45.196
714.00,45.357
715.00,45.303
716.00,45.388
717.00,45.674
718.00,45.710
719.00,45.764
720.00,45.971
721.00,50.215
722.00,50.290
723.00,50.360
724.00,50.398
725.00,50.365
726.00,50.518
727.00,50.440
728.00,50.503
729.00,50.601
730.00,50.663
731.00,50.618
732.00,50.757
733.00,50.810
734.00,50.908
735.00,50.907
736.00,50.971
737.00,51.074
738.00,51.139
739.00,51.182
740.00,51.202
741.00,51.275
742.00,51.256
743.00,51.292
744.00,51.283
745.00,51.371
746.00,51.408
747.00,51.460
748.00,51.359
749.00,51.446
750.00,51.525
751.00,51.455
752.00,51.490
753.00,51.576
754.00,51.633
755.00,51.595
756.00,51.658
757.00,51.618
758.00,51.733
759.00,51.692
760.00,51.767
761.00,51.825
762.00,51.792
763.00,51.975
764.00,51.834
765.00,51.896
766.00,51.944
767.00,51.976
768.00,52.010
769.00,51.985
770.00,52.059
771.00,52.093
772.00,52.142
773.00,52.129
774.00,52.124
775.00,52.217
776.00,52.167
777.00,52.190
778.00,52.155
779.00,52.307
780.00,52.252
781.00,52.255
782.00,52.300
783.00,52.188
784.00,52.257
785.00,52.296
786.00,52.383
787.00,52.296
788.00,52.304
789.00,52.294
790.00,52.278
791.00,52.370
792.00,52.301
793.00,52.346
794.00,52.286
795.00,52.289
796.00,52.292
797.00,52.249
798.00,52.309
799.00,52.348
800.00,52.355
801.00,52.283
802.00,52.295
803.00,52.215
804.00,52.220
805.00,52.263
806.00,52.261
807.00,52.287
808.00,52.292
809.00,52.284
810.00,52.210
811.00,52.201
812.00,52.301
813.00,52.154
814.00,52.259
815.00,52.236
816.00,52.137
817.00,52.177
818.00,52.189
819.00,52.194
820.00,52.181
821.00,52.160
822.00,52.170
823.00,52.144
824.00,52.185
825.00,52.123
826.00,52.102
827.00,52.238
828.00,52.137
829.00,52.119
830.00,52.123
831.00,54.299
832.00,54.307
833.00,54.262
834.00,54.313
835.00,54.273
836.00,54.217
837.00,54.263
838.00,54.241
839.00,54.240
840.00,54.157
841.00,54.213
842.00,54.180
843.00,54.198
844.00,54.173
845.00,54.126
846.00,54.147
847.00,54.110
848.00,54.148
849.00,54.033
850.00,54.037
851.00,53.969
852.00,54.037
853.00,53.918
854.00,53.924
855.00,53.869
856.00,53.914
857.00,53.858
858.00,53.839
859.00,53.805
860.00,53.825
861.00,53.829
862.00,53.773
863.00,53.821
864.00,53.741
865.00,53.785
866.00,53.770
867.00,53.738
868.00,53.732
869.00,53.725
870.00,53.735
871.00,53.726
872.00,53.689
873.00,53.761
874.00,53.754
875.00,53.549
876.00,53.726
877.00,53.671
878.00,53.688
879.00,53.638
880.00,53.654
881.00,53.596
882.00,53.673
883.00,53.598
884.00,53.552
885.00,53.556
886.00,53.542
887.00,53.528
888.00,53.520
889.00,53.500
890.00,53.490
891.00,53.457
892.00,53.445
893.00,53.416
894.00,53.434
895.00,53.388
896.00,53.373
897.00,53.374
898.00,53.348
899.00,53.308
900.00,53.313
901.00,53.249
902.00,53.298
903.00,53.346
904.00,53.274
905.00,53.266
906.00,53.254
907.00,53.213
908.00,53.174
909.00,53.189
910.00,53.155
911.00,53.167
912.00,53.153
913.00,53.097
914.00,53.106
915.00,53.079
916.00,53.043
917.00,53.036
918.00,53.051
919.00,52.997
920.00,52.979
921.00,53.004
922.00,53.002
923.00,52.931
924.00,52.933
925.00,52.872
926.00,52.974
927.00,52.843
928.00,52.832
929.00,52.828
930.00,52.940
931.00,52.784
932.00,52.765
933.00,52.764
934.00,52.756
935.00,52.735
936.00,52.716
937.00,52.712
938.00,52.698
939.00,52.686
940.00,52.664
941.00,52.648
942.00,52.637
943.00,52.607
944.00,52.523
945.00,52.567
946.00,52.544
947.00,52.518
948.00,52.512
949.00,52.490
950.00,52.493
951.00,52.466
952.00,52.422
953.00,52.399
954.00,52.392
955.00,52.331
956.00,52.335
957.00,52.300
958.00,52.293
959.00,52.221
960.00,52.238
961.00,52.247
962.00,52.242
963.00,52.185
964.00,52.193
965.00,52.194
966.00,52.163
967.00,52.179
968.00,52.138
969.00,52.178
970.00,52.140
971.00,52.128
972.00,52.109
973.00,52.145
974.00,52.170
975.00,52.132
976.00,52.144
977.00,52.120
978.00,52.176
979.00,52.126
980.00,52.139
981.00,52.160
982.00,52.109
983.00,52.143
984.00,52.109
985.00,52.136
986.00,52.101
987.00,52.125
988.00,52.082
989.00,52.075
990.00,52.046
991.00,52.103
992.00,52.062
993.00,52.011
994.00,52.020
995.00,52.013
996.00,51.968
997.00,51.976
998.00,51.959
999.00,51.967
1000.00,51.928
1001.00,51.925
1002.00,51.909
1003.00,51.918
1004.00,51.878
1005.00,51.860
1006.00,51.953
1007.00,51.856
1008.00,51.844
1009.00,51.832
1010.00,51.816
1011.00,51.818
1012.00,51.775
1013.00,51.771
1014.00,51.737
1015.00,51.743
1016.00,51.718
1017.00,51.714
1018.00,51.730
1019.00,51.682
1020.00,51.722
1021.00,51.633
1022.00,51.650
1023.00,51.582
1024.00,51.602
1025.00,51.577
1026.00,51.558
1027.00,51.537
1028.00,51.539
1029.00,51.528
1030.00,51.486
1031.00,51.506
1032.00,51.459
1033.00,51.486
1034.00,51.448
1035.00,51.400
1036.00,51.402
1037.00,51.365
1038.00,51.351
1039.00,51.323
1040.00,51.316
1041.00,51.284
1042.00,51.281
1043.00,51.261
1044.00,51.298
1045.00,51.269
1046.00,51.251
1047.00,51.292
1048.00,51.278
1049.00,51.292
1050.00,51.294
1051.00,51.342
1052.00,51.355
1053.00,51.329
1054.00,51.326
1055.00,51.361
1056.00,51.357
1057.00,51.358
1058.00,51.350
1059.00,51.338
1060.00,51.347
1061.00,51.335
1062.00,51.323
1063.00,51.328
1064.00,51.331
1065.00,51.300
1066.00,51.325
1067.00,51.325
1068.00,51.321
1069.00,51.274
1070.00,51.248
1071.00,51.250
1072.00,51.281
1073.00,51.235
1074.00,51.231
1075.00,51.205
1076.00,51.210
1077.00,51.197
1078.00,51.168
1079.00,51.176
1080.00,51.182
1081.00,51.163
1082.00,51.167
1083.00,51.159
1084.00,51.142
1085.00,51.141
1086.00,51.143
1087.00,51.137
1088.00,51.126
1089.00,51.119
1090.00,51.107
1091.00,51.116
1092.00,51.085
1093.00,51.078
1094.00,51.065
1095.00,51.060
1096.00,51.042
1097.00,51.043
1098.00,51.019
1099.00,51.033
1100.00,51.003
1101.00,50.997
1102.00,50.994
1103.00,50.992
1104.00,50.990
1105.00,50.972
1106.00,50.952
1107.00,50.969
1108.00,50.928
1109.00,50.929
1110.00,50.926
1111.00,50.914
1112.00,50.900
1113.00,50.932
1114.00,50.886
1115.00,50.890
1116.00,50.875
1117.00,50.848
1118.00,50.840
1119.00,50.836
1120.00,50.832
1121.00,50.825
1122.00,50.803
1123.00,50.804
1124.00,50.796
1125.00,50.796
1126.00,50.783
1127.00,50.798
1128.00,50.784
1129.00,50.760
1130.00,50.747
1131.00,50.742
1132.00,50.741
1133.00,50.727
1134.00,50.731
1135.00,50.716
1136.00,50.701
1137.00,50.713
1138.00,50.710
1139.00,50.718
1140.00,50.701
1141.00,50.699
1142.00,50.682
1143.00,50.694
1144.00,50.660
1145.00,50.675
1146.00,50.680
1147.00,50.648
1148.00,50.649
1149.00,50.671
1150.00,50.648
1151.00,50.663
1152.00,50.651
1153.00,50.646
1154.00,50.638
1155.00,50.628
1156.00,50.623
1157.00,50.646
1158.00,50.627
1159.00,50.624
1160.00,50.622
1161.00,50.616
1162.00,50.624
1163.00,50.620
1164.00,50.609
1165.00,50.618
1166.00,50.617
1167.00,50.590
1168.00,50.615
1169.00,50.591
1170.00,50.594
1171.00,50.589
1172.00,50.598
1173.00,50.592
1174.00,50.604
1175.00,50.608
1176.00,50.606
1177.00,50.570
1178.00,50.573
1179.00,50.599
1180.00,50.569
1181.00,50.596
1182.00,50.587
1183.00,50.575
1184.00,50.575
1185.00,50.572
1186.00,50.560
1187.00,50.587
1188.00,50.562
1189.00,50.575
1190.00,50.580
1191.00,50.537
1192.00,50.570
1193.00,50.564
1194.00,50.559
1195.00,50.542
1196.00,50.558
1197.00,50.556
1198.00,50.555
1199.00,50.542
1200.00,50.560
1201.00,50.588
1202.00,50.537
1203.00,50.537
1204.00,50.536
1205.00,50.548
1206.00,50.539
1207.00,50.532
1208.00,50.516
1209.00,50.529
1210.00,50.538
1211.00,50.527
1212.00,50.550
1213.00,50.500
1214.00,50.548
1215.00,50.516
1216.00,50.518
1217.00,50.527
1218.00,50.518
1219.00,50.539
1220.00,50.519
1221.00,50.531
1222.00,50.529
1223.00,50.566
1224.00,50.544
1225.00,50.535
1226.00,50.544
1227.00,50.517
1228.00,50.550
1229.00,50.531
1230.00,50.558
1231.00,50.560
1232.00,50.567
1233.00,50.575
1234.00,50.577
1235.00,50.565
1236.00,50.563
1237.00,50.575
1238.00,50.561
1239.00,50.570
1240.00,50.548
1241.00,50.563
1242.00,50.576
1243.00,50.581
1244.00,50.548
1245.00,50.581
1246.00,50.585
1247.00,50.585
1248.00,50.596
1249.00,50.616
1250.00,50.599
1251.00,50.582
1252.00,50.597
1253.00,50.593
1254.00,50.617
1255.00,50.599
1256.00,50.594
1257.00,50.574
1258.00,50.628
1259.00,50.624
1260.00,50.630
1261.00,50.645
1262.00,50.623
1263.00,50.617
1264.00,50.618
1265.00,50.624
1266.00,50.630
1267.00,50.643
1268.00,50.640
1269.00,50.644
1270.00,50.660
1271.00,50.648
1272.00,50.665
1273.00,50.673
1274.00,50.658
1275.00,50.691
1276.00,50.676
1277.00,50.679
1278.00,50.702
1279.00,50.687
1280.00,50.700
1281.00,50.725
1282.00,50.703
1283.00,50.699
1284.00,50.686
1285.00,50.687
1286.00,50.712
1287.00,50.695
1288.00,50.703
1289.00,50.718
1290.00,50.734
1291.00,50.727
1292.00,50.725
1293.00,50.726
1294.00,50.738
1295.00,50.747
1296.00,50.763
1297.00,50.762
1298.00,50.781
1299.00,50.771
1300.00,50.805
1301.00,50.778
1302.00,50.796
1303.00,50.796
1304.00,50.787
1305.00,50.832
1306.00,50.791
1307.00,50.797
1308.00,50.820
1309.00,50.822
1310.00,50.832
1311.00,50.822
1312.00,50.816
1313.00,50.838
1314.00,50.859
1315.00,50.853
1316.00,50.851
1317.00,50.880
1318.00,50.871
1319.00,50.878
1320.00,50.888
1321.00,51.047
1322.00,51.046
1323.00,51.030
1324.00,51.041
1325.00,51.016
1326.00,51.037
1327.00,51.012
1328.00,51.020
1329.00,51.023
1330.00,51.016
1331.00,51.018
1332.00,51.020
1333.00,51.025
1334.00,51.055
1335.00,51.076
1336.00,51.103
1337.00,51.148
1338.00,51.183
1339.00,51.242
1340.00,51.304
1341.00,51.370
1342.00,51.441
1343.00,51.462
1344.00,51.499
1345.00,51.577
1346.00,51.600
1347.00,51.612
1348.00,51.664
1349.00,51.651
1350.00,51.684
1351.00,51.676
1352.00,51.689
1353.00,51.704
1354.00,51.707
1355.00,51.760
1356.00,51.704
1357.00,51.714
1358.00,51.769
1359.00,51.759
1360.00,51.804
1361.00,51.746
1362.00,51.727
1363.00,51.798
1364.00,51.754
1365.00,51.737
1366.00,51.805
1367.00,51.726
1368.00,51.715
1369.00,51.765
1370.00,51.703
1371.00,51.667
1372.00,51.694
1373.00,51.725
1374.00,51.740
1375.00,51.715
1376.00,51.706
1377.00,51.680
1378.00,51.798
1379.00,51.706
1380.00,51.713
1381.00,51.764
1382.00,51.666
1383.00,51.734
1384.00,51.674
1385.00,51.703
1386.00,51.648
1387.00,51.676
1388.00,51.678
1389.00,51.744
1390.00,51.730
1391.00,51.706
1392.00,51.676
1393.00,51.678
1394.00,51.721
1395.00,51.677
1396.00,51.626
1397.00,51.676
1398.00,51.753
1399.00,51.680
1400.00,51.535
1401.00,51.702
1402.00,51.781
1403.00,51.717
1404.00,51.705
1405.00,51.741
1406.00,51.776
1407.00,51.754
1408.00,51.773
1409.00,51.731
1410.00,51.764
1411.00,51.773
1412.00,51.801
1413.00,51.819
1414.00,51.772
1415.00,51.754
1416.00,51.853
1417.00,51.872
1418.00,51.817
1419.00,51.833
1420.00,51.852
1421.00,51.910
1422.00,51.893
1423.00,51.898
1424.00,51.910
1425.00,51.932
1426.00,51.907
1427.00,51.950
1428.00,51.946
1429.00,51.944
1430.00,51.971
1431.00,51.992
1432.00,52.003
1433.00,52.018
1434.00,51.999
1435.00,52.064
1436.00,52.062
1437.00,52.053
1438.00,52.085
1439.00,52.102
1440.00,52.108
1441.00,52.126
1442.00,52.141
1443.00,52.143
1444.00,52.207
1445.00,52.155
1446.00,52.182
1447.00,52.223
1448.00,52.260
1449.00,52.263
1450.00,52.266
1451.00,52.278
1452.00,52.320
1453.00,52.296
1454.00,52.311
1455.00,52.330
1456.00,52.342
1457.00,52.332
1458.00,52.367
1459.00,52.369
1460.00,52.422
1461.00,52.438
1462.00,52.486
1463.00,52.455
1464.00,52.478
1465.00,52.482
1466.00,52.494
1467.00,52.511
1468.00,52.567
1469.00,52.526
1470.00,52.539
1471.00,52.574
1472.00,52.578
1473.00,52.576
1474.00,52.616
1475.00,52.618
1476.00,52.630
1477.00,52.612
1478.00,52.636
1479.00,52.654
1480.00,52.649
1481.00,52.660
1482.00,52.705
1483.00,52.709
1484.00,52.719
1485.00,52.726
1486.00,52.734
1487.00,52.746
1488.00,52.778
1489.00,52.748
1490.00,52.761
1491.00,52.780
1492.00,52.796
1493.00,52.805
1494.00,52.845
1495.00,52.812
1496.00,52.870
1497.00,52.851
1498.00,52.884
1499.00,52.902
1500.00,52.899
1501.00, 
1502.00, 
1503.00, 
1504.00, 
1505.00, 
1506.00, 
1507.00, 
1508.00, 
1509.00, 
1510.00, 
1511.00, 
1512.00, 
1513.00, 
1514.00, 
1515.00, 
1516.00, 
1517.00, 
1518.00, 
1519.00, 
1520.00, 
1521.00, 
1522.00, 
1523.00, 
1524.00, 
1525.00, 
1526.00, 
1527.00, 
1528.00, 
1529.00, 
1530.00, 
1531.00, 
1532.00, 
1533.00, 
1534.00, 
1535.00, 
1536.00, 
1537.00, 
1538.00, 
1539.00, 
1540.00, 
1541.00, 
1542.00, 
1543.00, 
1544.00, 
1545.00, 
1546.00, 
1547.00, 
1548.00, 
1549.00, 
1550.00, 
1551.00, 
1552.00, 
1553.00, 
1554.00, 
1555.00, 
1556.00, 
1557.00, 
1558.00, 
1559.00, 
1560.00, 
1561.00, 
1562.00, 
1563.00, 
1564.00, 
1565.00, 
1566.00, 
1567.00, 
1568.00, 
1569.00, 
1570.00, 
1571.00, 
1572.00, 
1573.00, 
1574.00, 
1575.00, 
1576.00, 
1577.00, 
1578.00, 
1579.00, 
1580.00, 
1581.00, 
1582.00, 
1583.00, 
1584.00, 
1585.00, 
1586.00, 
1587.00, 
1588.00, 
1589.00, 
1590.00, 
1591.00, 
1592.00, 
1593.00, 
1594.00, 
1595.00, 
1596.00, 
1597.00, 
1598.00, 
1599.00, 
1600.00, 
1601.00, 
1602.00, 
1603.00, 
1604.00, 
1605.00, 
1606.00, 
1607.00, 
1608.00, 
1609.00, 
1610.00, 
1611.00, 
1612.00, 
1613.00, 
1614.00, 
1615.00, 
1616.00, 
1617.00, 
1618.00, 
1619.00, 
1620.00, 
1621.00, 
1622.00, 
1623.00, 
1624.00, 
1625.00, 
1626.00, 
1627.00, 
1628.00, 
1629.00, 
1630.00, 
1631.00, 
1632.00, 
1633.00, 
1634.00, 
1635.00, 
1636.00, 
1637.00, 
1638.00, 
1639.00, 
1640.00, 
1641.00, 
1642.00, 
1643.00, 
1644.00, 
1645.00, 
1646.00, 
1647.00, 
1648.00, 
1649.00, 
1650.00, 
1651.00, 
1652.00, 
1653.00, 
1654.00, 
1655.00, 
1656.00, 
1657.00, 
1658.00, 
1659.00, 
1660.00, 
1661.00, 
1662.00, 
1663.00, 
1664.00, 
1665.00, 
1666.00, 
1667.00, 
1668.00, 
1669.00, 
1670.00, 
1671.00, 
1672.00, 
1673.00, 
1674.00, 
1675.00, 
1676.00, 
1677.00, 
1678.00, 
1679.00, 
1680.00, 
1681.00, 
1682.00, 
1683.00, 
1684.00, 
1685.00, 
1686.00, 
1687.00, 
1688.00, 
1689.00, 
1690.00, 
1691.00, 
1692.00, 
1693.00, 
1694.00, 
1695.00, 
1696.00, 
1697.00, 
1698.00, 
1699.00, 
1700.00, 
1701.00, 
1702.00, 
1703.00, 
1704.00, 
1705.00, 
1706.00, 
1707.00, 
1708.00, 
1709.00, 
1710.00, 
1711.00, 
1712.00, 
1713.00, 
1714.00, 
1715.00, 
1716.00, 
1717.00, 
1718.00, 
1719.00, 
1720.00, 
1721.00, 
1722.00, 
1723.00, 
1724.00, 
1725.00, 
1726.00, 
1727.00, 
1728.00, 
1729.00, 
1730.00, 
1731.00, 
1732.00, 
1733.00, 
1734.00, 
1735.00, 
1736.00, 
1737.00, 
1738.00, 
1739.00, 
1740.00, 
1741.00, 
1742.00, 
1743.00, 
1744.00, 
1745.00, 
1746.00, 
1747.00, 
1748.00, 
1749.00, 
1750.00, 
1751.00, 
1752.00, 
1753.00, 
1754.00, 
1755.00, 
1756.00, 
1757.00, 
1758.00, 
1759.00, 
1760.00, 
1761.00, 
1762.00, 
1763.00, 
1764.00, 
1765.00, 
1766.00, 
1767.00, 
1768.00, 
1769.00, 
1770.00, 
1771.00, 
1772.00, 
1773.00, 
1774.00, 
1775.00, 
1776.00, 
1777.00, 
1778.00, 
1779.00, 
1780.00, 
1781.00, 
1782.00, 
1783.00, 
1784.00, 
1785.00, 
1786.00, 
1787.00, 
1788.00, 
1789.00, 
1790.00, 
1791.00, 
1792.00, 
1793.00, 
1794.00, 
1795.00, 
1796.00, 
1797.00, 
1798.00, 
1799.00, 
1800.00, 
1801.00, 
1802.00, 
1803.00, 
1804.00, 
1805.00, 
1806.00, 
1807.00, 
1808.00, 
1809.00, 
1810.00, 
1811.00, 
1812.00, 
1813.00, 
1814.00, 
1815.00, 
1816.00, 
1817.00, 
1818.00, 
1819.00, 
1820.00, 
1821.00, 
1822.00, 
1823.00, 
1824.00, 
1825.00, 
1826.00, 
1827.00, 
1828.00, 
1829.00, 
1830.00, 
1831.00, 
1832.00, 
1833.00, 
1834.00, 
1835.00, 
1836.00, 
1837.00, 
1838.00, 
1839.00, 
1840.00, 
1841.00, 
1842.00, 
1843.00, 
1844.00, 
1845.00, 
1846.00, 
1847.00, 
1848.00, 
1849.00, 
1850.00, 
1851.00, 
1852.00, 
1853.00, 
1854.00, 
1855.00, 
1856.00, 
1857.00, 
1858.00, 
1859.00, 
1860.00, 
1861.00, 
1862.00, 
1863.00, 
1864.00, 
1865.00, 
1866.00, 
1867.00, 
1868.00, 
1869.00, 
1870.00, 
1871.00, 
1872.00, 
1873.00, 
1874.00, 
1875.00, 
1876.00, 
1877.00, 
1878.00, 
1879.00, 
1880.00, 
1881.00, 
1882.00, 
1883.00, 
1884.00, 
1885.00, 
1886.00, 
1887.00, 
1888.00, 
1889.00, 
1890.00, 
1891.00, 
1892.00, 
1893.00, 
1894.00, 
1895.00, 
1896.00, 
1897.00, 
1898.00, 
1899.00, 
1900.00, 
1901.00, 
1902.00, 
1903.00, 
1904.00, 
1905.00, 
1906.00, 
1907.00, 
1908.00, 
1909.00, 
1910.00, 
1911.00, 
1912.00, 
1913.00, 
1914.00, 
1915.00, 
1916.00, 
1917.00, 
1918.00, 
1919.00, 
1920.00, 
1921.00, 
1922.00, 
1923.00, 
1924.00, 
1925.00, 
1926.00, 
1927.00, 
1928.00, 
1929.00, 
1930.00, 
1931.00, 
1932.00, 
1933.00, 
1934.00, 
1935.00, 
1936.00, 
1937.00, 
1938.00, 
1939.00, 
1940.00, 
1941.00, 
1942.00, 
1943.00, 
1944.00, 
1945.00, 
1946.00, 
1947.00, 
1948.00, 
1949.00, 
1950.00, 
1951.00, 
1952.00, 
1953.00, 
1954.00, 
1955.00, 
1956.00, 
1957.00, 
1958.00, 
1959.00, 
1960.00, 
1961.00, 
1962.00, 
1963.00, 
1964.00, 
1965.00, 
1966.00, 
1967.00, 
1968.00, 
1969.00, 
1970.00, 
1971.00, 
1972.00, 
1973.00, 
1974.00, 
1975.00, 
1976.00, 
1977.00, 
1978.00, 
1979.00, 
1980.00, 
1981.00, 
1982.00, 
1983.00, 
1984.00, 
1985.00, 
1986.00, 
1987.00, 
1988.00, 
1989.00, 
1990.00, 
1991.00, 
1992.00, 
1993.00, 
1994.00, 
1995.00, 
1996.00, 
1997.00, 
1998.00, 
1999.00, 
2000.00, 
2001.00, 
2002.00, 
2003.00, 
2004.00, 
2005.00, 
2006.00, 
2007.00, 
2008.00, 
2009.00, 
2010.00, 
2011.00, 
2012.00, 
2013.00, 
2014.00, 
2015.00, 
2016.00, 
2017.00, 
2018.00, 
2019.00, 
2020.00, 
2021.00, 
2022.00, 
2023.00, 
2024.00, 
2025.00, 
2026.00, 
2027.00, 
2028.00, 
2029.00, 
2030.00, 
2031.00, 
2032.00, 
2033.00, 
2034.00, 
2035.00, 
2036.00, 
2037.00, 
2038.00, 
2039.00, 
2040.00, 
2041.00, 
2042.00, 
2043.00, 
2044.00, 
2045.00, 
2046.00, 
2047.00, 
2048.00, 
2049.00, 
2050.00, 
2051.00, 
2052.00, 
2053.00, 
2054.00, 
2055.00, 
2056.00, 
2057.00, 
2058.00, 
2059.00, 
2060.00, 
2061.00, 
2062.00, 
2063.00, 
2064.00, 
2065.00, 
2066.00, 
2067.00, 
2068.00, 
2069.00, 
2070.00, 
2071.00, 
2072.00, 
2073.00, 
2074.00, 
2075.00, 
2076.00, 
2077.00, 
2078.00, 
2079.00, 
2080.00, 
2081.00, 
2082.00, 
2083.00, 
2084.00, 
2085.00, 
2086.00, 
2087.00, 
2088.00, 
2089.00, 
2090.00, 
2091.00, 
2092.00, 
2093.00, 
2094.00, 
2095.00, 
2096.00, 
2097.00, 
2098.00, 
2099.00, 
2100.00, 
2101.00, 
2102.00, 
2103.00, 
2104.00, 
2105.00, 
2106.00, 
2107.00, 
2108.00, 
2109.00, 
2110.00, 
2111.00, 
2112.00, 
2113.00, 
2114.00, 
2115.00, 
2116.00, 
2117.00, 
2118.00, 
2119.00, 
2120.00, 
2121.00, 
2122.00, 
2123.00, 
2124.00, 
2125.00, 
2126.00, 
2127.00, 
2128.00, 
2129.00, 
2130.00, 
2131.00, 
2132.00, 
2133.00, 
2134.00, 
2135.00, 
2136.00, 
2137.00, 
2138.00, 
2139.00, 
2140.00, 
2141.00, 
2142.00, 
2143.00, 
2144.00, 
2145.00, 
2146.00, 
2147.00, 
2148.00, 
2149.00, 
2150.00, 
2151.00, 
2152.00, 
2153.00, 
2154.00, 
2155.00, 
2156.00, 
2157.00, 
2158.00, 
2159.00, 
2160.00, 
2161.00, 
2162.00, 
2163.00, 
2164.00, 
2165.00, 
2166.00, 
2167.00, 
2168.00, 
2169.00, 
2170.00, 
2171.00, 
2172.00, 
2173.00, 
2174.00, 
2175.00, 
2176.00, 
2177.00, 
2178.00, 
2179.00, 
2180.00, 
2181.00, 
2182.00, 
2183.00, 
2184.00, 
2185.00, 
2186.00, 
2187.00, 
2188.00, 
2189.00, 
2190.00, 
2191.00, 
2192.00, 
2193.00, 
2194.00, 
2195.00, 
2196.00, 
2197.00, 
2198.00, 
2199.00, 
2200.00, 
2201.00, 
2202.00, 
2203.00, 
2204.00, 
2205.00, 
2206.00, 
2207.00, 
2208.00, 
2209.00, 
2210.00, 
2211.00, 
2212.00, 
2213.00, 
2214.00, 
2215.00, 
2216.00, 
2217.00, 
2218.00, 
2219.00, 
2220.00, 
2221.00, 
2222.00, 
2223.00, 
2224.00, 
2225.00, 
2226.00, 
2227.00, 
2228.00, 
2229.00, 
2230.00, 
2231.00, 
2232.00, 
2233.00, 
2234.00, 
2235.00, 
2236.00, 
2237.00, 
2238.00, 
2239.00, 
2240.00, 
2241.00, 
2242.00, 
2243.00, 
2244.00, 
2245.00, 
2246.00, 
2247.00, 
2248.00, 
2249.00, 
2250.00, 
2251.00, 
2252.00, 
2253.00, 
2254.00, 
2255.00, 
2256.00, 
2257.00, 
2258.00, 
2259.00, 
2260.00, 
2261.00, 
2262.00, 
2263.00, 
2264.00, 
2265.00, 
2266.00, 
2267.00, 
2268.00, 
2269.00, 
2270.00, 
2271.00, 
2272.00, 
2273.00, 
2274.00, 
2275.00, 
2276.00, 
2277.00, 
2278.00, 
2279.00, 
2280.00, 
2281.00, 
2282.00, 
2283.00, 
2284.00, 
2285.00, 
2286.00, 
2287.00, 
2288.00, 
2289.00, 
2290.00, 
2291.00, 
2292.00, 
2293.00, 
2294.00, 
2295.00, 
2296.00, 
2297.00, 
2298.00, 
2299.00, 
2300.00, 
2301.00, 
2302.00, 
2303.00, 
2304.00, 
2305.00, 
2306.00, 
2307.00, 
2308.00, 
2309.00, 
2310.00, 
2311.00, 
2312.00, 
2313.00, 
2314.00, 
2315.00, 
2316.00, 
2317.00, 
2318.00, 
2319.00, 
2320.00, 
2321.00, 
2322.00, 
2323.00, 
2324.00, 
2325.00, 
2326.00, 
2327.00, 
2328.00, 
2329.00, 
2330.00, 
2331.00, 
2332.00, 
2333.00, 
2334.00, 
2335.00, 
2336.00, 
2337.00, 
2338.00, 
2339.00, 
2340.00, 
2341.00, 
2342.00, 
2343.00, 
2344.00, 
2345.00, 
2346.00, 
2347.00, 
2348.00, 
2349.00, 
2350.00, 
2351.00, 
2352.00, 
2353.00, 
2354.00, 
2355.00, 
2356.00, 
2357.00, 
2358.00, 
2359.00, 
2360.00, 
2361.00, 
2362.00, 
2363.00, 
2364.00, 
2365.00, 
2366.00, 
2367.00, 
2368.00, 
2369.00, 
2370.00, 
2371.00, 
2372.00, 
2373.00, 
2374.00, 
2375.00, 
2376.00, 
2377.00, 
2378.00, 
2379.00, 
2380.00, 
2381.00, 
2382.00, 
2383.00, 
2384.00, 
2385.00, 
2386.00, 
2387.00, 
2388.00, 
2389.00, 
2390.00, 
2391.00, 
2392.00, 
2393.00, 
2394.00, 
2395.00, 
2396.00, 
2397.00, 
2398.00, 
2399.00, 
2400.00, 
2401.00, 
2402.00, 
2403.00, 
2404.00, 
2405.00, 
2406.00, 
2407.00, 
2408.00, 
2409.00, 
2410.00, 
2411.00, 
2412.00, 
2413.00, 
2414.00, 
2415.00, 
2416.00, 
2417.00, 
2418.00, 
2419.00, 
2420.00, 
2421.00, 
2422.00, 
2423.00, 
2424.00, 
2425.00, 
2426.00, 
2427.00, 
2428.00, 
2429.00, 
2430.00, 
2431.00, 
2432.00, 
2433.00, 
2434.00, 
2435.00, 
2436.00, 
2437.00, 
2438.00, 
2439.00, 
2440.00, 
2441.00, 
2442.00, 
2443.00, 
2444.00, 
2445.00, 
2446.00, 
2447.00, 
2448.00, 
2449.00, 
2450.00, 
2451.00, 
2452.00, 
2453.00, 
2454.00, 
2455.00, 
2456.00, 
2457.00, 
2458.00, 
2459.00, 
2460.00, 
2461.00, 
2462.00, 
2463.00, 
2464.00, 
2465.00, 
2466.00, 
2467.00, 
2468.00, 
2469.00, 
2470.00, 
2471.00, 
2472.00, 
2473.00, 
2474.00, 
2475.00, 
2476.00, 
2477.00, 
2478.00, 
2479.00, 
2480.00, 
2481.00, 
2482.00, 
2483.00, 
2484.00, 
2485.00, 
2486.00, 
2487.00, 
2488.00, 
2489.00, 
2490.00, 
2491.00, 
2492.00, 
2493.00, 
2494.00, 
2495.00, 
2496.00, 
2497.00, 
2498.00, 
2499.00, 
2500.00, 
2501.00, 
2502.00, 
2503.00, 
2504.00, 
2505.00, 
2506.00, 
2507.00, 
2508.00, 
2509.00, 
2510.00, 
2511.00, 
2512.00, 
2513.00, 
2514.00, 
2515.00, 
2516.00, 
2517.00, 
2518.00, 
2519.00, 
2520.00, 
2521.00, 
2522.00, 
2523.00, 
2524.00, 
2525.00, 
2526.00, 
2527.00, 
2528.00, 
2529.00, 
2530.00, 
2531.00, 
2532.00, 
2533.00, 
2534.00, 
2535.00, 
2536.00, 
2537.00, 
2538.00, 
2539.00, 
2540.00, 
2541.00, 
2542.00, 
2543.00, 
2544.00, 
2545.00, 
2546.00, 
2547.00, 
2548.00, 
2549.00, 
2550.00, 
2551.00, 
2552.00, 
2553.00, 
2554.00, 
2555.00, 
2556.00, 
2557.00, 
2558.00, 
2559.00, 
2560.00, 
2561.00, 
2562.00, 
2563.00, 
2564.00, 
2565.00, 
2566.00, 
2567.00, 
2568.00, 
2569.00, 
2570.00, 
2571.00, 
2572.00, 
2573.00, 
2574.00, 
2575.00, 
2576.00, 
2577.00, 
2578.00, 
2579.00, 
2580.00, 
2581.00, 
2582.00, 
2583.00, 
2584.00, 
2585.00, 
2586.00, 
2587.00, 
2588.00, 
2589.00, 
2590.00, 
2591.00, 
2592.00, 
2593.00, 
2594.00, 
2595.00, 
2596.00, 
2597.00, 
2598.00, 
2599.00, 
2600.00, 
