"2bP2 - RawData"
"Wavelength nm.","T%"
200.00,0.000
201.00,0.001
202.00,0.004
203.00,0.002
204.00,0.001
205.00,0.003
206.00,-0.000
207.00,-0.004
208.00,0.003
209.00,0.001
210.00,0.001
211.00,0.002
212.00,0.001
213.00,-0.001
214.00,0.001
215.00,-0.000
216.00,0.003
217.00,0.001
218.00,0.001
219.00,-0.000
220.00,0.002
221.00,0.003
222.00,0.002
223.00,0.001
224.00,-0.000
225.00,0.000
226.00,0.000
227.00,0.001
228.00,0.001
229.00,-0.000
230.00,-0.002
231.00,0.002
232.00,0.001
233.00,-0.000
234.00,0.001
235.00,0.001
236.00,-0.000
237.00,-0.000
238.00,0.001
239.00,-0.001
240.00,0.001
241.00,0.001
242.00,0.001
243.00,0.000
244.00,0.001
245.00,0.001
246.00,0.001
247.00,-0.000
248.00,0.000
249.00,0.000
250.00,0.000
251.00,-0.000
252.00,-0.001
253.00,0.002
254.00,0.000
255.00,-0.001
256.00,0.000
257.00,-0.001
258.00,-0.002
259.00,0.003
260.00,0.002
261.00,0.000
262.00,0.001
263.00,-0.000
264.00,0.001
265.00,-0.001
266.00,-0.000
267.00,0.002
268.00,0.002
269.00,0.000
270.00,0.001
271.00,-0.000
272.00,-0.000
273.00,0.000
274.00,0.001
275.00,-0.000
276.00,0.000
277.00,-0.002
278.00,0.000
279.00,-0.000
280.00,0.001
281.00,-0.001
282.00,-0.001
283.00,0.001
284.00,-0.001
285.00,-0.001
286.00,-0.000
287.00,0.001
288.00,-0.001
289.00,-0.001
290.00,0.000
291.00,-0.000
292.00,0.000
293.00,-0.000
294.00,-0.000
295.00,0.001
296.00,-0.000
297.00,0.001
298.00,0.000
299.00,0.001
300.00,0.003
301.00,0.003
302.00,0.008
303.00,0.009
304.00,0.015
305.00,0.023
306.00,0.033
307.00,0.050
308.00,0.076
309.00,0.119
310.00,0.164
311.00,0.220
312.00,0.301
313.00,0.406
314.00,0.525
315.00,0.678
316.00,0.856
317.00,1.087
318.00,1.323
319.00,1.625
320.00,1.963
321.00,2.340
322.00,2.749
323.00,3.221
324.00,3.716
325.00,4.214
326.00,4.716
327.00,5.298
328.00,5.916
329.00,6.516
330.00,7.160
331.00,7.789
332.00,8.412
333.00,9.142
334.00,9.744
335.00,10.426
336.00,11.005
337.00,11.619
338.00,12.369
339.00,12.978
340.00,13.614
341.00,14.183
342.00,14.730
343.00,15.246
344.00,15.775
345.00,16.278
346.00,16.741
347.00,17.141
348.00,17.518
349.00,17.923
350.00,18.294
351.00,18.641
352.00,18.917
353.00,19.178
354.00,19.486
355.00,19.754
356.00,20.014
357.00,20.227
358.00,20.424
359.00,20.676
360.00,20.873
361.00,20.954
362.00,21.137
363.00,21.275
364.00,21.374
365.00,21.454
366.00,21.515
367.00,21.621
368.00,21.651
369.00,21.711
370.00,21.751
371.00,21.790
372.00,21.780
373.00,21.763
374.00,21.737
375.00,21.775
376.00,21.684
377.00,21.649
378.00,21.574
379.00,21.516
380.00,21.503
381.00,21.440
382.00,21.460
383.00,21.471
384.00,21.472
385.00,21.523
386.00,21.512
387.00,21.554
388.00,21.587
389.00,21.586
390.00,21.612
391.00,21.639
392.00,21.685
393.00,21.639
394.00,21.639
395.00,21.678
396.00,21.626
397.00,21.668
398.00,21.654
399.00,21.666
400.00,21.679
401.00,21.659
402.00,21.646
403.00,21.565
404.00,21.592
405.00,21.547
406.00,21.577
407.00,21.521
408.00,21.544
409.00,21.497
410.00,21.450
411.00,21.427
412.00,21.397
413.00,21.424
414.00,21.425
415.00,21.426
416.00,21.491
417.00,21.432
418.00,21.480
419.00,21.551
420.00,21.596
421.00,21.629
422.00,21.643
423.00,21.726
424.00,21.710
425.00,21.725
426.00,21.748
427.00,21.804
428.00,21.850
429.00,21.873
430.00,21.933
431.00,22.002
432.00,22.044
433.00,22.094
434.00,22.150
435.00,22.198
436.00,22.264
437.00,22.311
438.00,22.409
439.00,22.464
440.00,22.526
441.00,22.636
442.00,22.707
443.00,22.792
444.00,22.872
445.00,22.996
446.00,23.051
447.00,23.143
448.00,23.249
449.00,23.321
450.00,23.444
451.00,23.548
452.00,23.653
453.00,23.760
454.00,23.844
455.00,23.965
456.00,24.119
457.00,24.200
458.00,24.306
459.00,24.447
460.00,24.596
461.00,24.721
462.00,24.804
463.00,24.996
464.00,25.032
465.00,25.220
466.00,25.353
467.00,25.500
468.00,25.570
469.00,25.698
470.00,25.787
471.00,25.919
472.00,26.026
473.00,26.117
474.00,26.264
475.00,26.393
476.00,26.482
477.00,26.588
478.00,26.760
479.00,26.909
480.00,27.060
481.00,27.140
482.00,27.321
483.00,27.450
484.00,27.605
485.00,27.781
486.00,27.922
487.00,28.086
488.00,28.221
489.00,28.399
490.00,28.547
491.00,28.686
492.00,28.936
493.00,29.067
494.00,29.053
495.00,29.187
496.00,29.353
497.00,29.429
498.00,29.630
499.00,29.753
500.00,29.922
501.00,30.007
502.00,30.150
503.00,30.293
504.00,30.360
505.00,30.572
506.00,30.636
507.00,30.664
508.00,30.824
509.00,31.026
510.00,31.075
511.00,31.195
512.00,31.357
513.00,31.471
514.00,31.590
515.00,31.759
516.00,31.810
517.00,31.876
518.00,32.081
519.00,32.174
520.00,32.171
521.00,32.307
522.00,32.451
523.00,32.431
524.00,32.572
525.00,32.695
526.00,32.796
527.00,32.900
528.00,32.909
529.00,33.100
530.00,33.277
531.00,33.344
532.00,33.408
533.00,33.522
534.00,33.610
535.00,33.718
536.00,33.795
537.00,33.904
538.00,33.950
539.00,33.985
540.00,34.105
541.00,34.144
542.00,34.191
543.00,34.302
544.00,34.349
545.00,34.435
546.00,34.487
547.00,34.629
548.00,34.667
549.00,34.710
550.00,34.793
551.00,34.912
552.00,34.948
553.00,34.993
554.00,35.102
555.00,35.152
556.00,35.184
557.00,35.301
558.00,35.378
559.00,35.368
560.00,35.441
561.00,35.517
562.00,35.558
563.00,35.647
564.00,35.694
565.00,35.694
566.00,35.700
567.00,35.760
568.00,35.825
569.00,35.844
570.00,35.938
571.00,35.951
572.00,35.964
573.00,35.960
574.00,36.031
575.00,36.023
576.00,35.952
577.00,36.176
578.00,36.186
579.00,36.242
580.00,36.301
581.00,36.469
582.00,36.539
583.00,36.552
584.00,36.613
585.00,36.699
586.00,36.712
587.00,36.799
588.00,36.866
589.00,36.821
590.00,36.873
591.00,36.908
592.00,36.844
593.00,36.927
594.00,37.084
595.00,37.159
596.00,37.221
597.00,37.267
598.00,37.387
599.00,37.357
600.00,37.371
601.00,37.445
602.00,37.467
603.00,37.530
604.00,37.643
605.00,37.639
606.00,37.613
607.00,37.698
608.00,37.900
609.00,37.942
610.00,37.822
611.00,37.844
612.00,37.879
613.00,37.951
614.00,38.010
615.00,38.098
616.00,38.117
617.00,38.086
618.00,38.027
619.00,38.407
620.00,38.646
621.00,38.431
622.00,38.446
623.00,38.529
624.00,38.656
625.00,38.710
626.00,38.718
627.00,38.838
628.00,38.854
629.00,38.841
630.00,38.946
631.00,39.042
632.00,39.088
633.00,39.087
634.00,39.295
635.00,39.368
636.00,39.468
637.00,39.544
638.00,39.542
639.00,39.656
640.00,39.675
641.00,39.734
642.00,39.884
643.00,39.908
644.00,39.966
645.00,40.012
646.00,40.221
647.00,40.291
648.00,40.339
649.00,40.367
650.00,40.388
651.00,40.619
652.00,40.707
653.00,40.679
654.00,40.767
655.00,40.957
656.00,41.267
657.00,41.079
658.00,41.186
659.00,41.178
660.00,41.413
661.00,41.440
662.00,41.463
663.00,41.576
664.00,41.826
665.00,42.056
666.00,41.977
667.00,42.066
668.00,42.155
669.00,42.443
670.00,42.564
671.00,42.457
672.00,42.591
673.00,42.654
674.00,42.669
675.00,42.773
676.00,43.035
677.00,43.197
678.00,42.806
679.00,43.162
680.00,43.584
681.00,43.492
682.00,43.400
683.00,43.584
684.00,43.893
685.00,43.865
686.00,43.636
687.00,43.870
688.00,43.950
689.00,43.968
690.00,44.259
691.00,44.504
692.00,44.364
693.00,44.367
694.00,44.555
695.00,44.681
696.00,44.779
697.00,44.784
698.00,44.936
699.00,45.177
700.00,45.151
701.00,45.157
702.00,45.345
703.00,45.515
704.00,45.576
705.00,45.530
706.00,45.607
707.00,45.710
708.00,45.569
709.00,46.041
710.00,46.440
711.00,46.033
712.00,45.986
713.00,46.193
714.00,46.355
715.00,46.289
716.00,46.311
717.00,46.546
718.00,46.643
719.00,46.660
720.00,46.753
721.00,51.103
722.00,51.178
723.00,51.188
724.00,51.225
725.00,51.266
726.00,51.287
727.00,51.280
728.00,51.343
729.00,51.371
730.00,51.368
731.00,51.441
732.00,51.473
733.00,51.534
734.00,51.639
735.00,51.683
736.00,51.657
737.00,51.731
738.00,51.763
739.00,51.825
740.00,51.790
741.00,51.903
742.00,51.869
743.00,51.898
744.00,51.881
745.00,51.987
746.00,51.958
747.00,52.043
748.00,51.947
749.00,51.934
750.00,51.991
751.00,52.029
752.00,51.993
753.00,51.978
754.00,52.018
755.00,52.039
756.00,52.078
757.00,52.069
758.00,52.129
759.00,52.128
760.00,52.181
761.00,52.161
762.00,52.159
763.00,52.310
764.00,52.184
765.00,52.210
766.00,52.246
767.00,52.253
768.00,52.258
769.00,52.263
770.00,52.394
771.00,52.364
772.00,52.359
773.00,52.368
774.00,52.365
775.00,52.454
776.00,52.348
777.00,52.458
778.00,52.402
779.00,52.523
780.00,52.302
781.00,52.471
782.00,52.504
783.00,52.415
784.00,52.456
785.00,52.424
786.00,52.524
787.00,52.481
788.00,52.427
789.00,52.442
790.00,52.438
791.00,52.512
792.00,52.437
793.00,52.397
794.00,52.452
795.00,52.423
796.00,52.387
797.00,52.355
798.00,52.444
799.00,52.382
800.00,52.328
801.00,52.334
802.00,52.321
803.00,52.406
804.00,52.312
805.00,52.393
806.00,52.239
807.00,52.285
808.00,52.300
809.00,52.258
810.00,52.196
811.00,52.205
812.00,52.262
813.00,52.099
814.00,52.228
815.00,52.190
816.00,52.239
817.00,52.188
818.00,52.155
819.00,52.170
820.00,52.132
821.00,52.236
822.00,52.172
823.00,52.103
824.00,52.032
825.00,52.100
826.00,52.092
827.00,52.172
828.00,52.118
829.00,52.065
830.00,52.064
831.00,54.496
832.00,54.517
833.00,54.476
834.00,54.502
835.00,54.456
836.00,54.452
837.00,54.438
838.00,54.440
839.00,54.432
840.00,54.351
841.00,54.358
842.00,54.279
843.00,54.373
844.00,54.328
845.00,54.295
846.00,54.309
847.00,54.290
848.00,54.306
849.00,54.214
850.00,54.174
851.00,54.136
852.00,54.146
853.00,54.057
854.00,54.079
855.00,54.013
856.00,54.094
857.00,53.894
858.00,53.994
859.00,53.922
860.00,54.069
861.00,53.971
862.00,53.893
863.00,53.938
864.00,53.858
865.00,53.922
866.00,53.892
867.00,53.854
868.00,53.850
869.00,53.823
870.00,53.860
871.00,53.833
872.00,53.826
873.00,53.812
874.00,53.856
875.00,53.629
876.00,53.831
877.00,53.795
878.00,53.804
879.00,53.760
880.00,53.763
881.00,53.695
882.00,53.750
883.00,53.698
884.00,53.666
885.00,53.645
886.00,53.646
887.00,53.642
888.00,53.608
889.00,53.583
890.00,53.641
891.00,53.533
892.00,53.540
893.00,53.490
894.00,53.497
895.00,53.497
896.00,53.488
897.00,53.407
898.00,53.491
899.00,53.410
900.00,53.398
901.00,53.373
902.00,53.418
903.00,53.451
904.00,53.371
905.00,53.363
906.00,53.347
907.00,53.290
908.00,53.278
909.00,53.273
910.00,53.246
911.00,53.231
912.00,53.242
913.00,53.195
914.00,53.180
915.00,53.147
916.00,53.115
917.00,53.120
918.00,53.117
919.00,53.066
920.00,53.007
921.00,53.049
922.00,53.054
923.00,53.018
924.00,52.973
925.00,52.950
926.00,53.063
927.00,52.916
928.00,52.921
929.00,52.930
930.00,52.866
931.00,52.854
932.00,52.833
933.00,52.847
934.00,52.822
935.00,52.792
936.00,52.755
937.00,52.751
938.00,52.742
939.00,52.748
940.00,52.713
941.00,52.719
942.00,52.685
943.00,52.668
944.00,52.611
945.00,52.626
946.00,52.638
947.00,52.590
948.00,52.575
949.00,52.538
950.00,52.537
951.00,52.527
952.00,52.506
953.00,52.468
954.00,52.450
955.00,52.403
956.00,52.403
957.00,52.363
958.00,52.369
959.00,52.303
960.00,52.305
961.00,52.301
962.00,52.303
963.00,52.249
964.00,52.245
965.00,52.256
966.00,52.238
967.00,52.243
968.00,52.210
969.00,52.244
970.00,52.215
971.00,52.207
972.00,52.184
973.00,52.213
974.00,52.236
975.00,52.199
976.00,52.221
977.00,52.209
978.00,52.250
979.00,52.203
980.00,52.221
981.00,52.233
982.00,52.183
983.00,52.210
984.00,52.182
985.00,52.218
986.00,52.162
987.00,52.187
988.00,52.155
989.00,52.154
990.00,52.128
991.00,52.112
992.00,52.128
993.00,52.082
994.00,52.082
995.00,52.085
996.00,52.067
997.00,52.053
998.00,52.042
999.00,52.068
1000.00,52.016
1001.00,52.015
1002.00,51.996
1003.00,51.989
1004.00,51.964
1005.00,51.948
1006.00,51.967
1007.00,51.933
1008.00,51.922
1009.00,51.903
1010.00,51.912
1011.00,51.907
1012.00,51.876
1013.00,51.893
1014.00,51.848
1015.00,51.862
1016.00,51.823
1017.00,51.807
1018.00,51.807
1019.00,51.771
1020.00,51.758
1021.00,51.746
1022.00,51.748
1023.00,51.681
1024.00,51.701
1025.00,51.680
1026.00,51.668
1027.00,51.642
1028.00,51.635
1029.00,51.641
1030.00,51.593
1031.00,51.599
1032.00,51.560
1033.00,51.571
1034.00,51.539
1035.00,51.494
1036.00,51.474
1037.00,51.460
1038.00,51.447
1039.00,51.405
1040.00,51.413
1041.00,51.367
1042.00,51.354
1043.00,51.339
1044.00,51.357
1045.00,51.332
1046.00,51.320
1047.00,51.360
1048.00,51.361
1049.00,51.379
1050.00,51.371
1051.00,51.441
1052.00,51.447
1053.00,51.411
1054.00,51.409
1055.00,51.436
1056.00,51.451
1057.00,51.459
1058.00,51.432
1059.00,51.421
1060.00,51.433
1061.00,51.415
1062.00,51.406
1063.00,51.402
1064.00,51.405
1065.00,51.382
1066.00,51.389
1067.00,51.383
1068.00,51.404
1069.00,51.358
1070.00,51.349
1071.00,51.338
1072.00,51.353
1073.00,51.331
1074.00,51.324
1075.00,51.307
1076.00,51.309
1077.00,51.290
1078.00,51.269
1079.00,51.275
1080.00,51.281
1081.00,51.265
1082.00,51.276
1083.00,51.266
1084.00,51.257
1085.00,51.251
1086.00,51.241
1087.00,51.244
1088.00,51.215
1089.00,51.200
1090.00,51.195
1091.00,51.194
1092.00,51.165
1093.00,51.155
1094.00,51.148
1095.00,51.151
1096.00,51.127
1097.00,51.137
1098.00,51.141
1099.00,51.113
1100.00,51.086
1101.00,51.082
1102.00,51.069
1103.00,51.067
1104.00,51.058
1105.00,51.055
1106.00,51.035
1107.00,51.038
1108.00,51.024
1109.00,51.023
1110.00,51.007
1111.00,51.004
1112.00,50.991
1113.00,51.000
1114.00,50.969
1115.00,50.978
1116.00,50.964
1117.00,50.954
1118.00,50.963
1119.00,50.963
1120.00,50.955
1121.00,50.949
1122.00,50.921
1123.00,50.921
1124.00,50.902
1125.00,50.899
1126.00,50.888
1127.00,50.884
1128.00,50.886
1129.00,50.870
1130.00,50.846
1131.00,50.848
1132.00,50.850
1133.00,50.847
1134.00,50.856
1135.00,50.828
1136.00,50.818
1137.00,50.828
1138.00,50.818
1139.00,50.834
1140.00,50.817
1141.00,50.811
1142.00,50.793
1143.00,50.810
1144.00,50.769
1145.00,50.783
1146.00,50.780
1147.00,50.763
1148.00,50.776
1149.00,50.783
1150.00,50.765
1151.00,50.773
1152.00,50.751
1153.00,50.751
1154.00,50.737
1155.00,50.733
1156.00,50.739
1157.00,50.758
1158.00,50.735
1159.00,50.737
1160.00,50.727
1161.00,50.737
1162.00,50.738
1163.00,50.728
1164.00,50.727
1165.00,50.723
1166.00,50.720
1167.00,50.704
1168.00,50.721
1169.00,50.705
1170.00,50.705
1171.00,50.676
1172.00,50.694
1173.00,50.679
1174.00,50.677
1175.00,50.681
1176.00,50.684
1177.00,50.684
1178.00,50.688
1179.00,50.704
1180.00,50.677
1181.00,50.699
1182.00,50.675
1183.00,50.675
1184.00,50.672
1185.00,50.673
1186.00,50.672
1187.00,50.687
1188.00,50.672
1189.00,50.682
1190.00,50.692
1191.00,50.645
1192.00,50.665
1193.00,50.661
1194.00,50.665
1195.00,50.656
1196.00,50.684
1197.00,50.666
1198.00,50.644
1199.00,50.634
1200.00,50.645
1201.00,50.666
1202.00,50.640
1203.00,50.635
1204.00,50.631
1205.00,50.652
1206.00,50.634
1207.00,50.628
1208.00,50.622
1209.00,50.632
1210.00,50.650
1211.00,50.640
1212.00,50.646
1213.00,50.613
1214.00,50.656
1215.00,50.618
1216.00,50.638
1217.00,50.641
1218.00,50.625
1219.00,50.651
1220.00,50.617
1221.00,50.631
1222.00,50.616
1223.00,50.654
1224.00,50.639
1225.00,50.628
1226.00,50.647
1227.00,50.614
1228.00,50.643
1229.00,50.620
1230.00,50.659
1231.00,50.650
1232.00,50.664
1233.00,50.676
1234.00,50.665
1235.00,50.661
1236.00,50.649
1237.00,50.647
1238.00,50.654
1239.00,50.666
1240.00,50.640
1241.00,50.646
1242.00,50.659
1243.00,50.663
1244.00,50.640
1245.00,50.683
1246.00,50.679
1247.00,50.667
1248.00,50.661
1249.00,50.682
1250.00,50.684
1251.00,50.662
1252.00,50.676
1253.00,50.656
1254.00,50.692
1255.00,50.684
1256.00,50.687
1257.00,50.694
1258.00,50.728
1259.00,50.698
1260.00,50.727
1261.00,50.739
1262.00,50.712
1263.00,50.726
1264.00,50.724
1265.00,50.711
1266.00,50.711
1267.00,50.732
1268.00,50.738
1269.00,50.735
1270.00,50.745
1271.00,50.747
1272.00,50.763
1273.00,50.766
1274.00,50.763
1275.00,50.779
1276.00,50.758
1277.00,50.775
1278.00,50.789
1279.00,50.798
1280.00,50.809
1281.00,50.804
1282.00,50.806
1283.00,50.798
1284.00,50.801
1285.00,50.797
1286.00,50.805
1287.00,50.803
1288.00,50.810
1289.00,50.809
1290.00,50.831
1291.00,50.824
1292.00,50.824
1293.00,50.827
1294.00,50.849
1295.00,50.850
1296.00,50.858
1297.00,50.860
1298.00,50.879
1299.00,50.859
1300.00,50.873
1301.00,50.848
1302.00,50.891
1303.00,50.891
1304.00,50.896
1305.00,50.919
1306.00,50.911
1307.00,50.911
1308.00,50.915
1309.00,50.909
1310.00,50.921
1311.00,50.894
1312.00,50.908
1313.00,50.929
1314.00,50.929
1315.00,50.939
1316.00,50.933
1317.00,50.967
1318.00,50.961
1319.00,50.961
1320.00,50.974
1321.00,51.136
1322.00,51.130
1323.00,51.126
1324.00,51.096
1325.00,51.081
1326.00,51.125
1327.00,51.102
1328.00,51.087
1329.00,51.112
1330.00,51.125
1331.00,51.129
1332.00,51.123
1333.00,51.120
1334.00,51.156
1335.00,51.162
1336.00,51.190
1337.00,51.226
1338.00,51.268
1339.00,51.313
1340.00,51.381
1341.00,51.440
1342.00,51.504
1343.00,51.559
1344.00,51.600
1345.00,51.675
1346.00,51.694
1347.00,51.712
1348.00,51.770
1349.00,51.749
1350.00,51.773
1351.00,51.785
1352.00,51.794
1353.00,51.804
1354.00,51.816
1355.00,51.786
1356.00,51.812
1357.00,51.809
1358.00,51.855
1359.00,51.888
1360.00,51.867
1361.00,51.834
1362.00,51.818
1363.00,51.860
1364.00,51.841
1365.00,51.830
1366.00,51.882
1367.00,51.814
1368.00,51.808
1369.00,51.826
1370.00,51.798
1371.00,51.746
1372.00,51.770
1373.00,51.818
1374.00,51.831
1375.00,51.810
1376.00,51.801
1377.00,51.764
1378.00,51.855
1379.00,51.793
1380.00,51.803
1381.00,51.871
1382.00,51.750
1383.00,51.793
1384.00,51.746
1385.00,51.761
1386.00,51.793
1387.00,51.736
1388.00,51.730
1389.00,51.801
1390.00,51.804
1391.00,51.781
1392.00,51.791
1393.00,51.740
1394.00,51.798
1395.00,51.768
1396.00,51.699
1397.00,51.756
1398.00,51.887
1399.00,51.791
1400.00,51.707
1401.00,51.744
1402.00,51.833
1403.00,51.759
1404.00,51.761
1405.00,51.804
1406.00,51.834
1407.00,51.807
1408.00,51.813
1409.00,51.805
1410.00,51.811
1411.00,51.814
1412.00,51.863
1413.00,51.802
1414.00,51.813
1415.00,51.839
1416.00,51.872
1417.00,51.892
1418.00,51.853
1419.00,51.878
1420.00,51.900
1421.00,51.939
1422.00,51.939
1423.00,51.947
1424.00,51.945
1425.00,51.972
1426.00,51.966
1427.00,51.993
1428.00,51.986
1429.00,51.989
1430.00,52.015
1431.00,52.036
1432.00,52.050
1433.00,52.071
1434.00,52.060
1435.00,52.105
1436.00,52.124
1437.00,52.107
1438.00,52.125
1439.00,52.170
1440.00,52.159
1441.00,52.164
1442.00,52.189
1443.00,52.206
1444.00,52.322
1445.00,52.270
1446.00,52.220
1447.00,52.265
1448.00,52.287
1449.00,52.292
1450.00,52.301
1451.00,52.299
1452.00,52.338
1453.00,52.345
1454.00,52.360
1455.00,52.389
1456.00,52.403
1457.00,52.417
1458.00,52.439
1459.00,52.446
1460.00,52.480
1461.00,52.465
1462.00,52.478
1463.00,52.482
1464.00,52.495
1465.00,52.497
1466.00,52.509
1467.00,52.532
1468.00,52.587
1469.00,52.553
1470.00,52.570
1471.00,52.598
1472.00,52.610
1473.00,52.612
1474.00,52.639
1475.00,52.641
1476.00,52.656
1477.00,52.659
1478.00,52.685
1479.00,52.700
1480.00,52.696
1481.00,52.706
1482.00,52.727
1483.00,52.736
1484.00,52.748
1485.00,52.753
1486.00,52.779
1487.00,52.791
1488.00,52.828
1489.00,52.809
1490.00,52.817
1491.00,52.833
1492.00,52.839
1493.00,52.834
1494.00,52.886
1495.00,52.848
1496.00,52.882
1497.00,52.849
1498.00,52.864
1499.00,52.877
1500.00,52.895
1501.00, 
1502.00, 
1503.00, 
1504.00, 
1505.00, 
1506.00, 
1507.00, 
1508.00, 
1509.00, 
1510.00, 
1511.00, 
1512.00, 
1513.00, 
1514.00, 
1515.00, 
1516.00, 
1517.00, 
1518.00, 
1519.00, 
1520.00, 
1521.00, 
1522.00, 
1523.00, 
1524.00, 
1525.00, 
1526.00, 
1527.00, 
1528.00, 
1529.00, 
1530.00, 
1531.00, 
1532.00, 
1533.00, 
1534.00, 
1535.00, 
1536.00, 
1537.00, 
1538.00, 
1539.00, 
1540.00, 
1541.00, 
1542.00, 
1543.00, 
1544.00, 
1545.00, 
1546.00, 
1547.00, 
1548.00, 
1549.00, 
1550.00, 
1551.00, 
1552.00, 
1553.00, 
1554.00, 
1555.00, 
1556.00, 
1557.00, 
1558.00, 
1559.00, 
1560.00, 
1561.00, 
1562.00, 
1563.00, 
1564.00, 
1565.00, 
1566.00, 
1567.00, 
1568.00, 
1569.00, 
1570.00, 
1571.00, 
1572.00, 
1573.00, 
1574.00, 
1575.00, 
1576.00, 
1577.00, 
1578.00, 
1579.00, 
1580.00, 
1581.00, 
1582.00, 
1583.00, 
1584.00, 
1585.00, 
1586.00, 
1587.00, 
1588.00, 
1589.00, 
1590.00, 
1591.00, 
1592.00, 
1593.00, 
1594.00, 
1595.00, 
1596.00, 
1597.00, 
1598.00, 
1599.00, 
1600.00, 
1601.00, 
1602.00, 
1603.00, 
1604.00, 
1605.00, 
1606.00, 
1607.00, 
1608.00, 
1609.00, 
1610.00, 
1611.00, 
1612.00, 
1613.00, 
1614.00, 
1615.00, 
1616.00, 
1617.00, 
1618.00, 
1619.00, 
1620.00, 
1621.00, 
1622.00, 
1623.00, 
1624.00, 
1625.00, 
1626.00, 
1627.00, 
1628.00, 
1629.00, 
1630.00, 
1631.00, 
1632.00, 
1633.00, 
1634.00, 
1635.00, 
1636.00, 
1637.00, 
1638.00, 
1639.00, 
1640.00, 
1641.00, 
1642.00, 
1643.00, 
1644.00, 
1645.00, 
1646.00, 
1647.00, 
1648.00, 
1649.00, 
1650.00, 
1651.00, 
1652.00, 
1653.00, 
1654.00, 
1655.00, 
1656.00, 
1657.00, 
1658.00, 
1659.00, 
1660.00, 
1661.00, 
1662.00, 
1663.00, 
1664.00, 
1665.00, 
1666.00, 
1667.00, 
1668.00, 
1669.00, 
1670.00, 
1671.00, 
1672.00, 
1673.00, 
1674.00, 
1675.00, 
1676.00, 
1677.00, 
1678.00, 
1679.00, 
1680.00, 
1681.00, 
1682.00, 
1683.00, 
1684.00, 
1685.00, 
1686.00, 
1687.00, 
1688.00, 
1689.00, 
1690.00, 
1691.00, 
1692.00, 
1693.00, 
1694.00, 
1695.00, 
1696.00, 
1697.00, 
1698.00, 
1699.00, 
1700.00, 
1701.00, 
1702.00, 
1703.00, 
1704.00, 
1705.00, 
1706.00, 
1707.00, 
1708.00, 
1709.00, 
1710.00, 
1711.00, 
1712.00, 
1713.00, 
1714.00, 
1715.00, 
1716.00, 
1717.00, 
1718.00, 
1719.00, 
1720.00, 
1721.00, 
1722.00, 
1723.00, 
1724.00, 
1725.00, 
1726.00, 
1727.00, 
1728.00, 
1729.00, 
1730.00, 
1731.00, 
1732.00, 
1733.00, 
1734.00, 
1735.00, 
1736.00, 
1737.00, 
1738.00, 
1739.00, 
1740.00, 
1741.00, 
1742.00, 
1743.00, 
1744.00, 
1745.00, 
1746.00, 
1747.00, 
1748.00, 
1749.00, 
1750.00, 
1751.00, 
1752.00, 
1753.00, 
1754.00, 
1755.00, 
1756.00, 
1757.00, 
1758.00, 
1759.00, 
1760.00, 
1761.00, 
1762.00, 
1763.00, 
1764.00, 
1765.00, 
1766.00, 
1767.00, 
1768.00, 
1769.00, 
1770.00, 
1771.00, 
1772.00, 
1773.00, 
1774.00, 
1775.00, 
1776.00, 
1777.00, 
1778.00, 
1779.00, 
1780.00, 
1781.00, 
1782.00, 
1783.00, 
1784.00, 
1785.00, 
1786.00, 
1787.00, 
1788.00, 
1789.00, 
1790.00, 
1791.00, 
1792.00, 
1793.00, 
1794.00, 
1795.00, 
1796.00, 
1797.00, 
1798.00, 
1799.00, 
1800.00, 
1801.00, 
1802.00, 
1803.00, 
1804.00, 
1805.00, 
1806.00, 
1807.00, 
1808.00, 
1809.00, 
1810.00, 
1811.00, 
1812.00, 
1813.00, 
1814.00, 
1815.00, 
1816.00, 
1817.00, 
1818.00, 
1819.00, 
1820.00, 
1821.00, 
1822.00, 
1823.00, 
1824.00, 
1825.00, 
1826.00, 
1827.00, 
1828.00, 
1829.00, 
1830.00, 
1831.00, 
1832.00, 
1833.00, 
1834.00, 
1835.00, 
1836.00, 
1837.00, 
1838.00, 
1839.00, 
1840.00, 
1841.00, 
1842.00, 
1843.00, 
1844.00, 
1845.00, 
1846.00, 
1847.00, 
1848.00, 
1849.00, 
1850.00, 
1851.00, 
1852.00, 
1853.00, 
1854.00, 
1855.00, 
1856.00, 
1857.00, 
1858.00, 
1859.00, 
1860.00, 
1861.00, 
1862.00, 
1863.00, 
1864.00, 
1865.00, 
1866.00, 
1867.00, 
1868.00, 
1869.00, 
1870.00, 
1871.00, 
1872.00, 
1873.00, 
1874.00, 
1875.00, 
1876.00, 
1877.00, 
1878.00, 
1879.00, 
1880.00, 
1881.00, 
1882.00, 
1883.00, 
1884.00, 
1885.00, 
1886.00, 
1887.00, 
1888.00, 
1889.00, 
1890.00, 
1891.00, 
1892.00, 
1893.00, 
1894.00, 
1895.00, 
1896.00, 
1897.00, 
1898.00, 
1899.00, 
1900.00, 
1901.00, 
1902.00, 
1903.00, 
1904.00, 
1905.00, 
1906.00, 
1907.00, 
1908.00, 
1909.00, 
1910.00, 
1911.00, 
1912.00, 
1913.00, 
1914.00, 
1915.00, 
1916.00, 
1917.00, 
1918.00, 
1919.00, 
1920.00, 
1921.00, 
1922.00, 
1923.00, 
1924.00, 
1925.00, 
1926.00, 
1927.00, 
1928.00, 
1929.00, 
1930.00, 
1931.00, 
1932.00, 
1933.00, 
1934.00, 
1935.00, 
1936.00, 
1937.00, 
1938.00, 
1939.00, 
1940.00, 
1941.00, 
1942.00, 
1943.00, 
1944.00, 
1945.00, 
1946.00, 
1947.00, 
1948.00, 
1949.00, 
1950.00, 
1951.00, 
1952.00, 
1953.00, 
1954.00, 
1955.00, 
1956.00, 
1957.00, 
1958.00, 
1959.00, 
1960.00, 
1961.00, 
1962.00, 
1963.00, 
1964.00, 
1965.00, 
1966.00, 
1967.00, 
1968.00, 
1969.00, 
1970.00, 
1971.00, 
1972.00, 
1973.00, 
1974.00, 
1975.00, 
1976.00, 
1977.00, 
1978.00, 
1979.00, 
1980.00, 
1981.00, 
1982.00, 
1983.00, 
1984.00, 
1985.00, 
1986.00, 
1987.00, 
1988.00, 
1989.00, 
1990.00, 
1991.00, 
1992.00, 
1993.00, 
1994.00, 
1995.00, 
1996.00, 
1997.00, 
1998.00, 
1999.00, 
2000.00, 
2001.00, 
2002.00, 
2003.00, 
2004.00, 
2005.00, 
2006.00, 
2007.00, 
2008.00, 
2009.00, 
2010.00, 
2011.00, 
2012.00, 
2013.00, 
2014.00, 
2015.00, 
2016.00, 
2017.00, 
2018.00, 
2019.00, 
2020.00, 
2021.00, 
2022.00, 
2023.00, 
2024.00, 
2025.00, 
2026.00, 
2027.00, 
2028.00, 
2029.00, 
2030.00, 
2031.00, 
2032.00, 
2033.00, 
2034.00, 
2035.00, 
2036.00, 
2037.00, 
2038.00, 
2039.00, 
2040.00, 
2041.00, 
2042.00, 
2043.00, 
2044.00, 
2045.00, 
2046.00, 
2047.00, 
2048.00, 
2049.00, 
2050.00, 
2051.00, 
2052.00, 
2053.00, 
2054.00, 
2055.00, 
2056.00, 
2057.00, 
2058.00, 
2059.00, 
2060.00, 
2061.00, 
2062.00, 
2063.00, 
2064.00, 
2065.00, 
2066.00, 
2067.00, 
2068.00, 
2069.00, 
2070.00, 
2071.00, 
2072.00, 
2073.00, 
2074.00, 
2075.00, 
2076.00, 
2077.00, 
2078.00, 
2079.00, 
2080.00, 
2081.00, 
2082.00, 
2083.00, 
2084.00, 
2085.00, 
2086.00, 
2087.00, 
2088.00, 
2089.00, 
2090.00, 
2091.00, 
2092.00, 
2093.00, 
2094.00, 
2095.00, 
2096.00, 
2097.00, 
2098.00, 
2099.00, 
2100.00, 
2101.00, 
2102.00, 
2103.00, 
2104.00, 
2105.00, 
2106.00, 
2107.00, 
2108.00, 
2109.00, 
2110.00, 
2111.00, 
2112.00, 
2113.00, 
2114.00, 
2115.00, 
2116.00, 
2117.00, 
2118.00, 
2119.00, 
2120.00, 
2121.00, 
2122.00, 
2123.00, 
2124.00, 
2125.00, 
2126.00, 
2127.00, 
2128.00, 
2129.00, 
2130.00, 
2131.00, 
2132.00, 
2133.00, 
2134.00, 
2135.00, 
2136.00, 
2137.00, 
2138.00, 
2139.00, 
2140.00, 
2141.00, 
2142.00, 
2143.00, 
2144.00, 
2145.00, 
2146.00, 
2147.00, 
2148.00, 
2149.00, 
2150.00, 
2151.00, 
2152.00, 
2153.00, 
2154.00, 
2155.00, 
2156.00, 
2157.00, 
2158.00, 
2159.00, 
2160.00, 
2161.00, 
2162.00, 
2163.00, 
2164.00, 
2165.00, 
2166.00, 
2167.00, 
2168.00, 
2169.00, 
2170.00, 
2171.00, 
2172.00, 
2173.00, 
2174.00, 
2175.00, 
2176.00, 
2177.00, 
2178.00, 
2179.00, 
2180.00, 
2181.00, 
2182.00, 
2183.00, 
2184.00, 
2185.00, 
2186.00, 
2187.00, 
2188.00, 
2189.00, 
2190.00, 
2191.00, 
2192.00, 
2193.00, 
2194.00, 
2195.00, 
2196.00, 
2197.00, 
2198.00, 
2199.00, 
2200.00, 
2201.00, 
2202.00, 
2203.00, 
2204.00, 
2205.00, 
2206.00, 
2207.00, 
2208.00, 
2209.00, 
2210.00, 
2211.00, 
2212.00, 
2213.00, 
2214.00, 
2215.00, 
2216.00, 
2217.00, 
2218.00, 
2219.00, 
2220.00, 
2221.00, 
2222.00, 
2223.00, 
2224.00, 
2225.00, 
2226.00, 
2227.00, 
2228.00, 
2229.00, 
2230.00, 
2231.00, 
2232.00, 
2233.00, 
2234.00, 
2235.00, 
2236.00, 
2237.00, 
2238.00, 
2239.00, 
2240.00, 
2241.00, 
2242.00, 
2243.00, 
2244.00, 
2245.00, 
2246.00, 
2247.00, 
2248.00, 
2249.00, 
2250.00, 
2251.00, 
2252.00, 
2253.00, 
2254.00, 
2255.00, 
2256.00, 
2257.00, 
2258.00, 
2259.00, 
2260.00, 
2261.00, 
2262.00, 
2263.00, 
2264.00, 
2265.00, 
2266.00, 
2267.00, 
2268.00, 
2269.00, 
2270.00, 
2271.00, 
2272.00, 
2273.00, 
2274.00, 
2275.00, 
2276.00, 
2277.00, 
2278.00, 
2279.00, 
2280.00, 
2281.00, 
2282.00, 
2283.00, 
2284.00, 
2285.00, 
2286.00, 
2287.00, 
2288.00, 
2289.00, 
2290.00, 
2291.00, 
2292.00, 
2293.00, 
2294.00, 
2295.00, 
2296.00, 
2297.00, 
2298.00, 
2299.00, 
2300.00, 
2301.00, 
2302.00, 
2303.00, 
2304.00, 
2305.00, 
2306.00, 
2307.00, 
2308.00, 
2309.00, 
2310.00, 
2311.00, 
2312.00, 
2313.00, 
2314.00, 
2315.00, 
2316.00, 
2317.00, 
2318.00, 
2319.00, 
2320.00, 
2321.00, 
2322.00, 
2323.00, 
2324.00, 
2325.00, 
2326.00, 
2327.00, 
2328.00, 
2329.00, 
2330.00, 
2331.00, 
2332.00, 
2333.00, 
2334.00, 
2335.00, 
2336.00, 
2337.00, 
2338.00, 
2339.00, 
2340.00, 
2341.00, 
2342.00, 
2343.00, 
2344.00, 
2345.00, 
2346.00, 
2347.00, 
2348.00, 
2349.00, 
2350.00, 
2351.00, 
2352.00, 
2353.00, 
2354.00, 
2355.00, 
2356.00, 
2357.00, 
2358.00, 
2359.00, 
2360.00, 
2361.00, 
2362.00, 
2363.00, 
2364.00, 
2365.00, 
2366.00, 
2367.00, 
2368.00, 
2369.00, 
2370.00, 
2371.00, 
2372.00, 
2373.00, 
2374.00, 
2375.00, 
2376.00, 
2377.00, 
2378.00, 
2379.00, 
2380.00, 
2381.00, 
2382.00, 
2383.00, 
2384.00, 
2385.00, 
2386.00, 
2387.00, 
2388.00, 
2389.00, 
2390.00, 
2391.00, 
2392.00, 
2393.00, 
2394.00, 
2395.00, 
2396.00, 
2397.00, 
2398.00, 
2399.00, 
2400.00, 
2401.00, 
2402.00, 
2403.00, 
2404.00, 
2405.00, 
2406.00, 
2407.00, 
2408.00, 
2409.00, 
2410.00, 
2411.00, 
2412.00, 
2413.00, 
2414.00, 
2415.00, 
2416.00, 
2417.00, 
2418.00, 
2419.00, 
2420.00, 
2421.00, 
2422.00, 
2423.00, 
2424.00, 
2425.00, 
2426.00, 
2427.00, 
2428.00, 
2429.00, 
2430.00, 
2431.00, 
2432.00, 
2433.00, 
2434.00, 
2435.00, 
2436.00, 
2437.00, 
2438.00, 
2439.00, 
2440.00, 
2441.00, 
2442.00, 
2443.00, 
2444.00, 
2445.00, 
2446.00, 
2447.00, 
2448.00, 
2449.00, 
2450.00, 
2451.00, 
2452.00, 
2453.00, 
2454.00, 
2455.00, 
2456.00, 
2457.00, 
2458.00, 
2459.00, 
2460.00, 
2461.00, 
2462.00, 
2463.00, 
2464.00, 
2465.00, 
2466.00, 
2467.00, 
2468.00, 
2469.00, 
2470.00, 
2471.00, 
2472.00, 
2473.00, 
2474.00, 
2475.00, 
2476.00, 
2477.00, 
2478.00, 
2479.00, 
2480.00, 
2481.00, 
2482.00, 
2483.00, 
2484.00, 
2485.00, 
2486.00, 
2487.00, 
2488.00, 
2489.00, 
2490.00, 
2491.00, 
2492.00, 
2493.00, 
2494.00, 
2495.00, 
2496.00, 
2497.00, 
2498.00, 
2499.00, 
2500.00, 
2501.00, 
2502.00, 
2503.00, 
2504.00, 
2505.00, 
2506.00, 
2507.00, 
2508.00, 
2509.00, 
2510.00, 
2511.00, 
2512.00, 
2513.00, 
2514.00, 
2515.00, 
2516.00, 
2517.00, 
2518.00, 
2519.00, 
2520.00, 
2521.00, 
2522.00, 
2523.00, 
2524.00, 
2525.00, 
2526.00, 
2527.00, 
2528.00, 
2529.00, 
2530.00, 
2531.00, 
2532.00, 
2533.00, 
2534.00, 
2535.00, 
2536.00, 
2537.00, 
2538.00, 
2539.00, 
2540.00, 
2541.00, 
2542.00, 
2543.00, 
2544.00, 
2545.00, 
2546.00, 
2547.00, 
2548.00, 
2549.00, 
2550.00, 
2551.00, 
2552.00, 
2553.00, 
2554.00, 
2555.00, 
2556.00, 
2557.00, 
2558.00, 
2559.00, 
2560.00, 
2561.00, 
2562.00, 
2563.00, 
2564.00, 
2565.00, 
2566.00, 
2567.00, 
2568.00, 
2569.00, 
2570.00, 
2571.00, 
2572.00, 
2573.00, 
2574.00, 
2575.00, 
2576.00, 
2577.00, 
2578.00, 
2579.00, 
2580.00, 
2581.00, 
2582.00, 
2583.00, 
2584.00, 
2585.00, 
2586.00, 
2587.00, 
2588.00, 
2589.00, 
2590.00, 
2591.00, 
2592.00, 
2593.00, 
2594.00, 
2595.00, 
2596.00, 
2597.00, 
2598.00, 
2599.00, 
2600.00, 
