"2cP3 - RawData"
"Wavelength nm.","T%"
200.00,0.004
201.00,0.001
202.00,0.003
203.00,0.004
204.00,0.001
205.00,0.001
206.00,0.002
207.00,-0.001
208.00,0.000
209.00,0.002
210.00,0.002
211.00,0.002
212.00,0.001
213.00,0.004
214.00,0.001
215.00,0.002
216.00,0.000
217.00,0.001
218.00,0.003
219.00,-0.001
220.00,0.001
221.00,0.001
222.00,-0.001
223.00,0.002
224.00,0.001
225.00,-0.001
226.00,0.002
227.00,0.001
228.00,0.003
229.00,-0.000
230.00,0.001
231.00,0.003
232.00,0.000
233.00,0.002
234.00,0.000
235.00,0.002
236.00,0.002
237.00,-0.001
238.00,0.001
239.00,0.000
240.00,0.001
241.00,0.001
242.00,-0.000
243.00,-0.002
244.00,-0.001
245.00,0.002
246.00,0.001
247.00,0.001
248.00,-0.002
249.00,0.000
250.00,0.001
251.00,0.001
252.00,0.000
253.00,0.002
254.00,0.001
255.00,-0.000
256.00,-0.000
257.00,0.001
258.00,0.002
259.00,-0.000
260.00,-0.000
261.00,0.002
262.00,0.000
263.00,-0.000
264.00,0.000
265.00,0.003
266.00,-0.001
267.00,0.000
268.00,-0.000
269.00,-0.001
270.00,-0.001
271.00,-0.000
272.00,-0.001
273.00,0.002
274.00,0.001
275.00,0.000
276.00,0.000
277.00,-0.002
278.00,0.001
279.00,-0.001
280.00,0.002
281.00,-0.001
282.00,0.002
283.00,0.002
284.00,-0.000
285.00,0.000
286.00,0.000
287.00,0.002
288.00,0.000
289.00,0.001
290.00,-0.000
291.00,0.000
292.00,0.001
293.00,0.001
294.00,-0.000
295.00,0.001
296.00,-0.001
297.00,0.001
298.00,0.000
299.00,0.002
300.00,0.002
301.00,0.004
302.00,0.004
303.00,0.009
304.00,0.013
305.00,0.022
306.00,0.031
307.00,0.048
308.00,0.073
309.00,0.118
310.00,0.166
311.00,0.230
312.00,0.300
313.00,0.416
314.00,0.549
315.00,0.709
316.00,0.911
317.00,1.153
318.00,1.416
319.00,1.741
320.00,2.161
321.00,2.566
322.00,3.048
323.00,3.593
324.00,4.142
325.00,4.720
326.00,5.333
327.00,6.053
328.00,6.798
329.00,7.434
330.00,8.270
331.00,9.021
332.00,9.815
333.00,10.653
334.00,11.414
335.00,12.231
336.00,13.058
337.00,13.840
338.00,14.638
339.00,15.371
340.00,16.132
341.00,16.923
342.00,17.606
343.00,18.305
344.00,18.918
345.00,19.451
346.00,20.123
347.00,20.742
348.00,21.280
349.00,21.755
350.00,22.247
351.00,22.674
352.00,23.109
353.00,23.469
354.00,23.897
355.00,24.236
356.00,24.608
357.00,24.985
358.00,25.262
359.00,25.536
360.00,25.788
361.00,25.941
362.00,26.224
363.00,26.435
364.00,26.626
365.00,26.798
366.00,26.941
367.00,27.065
368.00,27.197
369.00,27.302
370.00,27.389
371.00,27.473
372.00,27.494
373.00,27.500
374.00,27.514
375.00,27.505
376.00,27.487
377.00,27.484
378.00,27.436
379.00,27.437
380.00,27.414
381.00,27.379
382.00,27.442
383.00,27.489
384.00,27.528
385.00,27.597
386.00,27.601
387.00,27.763
388.00,27.782
389.00,27.842
390.00,27.824
391.00,27.984
392.00,28.042
393.00,28.020
394.00,28.099
395.00,28.121
396.00,28.077
397.00,28.162
398.00,28.174
399.00,28.191
400.00,28.235
401.00,28.198
402.00,28.231
403.00,28.184
404.00,28.215
405.00,28.173
406.00,28.215
407.00,28.184
408.00,28.174
409.00,28.147
410.00,28.101
411.00,28.073
412.00,28.045
413.00,28.053
414.00,28.071
415.00,28.074
416.00,28.129
417.00,28.139
418.00,28.151
419.00,28.220
420.00,28.221
421.00,28.294
422.00,28.368
423.00,28.392
424.00,28.376
425.00,28.408
426.00,28.420
427.00,28.481
428.00,28.505
429.00,28.527
430.00,28.574
431.00,28.617
432.00,28.646
433.00,28.669
434.00,28.792
435.00,28.791
436.00,28.877
437.00,28.924
438.00,28.997
439.00,29.047
440.00,29.129
441.00,29.154
442.00,29.237
443.00,29.298
444.00,29.388
445.00,29.480
446.00,29.508
447.00,29.649
448.00,29.699
449.00,29.743
450.00,29.887
451.00,29.983
452.00,30.091
453.00,30.147
454.00,30.258
455.00,30.371
456.00,30.488
457.00,30.547
458.00,30.665
459.00,30.767
460.00,30.866
461.00,30.988
462.00,31.111
463.00,31.134
464.00,31.295
465.00,31.408
466.00,31.509
467.00,31.608
468.00,31.693
469.00,31.805
470.00,31.873
471.00,31.969
472.00,32.060
473.00,32.169
474.00,32.240
475.00,32.365
476.00,32.428
477.00,32.523
478.00,32.642
479.00,32.790
480.00,32.935
481.00,33.003
482.00,33.146
483.00,33.238
484.00,33.354
485.00,33.587
486.00,33.675
487.00,33.813
488.00,33.905
489.00,34.090
490.00,34.245
491.00,34.317
492.00,34.552
493.00,34.607
494.00,34.585
495.00,34.729
496.00,34.832
497.00,34.898
498.00,35.086
499.00,35.186
500.00,35.294
501.00,35.357
502.00,35.493
503.00,35.617
504.00,35.632
505.00,35.802
506.00,35.935
507.00,35.995
508.00,36.114
509.00,36.293
510.00,36.339
511.00,36.467
512.00,36.545
513.00,36.655
514.00,36.765
515.00,36.877
516.00,36.965
517.00,37.091
518.00,37.172
519.00,37.270
520.00,37.301
521.00,37.364
522.00,37.501
523.00,37.541
524.00,37.566
525.00,37.758
526.00,37.825
527.00,37.956
528.00,37.986
529.00,38.089
530.00,38.170
531.00,38.319
532.00,38.353
533.00,38.488
534.00,38.556
535.00,38.653
536.00,38.720
537.00,38.784
538.00,38.867
539.00,38.948
540.00,39.028
541.00,39.015
542.00,39.123
543.00,39.189
544.00,39.190
545.00,39.314
546.00,39.343
547.00,39.488
548.00,39.463
549.00,39.484
550.00,39.599
551.00,39.766
552.00,39.835
553.00,39.920
554.00,39.995
555.00,40.051
556.00,40.052
557.00,40.166
558.00,40.252
559.00,40.195
560.00,40.320
561.00,40.406
562.00,40.413
563.00,40.493
564.00,40.572
565.00,40.477
566.00,40.656
567.00,40.642
568.00,40.679
569.00,40.717
570.00,40.718
571.00,40.814
572.00,40.803
573.00,40.883
574.00,40.916
575.00,40.941
576.00,40.947
577.00,41.017
578.00,41.093
579.00,41.106
580.00,41.169
581.00,41.179
582.00,41.425
583.00,41.468
584.00,41.588
585.00,41.621
586.00,41.631
587.00,41.749
588.00,41.728
589.00,41.777
590.00,41.857
591.00,41.883
592.00,41.845
593.00,41.853
594.00,41.929
595.00,41.959
596.00,42.075
597.00,42.136
598.00,42.204
599.00,42.219
600.00,42.333
601.00,42.321
602.00,42.379
603.00,42.436
604.00,42.527
605.00,42.569
606.00,42.625
607.00,42.627
608.00,42.721
609.00,42.638
610.00,42.671
611.00,42.753
612.00,42.729
613.00,42.745
614.00,42.800
615.00,42.880
616.00,42.904
617.00,42.905
618.00,43.011
619.00,43.080
620.00,42.990
621.00,43.049
622.00,43.129
623.00,43.265
624.00,43.305
625.00,43.364
626.00,43.417
627.00,43.490
628.00,43.519
629.00,43.566
630.00,43.587
631.00,43.567
632.00,43.678
633.00,43.675
634.00,43.698
635.00,43.827
636.00,43.885
637.00,44.040
638.00,44.044
639.00,44.102
640.00,44.082
641.00,44.176
642.00,44.195
643.00,44.245
644.00,44.384
645.00,44.434
646.00,44.510
647.00,44.572
648.00,44.565
649.00,44.620
650.00,44.702
651.00,44.808
652.00,44.790
653.00,44.845
654.00,44.946
655.00,44.901
656.00,45.002
657.00,45.057
658.00,45.044
659.00,45.177
660.00,45.256
661.00,45.336
662.00,45.384
663.00,45.371
664.00,45.870
665.00,45.651
666.00,45.621
667.00,45.750
668.00,45.959
669.00,45.979
670.00,46.025
671.00,45.986
672.00,46.061
673.00,46.150
674.00,46.165
675.00,46.220
676.00,46.446
677.00,46.442
678.00,46.329
679.00,46.364
680.00,46.597
681.00,46.535
682.00,46.469
683.00,46.701
684.00,46.990
685.00,46.805
686.00,46.656
687.00,46.932
688.00,46.934
689.00,46.961
690.00,47.093
691.00,47.160
692.00,47.167
693.00,47.178
694.00,47.235
695.00,47.199
696.00,47.255
697.00,47.410
698.00,47.527
699.00,47.597
700.00,47.628
701.00,47.547
702.00,47.754
703.00,47.856
704.00,47.924
705.00,47.877
706.00,47.939
707.00,48.071
708.00,47.833
709.00,48.144
710.00,48.302
711.00,48.060
712.00,48.097
713.00,48.234
714.00,48.269
715.00,48.203
716.00,48.233
717.00,48.329
718.00,48.366
719.00,48.368
720.00,48.527
721.00,52.768
722.00,52.747
723.00,52.772
724.00,52.738
725.00,52.685
726.00,52.739
727.00,52.692
728.00,52.655
729.00,52.750
730.00,52.697
731.00,52.732
732.00,52.650
733.00,52.686
734.00,52.786
735.00,52.788
736.00,52.789
737.00,52.799
738.00,52.772
739.00,52.822
740.00,52.755
741.00,52.762
742.00,52.723
743.00,52.718
744.00,52.730
745.00,52.687
746.00,52.751
747.00,52.718
748.00,52.680
749.00,52.628
750.00,52.647
751.00,52.638
752.00,52.589
753.00,52.560
754.00,52.626
755.00,52.575
756.00,52.577
757.00,52.613
758.00,52.624
759.00,52.630
760.00,52.615
761.00,52.554
762.00,52.501
763.00,52.622
764.00,52.494
765.00,52.601
766.00,52.540
767.00,52.542
768.00,52.569
769.00,52.560
770.00,52.485
771.00,52.591
772.00,52.588
773.00,52.506
774.00,52.561
775.00,52.547
776.00,52.566
777.00,52.515
778.00,52.518
779.00,52.609
780.00,52.448
781.00,52.523
782.00,52.488
783.00,52.409
784.00,52.396
785.00,52.415
786.00,52.446
787.00,52.426
788.00,52.355
789.00,52.382
790.00,52.314
791.00,52.271
792.00,52.332
793.00,52.291
794.00,52.173
795.00,52.183
796.00,52.181
797.00,52.199
798.00,52.140
799.00,52.141
800.00,52.136
801.00,52.086
802.00,52.151
803.00,52.100
804.00,52.039
805.00,52.039
806.00,51.967
807.00,51.944
808.00,52.040
809.00,51.960
810.00,51.876
811.00,51.853
812.00,51.923
813.00,51.815
814.00,51.877
815.00,51.809
816.00,51.821
817.00,51.768
818.00,51.757
819.00,51.785
820.00,51.729
821.00,51.733
822.00,51.688
823.00,51.701
824.00,51.630
825.00,51.616
826.00,51.648
827.00,51.788
828.00,51.565
829.00,51.651
830.00,51.544
831.00,54.096
832.00,54.134
833.00,54.068
834.00,54.080
835.00,54.058
836.00,54.059
837.00,53.964
838.00,53.959
839.00,54.066
840.00,53.895
841.00,53.892
842.00,53.863
843.00,53.878
844.00,53.881
845.00,53.818
846.00,53.802
847.00,53.790
848.00,53.767
849.00,53.674
850.00,53.649
851.00,53.612
852.00,53.620
853.00,53.535
854.00,53.519
855.00,53.505
856.00,53.536
857.00,53.297
858.00,53.454
859.00,53.388
860.00,53.382
861.00,53.384
862.00,53.325
863.00,53.357
864.00,53.304
865.00,53.319
866.00,53.286
867.00,53.284
868.00,53.236
869.00,53.239
870.00,53.247
871.00,53.226
872.00,53.155
873.00,53.315
874.00,53.216
875.00,53.048
876.00,53.169
877.00,53.156
878.00,53.145
879.00,53.076
880.00,53.102
881.00,53.045
882.00,53.081
883.00,53.052
884.00,52.993
885.00,52.987
886.00,52.988
887.00,52.947
888.00,52.941
889.00,52.933
890.00,52.916
891.00,52.877
892.00,52.840
893.00,52.809
894.00,52.810
895.00,52.789
896.00,52.754
897.00,52.736
898.00,52.706
899.00,52.664
900.00,52.671
901.00,52.626
902.00,52.669
903.00,52.668
904.00,52.638
905.00,52.634
906.00,52.592
907.00,52.575
908.00,52.547
909.00,52.524
910.00,52.495
911.00,52.496
912.00,52.500
913.00,52.439
914.00,52.429
915.00,52.395
916.00,52.371
917.00,52.358
918.00,52.345
919.00,52.311
920.00,52.270
921.00,52.251
922.00,52.294
923.00,52.242
924.00,52.237
925.00,52.157
926.00,52.260
927.00,52.117
928.00,52.143
929.00,52.135
930.00,52.090
931.00,52.076
932.00,52.053
933.00,52.039
934.00,52.043
935.00,52.006
936.00,51.985
937.00,51.974
938.00,51.957
939.00,51.943
940.00,51.918
941.00,51.902
942.00,51.863
943.00,51.846
944.00,51.823
945.00,51.799
946.00,51.799
947.00,51.782
948.00,51.770
949.00,51.718
950.00,51.727
951.00,51.722
952.00,51.685
953.00,51.654
954.00,51.626
955.00,51.580
956.00,51.584
957.00,51.532
958.00,51.534
959.00,51.495
960.00,51.487
961.00,51.479
962.00,51.464
963.00,51.419
964.00,51.422
965.00,51.403
966.00,51.428
967.00,51.395
968.00,51.362
969.00,51.391
970.00,51.374
971.00,51.360
972.00,51.354
973.00,51.372
974.00,51.394
975.00,51.355
976.00,51.375
977.00,51.357
978.00,51.419
979.00,51.363
980.00,51.370
981.00,51.447
982.00,51.331
983.00,51.363
984.00,51.341
985.00,51.351
986.00,51.312
987.00,51.320
988.00,51.302
989.00,51.298
990.00,51.286
991.00,51.260
992.00,51.282
993.00,51.225
994.00,51.222
995.00,51.268
996.00,51.209
997.00,51.208
998.00,51.175
999.00,51.196
1000.00,51.147
1001.00,51.137
1002.00,51.129
1003.00,51.124
1004.00,51.109
1005.00,51.085
1006.00,51.114
1007.00,51.074
1008.00,51.062
1009.00,51.054
1010.00,51.034
1011.00,51.038
1012.00,50.988
1013.00,51.005
1014.00,50.962
1015.00,50.962
1016.00,50.931
1017.00,50.944
1018.00,50.929
1019.00,50.897
1020.00,50.889
1021.00,50.867
1022.00,50.873
1023.00,50.815
1024.00,50.829
1025.00,50.806
1026.00,50.784
1027.00,50.800
1028.00,50.762
1029.00,50.743
1030.00,50.707
1031.00,50.719
1032.00,50.673
1033.00,50.687
1034.00,50.647
1035.00,50.614
1036.00,50.613
1037.00,50.593
1038.00,50.576
1039.00,50.535
1040.00,50.523
1041.00,50.486
1042.00,50.484
1043.00,50.456
1044.00,50.489
1045.00,50.456
1046.00,50.451
1047.00,50.485
1048.00,50.489
1049.00,50.502
1050.00,50.511
1051.00,50.548
1052.00,50.562
1053.00,50.544
1054.00,50.527
1055.00,50.603
1056.00,50.627
1057.00,50.571
1058.00,50.549
1059.00,50.533
1060.00,50.549
1061.00,50.550
1062.00,50.524
1063.00,50.528
1064.00,50.516
1065.00,50.500
1066.00,50.506
1067.00,50.492
1068.00,50.505
1069.00,50.474
1070.00,50.453
1071.00,50.441
1072.00,50.461
1073.00,50.417
1074.00,50.425
1075.00,50.417
1076.00,50.413
1077.00,50.405
1078.00,50.384
1079.00,50.374
1080.00,50.388
1081.00,50.353
1082.00,50.355
1083.00,50.353
1084.00,50.337
1085.00,50.317
1086.00,50.325
1087.00,50.319
1088.00,50.325
1089.00,50.281
1090.00,50.282
1091.00,50.283
1092.00,50.248
1093.00,50.236
1094.00,50.234
1095.00,50.229
1096.00,50.214
1097.00,50.196
1098.00,50.198
1099.00,50.185
1100.00,50.162
1101.00,50.145
1102.00,50.156
1103.00,50.155
1104.00,50.139
1105.00,50.141
1106.00,50.127
1107.00,50.125
1108.00,50.111
1109.00,50.112
1110.00,50.113
1111.00,50.085
1112.00,50.065
1113.00,50.055
1114.00,50.050
1115.00,50.059
1116.00,50.052
1117.00,50.019
1118.00,50.020
1119.00,50.014
1120.00,50.012
1121.00,50.011
1122.00,49.994
1123.00,49.988
1124.00,49.981
1125.00,49.967
1126.00,49.971
1127.00,49.965
1128.00,49.953
1129.00,49.947
1130.00,49.966
1131.00,49.909
1132.00,49.913
1133.00,49.907
1134.00,49.914
1135.00,49.897
1136.00,49.889
1137.00,49.899
1138.00,49.902
1139.00,49.902
1140.00,49.895
1141.00,49.886
1142.00,49.872
1143.00,49.881
1144.00,49.842
1145.00,49.842
1146.00,49.845
1147.00,49.817
1148.00,49.818
1149.00,49.834
1150.00,49.830
1151.00,49.840
1152.00,49.821
1153.00,49.825
1154.00,49.815
1155.00,49.807
1156.00,49.803
1157.00,49.823
1158.00,49.798
1159.00,49.796
1160.00,49.788
1161.00,49.790
1162.00,49.779
1163.00,49.785
1164.00,49.770
1165.00,49.781
1166.00,49.801
1167.00,49.777
1168.00,49.815
1169.00,49.783
1170.00,49.783
1171.00,49.762
1172.00,49.761
1173.00,49.761
1174.00,49.760
1175.00,49.759
1176.00,49.759
1177.00,49.749
1178.00,49.737
1179.00,49.771
1180.00,49.750
1181.00,49.778
1182.00,49.766
1183.00,49.748
1184.00,49.739
1185.00,49.726
1186.00,49.723
1187.00,49.735
1188.00,49.716
1189.00,49.716
1190.00,49.730
1191.00,49.723
1192.00,49.726
1193.00,49.712
1194.00,49.720
1195.00,49.699
1196.00,49.713
1197.00,49.719
1198.00,49.714
1199.00,49.704
1200.00,49.698
1201.00,49.722
1202.00,49.692
1203.00,49.704
1204.00,49.704
1205.00,49.706
1206.00,49.698
1207.00,49.697
1208.00,49.694
1209.00,49.700
1210.00,49.698
1211.00,49.690
1212.00,49.711
1213.00,49.663
1214.00,49.691
1215.00,49.676
1216.00,49.670
1217.00,49.678
1218.00,49.659
1219.00,49.679
1220.00,49.671
1221.00,49.667
1222.00,49.670
1223.00,49.700
1224.00,49.701
1225.00,49.684
1226.00,49.716
1227.00,49.689
1228.00,49.687
1229.00,49.668
1230.00,49.706
1231.00,49.707
1232.00,49.705
1233.00,49.713
1234.00,49.728
1235.00,49.711
1236.00,49.718
1237.00,49.726
1238.00,49.724
1239.00,49.720
1240.00,49.706
1241.00,49.725
1242.00,49.737
1243.00,49.742
1244.00,49.706
1245.00,49.746
1246.00,49.736
1247.00,49.739
1248.00,49.736
1249.00,49.735
1250.00,49.745
1251.00,49.736
1252.00,49.759
1253.00,49.759
1254.00,49.770
1255.00,49.749
1256.00,49.758
1257.00,49.738
1258.00,49.762
1259.00,49.749
1260.00,49.766
1261.00,49.776
1262.00,49.762
1263.00,49.757
1264.00,49.778
1265.00,49.770
1266.00,49.773
1267.00,49.795
1268.00,49.788
1269.00,49.792
1270.00,49.805
1271.00,49.795
1272.00,49.827
1273.00,49.806
1274.00,49.803
1275.00,49.819
1276.00,49.805
1277.00,49.804
1278.00,49.830
1279.00,49.816
1280.00,49.830
1281.00,49.842
1282.00,49.851
1283.00,49.844
1284.00,49.843
1285.00,49.833
1286.00,49.854
1287.00,49.826
1288.00,49.848
1289.00,49.859
1290.00,49.879
1291.00,49.867
1292.00,49.883
1293.00,49.868
1294.00,49.891
1295.00,49.893
1296.00,49.892
1297.00,49.902
1298.00,49.912
1299.00,49.901
1300.00,49.906
1301.00,49.895
1302.00,49.914
1303.00,49.939
1304.00,49.908
1305.00,49.931
1306.00,49.938
1307.00,49.948
1308.00,49.965
1309.00,49.969
1310.00,49.976
1311.00,49.971
1312.00,49.960
1313.00,49.973
1314.00,49.984
1315.00,49.986
1316.00,49.989
1317.00,50.005
1318.00,49.988
1319.00,50.004
1320.00,50.012
1321.00,50.163
1322.00,50.180
1323.00,50.161
1324.00,50.150
1325.00,50.133
1326.00,50.171
1327.00,50.147
1328.00,50.150
1329.00,50.147
1330.00,50.160
1331.00,50.162
1332.00,50.157
1333.00,50.152
1334.00,50.194
1335.00,50.196
1336.00,50.232
1337.00,50.258
1338.00,50.308
1339.00,50.360
1340.00,50.423
1341.00,50.468
1342.00,50.547
1343.00,50.587
1344.00,50.636
1345.00,50.699
1346.00,50.728
1347.00,50.742
1348.00,50.766
1349.00,50.783
1350.00,50.820
1351.00,50.824
1352.00,50.825
1353.00,50.837
1354.00,50.861
1355.00,50.834
1356.00,50.839
1357.00,50.844
1358.00,50.875
1359.00,50.873
1360.00,50.931
1361.00,50.747
1362.00,50.766
1363.00,50.897
1364.00,50.856
1365.00,50.871
1366.00,50.956
1367.00,50.890
1368.00,50.844
1369.00,50.868
1370.00,50.841
1371.00,50.807
1372.00,50.834
1373.00,50.851
1374.00,50.859
1375.00,50.845
1376.00,50.842
1377.00,50.731
1378.00,50.885
1379.00,50.831
1380.00,50.835
1381.00,50.888
1382.00,50.780
1383.00,50.830
1384.00,50.769
1385.00,50.767
1386.00,50.827
1387.00,50.785
1388.00,50.773
1389.00,50.818
1390.00,50.817
1391.00,50.763
1392.00,50.811
1393.00,50.795
1394.00,50.813
1395.00,50.757
1396.00,50.737
1397.00,50.815
1398.00,50.857
1399.00,50.827
1400.00,50.738
1401.00,50.789
1402.00,50.890
1403.00,50.799
1404.00,50.803
1405.00,50.846
1406.00,50.872
1407.00,50.856
1408.00,50.851
1409.00,50.854
1410.00,50.882
1411.00,50.860
1412.00,50.919
1413.00,50.860
1414.00,50.852
1415.00,50.896
1416.00,50.937
1417.00,50.963
1418.00,50.930
1419.00,50.924
1420.00,50.966
1421.00,50.996
1422.00,51.009
1423.00,51.001
1424.00,51.035
1425.00,51.024
1426.00,51.008
1427.00,51.056
1428.00,51.044
1429.00,51.053
1430.00,51.073
1431.00,51.088
1432.00,51.104
1433.00,51.122
1434.00,51.102
1435.00,51.151
1436.00,51.159
1437.00,51.138
1438.00,51.174
1439.00,51.205
1440.00,51.201
1441.00,51.212
1442.00,51.225
1443.00,51.256
1444.00,51.295
1445.00,51.269
1446.00,51.280
1447.00,51.330
1448.00,51.338
1449.00,51.360
1450.00,51.347
1451.00,51.358
1452.00,51.385
1453.00,51.397
1454.00,51.414
1455.00,51.438
1456.00,51.453
1457.00,51.446
1458.00,51.463
1459.00,51.473
1460.00,51.506
1461.00,51.516
1462.00,51.530
1463.00,51.542
1464.00,51.550
1465.00,51.570
1466.00,51.582
1467.00,51.593
1468.00,51.631
1469.00,51.618
1470.00,51.624
1471.00,51.651
1472.00,51.663
1473.00,51.650
1474.00,51.699
1475.00,51.687
1476.00,51.708
1477.00,51.694
1478.00,51.715
1479.00,51.743
1480.00,51.729
1481.00,51.740
1482.00,51.774
1483.00,51.790
1484.00,51.795
1485.00,51.815
1486.00,51.826
1487.00,51.839
1488.00,51.870
1489.00,51.853
1490.00,51.877
1491.00,51.880
1492.00,51.897
1493.00,51.907
1494.00,51.922
1495.00,51.903
1496.00,51.924
1497.00,51.912
1498.00,51.929
1499.00,51.960
1500.00,51.980
1501.00, 
1502.00, 
1503.00, 
1504.00, 
1505.00, 
1506.00, 
1507.00, 
1508.00, 
1509.00, 
1510.00, 
1511.00, 
1512.00, 
1513.00, 
1514.00, 
1515.00, 
1516.00, 
1517.00, 
1518.00, 
1519.00, 
1520.00, 
1521.00, 
1522.00, 
1523.00, 
1524.00, 
1525.00, 
1526.00, 
1527.00, 
1528.00, 
1529.00, 
1530.00, 
1531.00, 
1532.00, 
1533.00, 
1534.00, 
1535.00, 
1536.00, 
1537.00, 
1538.00, 
1539.00, 
1540.00, 
1541.00, 
1542.00, 
1543.00, 
1544.00, 
1545.00, 
1546.00, 
1547.00, 
1548.00, 
1549.00, 
1550.00, 
1551.00, 
1552.00, 
1553.00, 
1554.00, 
1555.00, 
1556.00, 
1557.00, 
1558.00, 
1559.00, 
1560.00, 
1561.00, 
1562.00, 
1563.00, 
1564.00, 
1565.00, 
1566.00, 
1567.00, 
1568.00, 
1569.00, 
1570.00, 
1571.00, 
1572.00, 
1573.00, 
1574.00, 
1575.00, 
1576.00, 
1577.00, 
1578.00, 
1579.00, 
1580.00, 
1581.00, 
1582.00, 
1583.00, 
1584.00, 
1585.00, 
1586.00, 
1587.00, 
1588.00, 
1589.00, 
1590.00, 
1591.00, 
1592.00, 
1593.00, 
1594.00, 
1595.00, 
1596.00, 
1597.00, 
1598.00, 
1599.00, 
1600.00, 
1601.00, 
1602.00, 
1603.00, 
1604.00, 
1605.00, 
1606.00, 
1607.00, 
1608.00, 
1609.00, 
1610.00, 
1611.00, 
1612.00, 
1613.00, 
1614.00, 
1615.00, 
1616.00, 
1617.00, 
1618.00, 
1619.00, 
1620.00, 
1621.00, 
1622.00, 
1623.00, 
1624.00, 
1625.00, 
1626.00, 
1627.00, 
1628.00, 
1629.00, 
1630.00, 
1631.00, 
1632.00, 
1633.00, 
1634.00, 
1635.00, 
1636.00, 
1637.00, 
1638.00, 
1639.00, 
1640.00, 
1641.00, 
1642.00, 
1643.00, 
1644.00, 
1645.00, 
1646.00, 
1647.00, 
1648.00, 
1649.00, 
1650.00, 
1651.00, 
1652.00, 
1653.00, 
1654.00, 
1655.00, 
1656.00, 
1657.00, 
1658.00, 
1659.00, 
1660.00, 
1661.00, 
1662.00, 
1663.00, 
1664.00, 
1665.00, 
1666.00, 
1667.00, 
1668.00, 
1669.00, 
1670.00, 
1671.00, 
1672.00, 
1673.00, 
1674.00, 
1675.00, 
1676.00, 
1677.00, 
1678.00, 
1679.00, 
1680.00, 
1681.00, 
1682.00, 
1683.00, 
1684.00, 
1685.00, 
1686.00, 
1687.00, 
1688.00, 
1689.00, 
1690.00, 
1691.00, 
1692.00, 
1693.00, 
1694.00, 
1695.00, 
1696.00, 
1697.00, 
1698.00, 
1699.00, 
1700.00, 
1701.00, 
1702.00, 
1703.00, 
1704.00, 
1705.00, 
1706.00, 
1707.00, 
1708.00, 
1709.00, 
1710.00, 
1711.00, 
1712.00, 
1713.00, 
1714.00, 
1715.00, 
1716.00, 
1717.00, 
1718.00, 
1719.00, 
1720.00, 
1721.00, 
1722.00, 
1723.00, 
1724.00, 
1725.00, 
1726.00, 
1727.00, 
1728.00, 
1729.00, 
1730.00, 
1731.00, 
1732.00, 
1733.00, 
1734.00, 
1735.00, 
1736.00, 
1737.00, 
1738.00, 
1739.00, 
1740.00, 
1741.00, 
1742.00, 
1743.00, 
1744.00, 
1745.00, 
1746.00, 
1747.00, 
1748.00, 
1749.00, 
1750.00, 
1751.00, 
1752.00, 
1753.00, 
1754.00, 
1755.00, 
1756.00, 
1757.00, 
1758.00, 
1759.00, 
1760.00, 
1761.00, 
1762.00, 
1763.00, 
1764.00, 
1765.00, 
1766.00, 
1767.00, 
1768.00, 
1769.00, 
1770.00, 
1771.00, 
1772.00, 
1773.00, 
1774.00, 
1775.00, 
1776.00, 
1777.00, 
1778.00, 
1779.00, 
1780.00, 
1781.00, 
1782.00, 
1783.00, 
1784.00, 
1785.00, 
1786.00, 
1787.00, 
1788.00, 
1789.00, 
1790.00, 
1791.00, 
1792.00, 
1793.00, 
1794.00, 
1795.00, 
1796.00, 
1797.00, 
1798.00, 
1799.00, 
1800.00, 
1801.00, 
1802.00, 
1803.00, 
1804.00, 
1805.00, 
1806.00, 
1807.00, 
1808.00, 
1809.00, 
1810.00, 
1811.00, 
1812.00, 
1813.00, 
1814.00, 
1815.00, 
1816.00, 
1817.00, 
1818.00, 
1819.00, 
1820.00, 
1821.00, 
1822.00, 
1823.00, 
1824.00, 
1825.00, 
1826.00, 
1827.00, 
1828.00, 
1829.00, 
1830.00, 
1831.00, 
1832.00, 
1833.00, 
1834.00, 
1835.00, 
1836.00, 
1837.00, 
1838.00, 
1839.00, 
1840.00, 
1841.00, 
1842.00, 
1843.00, 
1844.00, 
1845.00, 
1846.00, 
1847.00, 
1848.00, 
1849.00, 
1850.00, 
1851.00, 
1852.00, 
1853.00, 
1854.00, 
1855.00, 
1856.00, 
1857.00, 
1858.00, 
1859.00, 
1860.00, 
1861.00, 
1862.00, 
1863.00, 
1864.00, 
1865.00, 
1866.00, 
1867.00, 
1868.00, 
1869.00, 
1870.00, 
1871.00, 
1872.00, 
1873.00, 
1874.00, 
1875.00, 
1876.00, 
1877.00, 
1878.00, 
1879.00, 
1880.00, 
1881.00, 
1882.00, 
1883.00, 
1884.00, 
1885.00, 
1886.00, 
1887.00, 
1888.00, 
1889.00, 
1890.00, 
1891.00, 
1892.00, 
1893.00, 
1894.00, 
1895.00, 
1896.00, 
1897.00, 
1898.00, 
1899.00, 
1900.00, 
1901.00, 
1902.00, 
1903.00, 
1904.00, 
1905.00, 
1906.00, 
1907.00, 
1908.00, 
1909.00, 
1910.00, 
1911.00, 
1912.00, 
1913.00, 
1914.00, 
1915.00, 
1916.00, 
1917.00, 
1918.00, 
1919.00, 
1920.00, 
1921.00, 
1922.00, 
1923.00, 
1924.00, 
1925.00, 
1926.00, 
1927.00, 
1928.00, 
1929.00, 
1930.00, 
1931.00, 
1932.00, 
1933.00, 
1934.00, 
1935.00, 
1936.00, 
1937.00, 
1938.00, 
1939.00, 
1940.00, 
1941.00, 
1942.00, 
1943.00, 
1944.00, 
1945.00, 
1946.00, 
1947.00, 
1948.00, 
1949.00, 
1950.00, 
1951.00, 
1952.00, 
1953.00, 
1954.00, 
1955.00, 
1956.00, 
1957.00, 
1958.00, 
1959.00, 
1960.00, 
1961.00, 
1962.00, 
1963.00, 
1964.00, 
1965.00, 
1966.00, 
1967.00, 
1968.00, 
1969.00, 
1970.00, 
1971.00, 
1972.00, 
1973.00, 
1974.00, 
1975.00, 
1976.00, 
1977.00, 
1978.00, 
1979.00, 
1980.00, 
1981.00, 
1982.00, 
1983.00, 
1984.00, 
1985.00, 
1986.00, 
1987.00, 
1988.00, 
1989.00, 
1990.00, 
1991.00, 
1992.00, 
1993.00, 
1994.00, 
1995.00, 
1996.00, 
1997.00, 
1998.00, 
1999.00, 
2000.00, 
2001.00, 
2002.00, 
2003.00, 
2004.00, 
2005.00, 
2006.00, 
2007.00, 
2008.00, 
2009.00, 
2010.00, 
2011.00, 
2012.00, 
2013.00, 
2014.00, 
2015.00, 
2016.00, 
2017.00, 
2018.00, 
2019.00, 
2020.00, 
2021.00, 
2022.00, 
2023.00, 
2024.00, 
2025.00, 
2026.00, 
2027.00, 
2028.00, 
2029.00, 
2030.00, 
2031.00, 
2032.00, 
2033.00, 
2034.00, 
2035.00, 
2036.00, 
2037.00, 
2038.00, 
2039.00, 
2040.00, 
2041.00, 
2042.00, 
2043.00, 
2044.00, 
2045.00, 
2046.00, 
2047.00, 
2048.00, 
2049.00, 
2050.00, 
2051.00, 
2052.00, 
2053.00, 
2054.00, 
2055.00, 
2056.00, 
2057.00, 
2058.00, 
2059.00, 
2060.00, 
2061.00, 
2062.00, 
2063.00, 
2064.00, 
2065.00, 
2066.00, 
2067.00, 
2068.00, 
2069.00, 
2070.00, 
2071.00, 
2072.00, 
2073.00, 
2074.00, 
2075.00, 
2076.00, 
2077.00, 
2078.00, 
2079.00, 
2080.00, 
2081.00, 
2082.00, 
2083.00, 
2084.00, 
2085.00, 
2086.00, 
2087.00, 
2088.00, 
2089.00, 
2090.00, 
2091.00, 
2092.00, 
2093.00, 
2094.00, 
2095.00, 
2096.00, 
2097.00, 
2098.00, 
2099.00, 
2100.00, 
2101.00, 
2102.00, 
2103.00, 
2104.00, 
2105.00, 
2106.00, 
2107.00, 
2108.00, 
2109.00, 
2110.00, 
2111.00, 
2112.00, 
2113.00, 
2114.00, 
2115.00, 
2116.00, 
2117.00, 
2118.00, 
2119.00, 
2120.00, 
2121.00, 
2122.00, 
2123.00, 
2124.00, 
2125.00, 
2126.00, 
2127.00, 
2128.00, 
2129.00, 
2130.00, 
2131.00, 
2132.00, 
2133.00, 
2134.00, 
2135.00, 
2136.00, 
2137.00, 
2138.00, 
2139.00, 
2140.00, 
2141.00, 
2142.00, 
2143.00, 
2144.00, 
2145.00, 
2146.00, 
2147.00, 
2148.00, 
2149.00, 
2150.00, 
2151.00, 
2152.00, 
2153.00, 
2154.00, 
2155.00, 
2156.00, 
2157.00, 
2158.00, 
2159.00, 
2160.00, 
2161.00, 
2162.00, 
2163.00, 
2164.00, 
2165.00, 
2166.00, 
2167.00, 
2168.00, 
2169.00, 
2170.00, 
2171.00, 
2172.00, 
2173.00, 
2174.00, 
2175.00, 
2176.00, 
2177.00, 
2178.00, 
2179.00, 
2180.00, 
2181.00, 
2182.00, 
2183.00, 
2184.00, 
2185.00, 
2186.00, 
2187.00, 
2188.00, 
2189.00, 
2190.00, 
2191.00, 
2192.00, 
2193.00, 
2194.00, 
2195.00, 
2196.00, 
2197.00, 
2198.00, 
2199.00, 
2200.00, 
2201.00, 
2202.00, 
2203.00, 
2204.00, 
2205.00, 
2206.00, 
2207.00, 
2208.00, 
2209.00, 
2210.00, 
2211.00, 
2212.00, 
2213.00, 
2214.00, 
2215.00, 
2216.00, 
2217.00, 
2218.00, 
2219.00, 
2220.00, 
2221.00, 
2222.00, 
2223.00, 
2224.00, 
2225.00, 
2226.00, 
2227.00, 
2228.00, 
2229.00, 
2230.00, 
2231.00, 
2232.00, 
2233.00, 
2234.00, 
2235.00, 
2236.00, 
2237.00, 
2238.00, 
2239.00, 
2240.00, 
2241.00, 
2242.00, 
2243.00, 
2244.00, 
2245.00, 
2246.00, 
2247.00, 
2248.00, 
2249.00, 
2250.00, 
2251.00, 
2252.00, 
2253.00, 
2254.00, 
2255.00, 
2256.00, 
2257.00, 
2258.00, 
2259.00, 
2260.00, 
2261.00, 
2262.00, 
2263.00, 
2264.00, 
2265.00, 
2266.00, 
2267.00, 
2268.00, 
2269.00, 
2270.00, 
2271.00, 
2272.00, 
2273.00, 
2274.00, 
2275.00, 
2276.00, 
2277.00, 
2278.00, 
2279.00, 
2280.00, 
2281.00, 
2282.00, 
2283.00, 
2284.00, 
2285.00, 
2286.00, 
2287.00, 
2288.00, 
2289.00, 
2290.00, 
2291.00, 
2292.00, 
2293.00, 
2294.00, 
2295.00, 
2296.00, 
2297.00, 
2298.00, 
2299.00, 
2300.00, 
2301.00, 
2302.00, 
2303.00, 
2304.00, 
2305.00, 
2306.00, 
2307.00, 
2308.00, 
2309.00, 
2310.00, 
2311.00, 
2312.00, 
2313.00, 
2314.00, 
2315.00, 
2316.00, 
2317.00, 
2318.00, 
2319.00, 
2320.00, 
2321.00, 
2322.00, 
2323.00, 
2324.00, 
2325.00, 
2326.00, 
2327.00, 
2328.00, 
2329.00, 
2330.00, 
2331.00, 
2332.00, 
2333.00, 
2334.00, 
2335.00, 
2336.00, 
2337.00, 
2338.00, 
2339.00, 
2340.00, 
2341.00, 
2342.00, 
2343.00, 
2344.00, 
2345.00, 
2346.00, 
2347.00, 
2348.00, 
2349.00, 
2350.00, 
2351.00, 
2352.00, 
2353.00, 
2354.00, 
2355.00, 
2356.00, 
2357.00, 
2358.00, 
2359.00, 
2360.00, 
2361.00, 
2362.00, 
2363.00, 
2364.00, 
2365.00, 
2366.00, 
2367.00, 
2368.00, 
2369.00, 
2370.00, 
2371.00, 
2372.00, 
2373.00, 
2374.00, 
2375.00, 
2376.00, 
2377.00, 
2378.00, 
2379.00, 
2380.00, 
2381.00, 
2382.00, 
2383.00, 
2384.00, 
2385.00, 
2386.00, 
2387.00, 
2388.00, 
2389.00, 
2390.00, 
2391.00, 
2392.00, 
2393.00, 
2394.00, 
2395.00, 
2396.00, 
2397.00, 
2398.00, 
2399.00, 
2400.00, 
2401.00, 
2402.00, 
2403.00, 
2404.00, 
2405.00, 
2406.00, 
2407.00, 
2408.00, 
2409.00, 
2410.00, 
2411.00, 
2412.00, 
2413.00, 
2414.00, 
2415.00, 
2416.00, 
2417.00, 
2418.00, 
2419.00, 
2420.00, 
2421.00, 
2422.00, 
2423.00, 
2424.00, 
2425.00, 
2426.00, 
2427.00, 
2428.00, 
2429.00, 
2430.00, 
2431.00, 
2432.00, 
2433.00, 
2434.00, 
2435.00, 
2436.00, 
2437.00, 
2438.00, 
2439.00, 
2440.00, 
2441.00, 
2442.00, 
2443.00, 
2444.00, 
2445.00, 
2446.00, 
2447.00, 
2448.00, 
2449.00, 
2450.00, 
2451.00, 
2452.00, 
2453.00, 
2454.00, 
2455.00, 
2456.00, 
2457.00, 
2458.00, 
2459.00, 
2460.00, 
2461.00, 
2462.00, 
2463.00, 
2464.00, 
2465.00, 
2466.00, 
2467.00, 
2468.00, 
2469.00, 
2470.00, 
2471.00, 
2472.00, 
2473.00, 
2474.00, 
2475.00, 
2476.00, 
2477.00, 
2478.00, 
2479.00, 
2480.00, 
2481.00, 
2482.00, 
2483.00, 
2484.00, 
2485.00, 
2486.00, 
2487.00, 
2488.00, 
2489.00, 
2490.00, 
2491.00, 
2492.00, 
2493.00, 
2494.00, 
2495.00, 
2496.00, 
2497.00, 
2498.00, 
2499.00, 
2500.00, 
2501.00, 
2502.00, 
2503.00, 
2504.00, 
2505.00, 
2506.00, 
2507.00, 
2508.00, 
2509.00, 
2510.00, 
2511.00, 
2512.00, 
2513.00, 
2514.00, 
2515.00, 
2516.00, 
2517.00, 
2518.00, 
2519.00, 
2520.00, 
2521.00, 
2522.00, 
2523.00, 
2524.00, 
2525.00, 
2526.00, 
2527.00, 
2528.00, 
2529.00, 
2530.00, 
2531.00, 
2532.00, 
2533.00, 
2534.00, 
2535.00, 
2536.00, 
2537.00, 
2538.00, 
2539.00, 
2540.00, 
2541.00, 
2542.00, 
2543.00, 
2544.00, 
2545.00, 
2546.00, 
2547.00, 
2548.00, 
2549.00, 
2550.00, 
2551.00, 
2552.00, 
2553.00, 
2554.00, 
2555.00, 
2556.00, 
2557.00, 
2558.00, 
2559.00, 
2560.00, 
2561.00, 
2562.00, 
2563.00, 
2564.00, 
2565.00, 
2566.00, 
2567.00, 
2568.00, 
2569.00, 
2570.00, 
2571.00, 
2572.00, 
2573.00, 
2574.00, 
2575.00, 
2576.00, 
2577.00, 
2578.00, 
2579.00, 
2580.00, 
2581.00, 
2582.00, 
2583.00, 
2584.00, 
2585.00, 
2586.00, 
2587.00, 
2588.00, 
2589.00, 
2590.00, 
2591.00, 
2592.00, 
2593.00, 
2594.00, 
2595.00, 
2596.00, 
2597.00, 
2598.00, 
2599.00, 
2600.00, 
