"2bP2 - RawData"
"Wavelength nm.","T%"
200.00,0.002
201.00,0.000
202.00,-0.001
203.00,-0.000
204.00,-0.001
205.00,0.002
206.00,0.003
207.00,0.001
208.00,0.002
209.00,0.003
210.00,0.002
211.00,0.001
212.00,0.001
213.00,0.001
214.00,-0.001
215.00,0.002
216.00,0.002
217.00,0.001
218.00,0.001
219.00,0.002
220.00,0.001
221.00,0.001
222.00,0.001
223.00,-0.000
224.00,0.001
225.00,0.002
226.00,0.000
227.00,-0.001
228.00,0.001
229.00,0.002
230.00,-0.000
231.00,0.000
232.00,-0.001
233.00,0.001
234.00,0.002
235.00,-0.000
236.00,0.001
237.00,0.001
238.00,0.002
239.00,-0.002
240.00,-0.001
241.00,0.000
242.00,-0.001
243.00,0.002
244.00,-0.001
245.00,0.000
246.00,0.002
247.00,0.001
248.00,0.000
249.00,-0.000
250.00,0.001
251.00,-0.001
252.00,0.000
253.00,-0.001
254.00,0.001
255.00,-0.000
256.00,0.002
257.00,0.001
258.00,0.001
259.00,0.001
260.00,0.002
261.00,0.001
262.00,0.001
263.00,0.001
264.00,0.000
265.00,-0.000
266.00,0.001
267.00,0.000
268.00,0.000
269.00,-0.001
270.00,-0.001
271.00,-0.000
272.00,-0.001
273.00,0.003
274.00,0.000
275.00,-0.001
276.00,0.001
277.00,-0.000
278.00,0.000
279.00,0.002
280.00,0.000
281.00,0.000
282.00,-0.001
283.00,0.001
284.00,0.000
285.00,0.001
286.00,0.001
287.00,0.002
288.00,0.001
289.00,-0.000
290.00,0.002
291.00,0.000
292.00,-0.000
293.00,-0.001
294.00,0.000
295.00,0.001
296.00,0.000
297.00,-0.001
298.00,0.001
299.00,0.000
300.00,0.003
301.00,0.003
302.00,0.005
303.00,0.007
304.00,0.013
305.00,0.018
306.00,0.030
307.00,0.044
308.00,0.069
309.00,0.103
310.00,0.147
311.00,0.197
312.00,0.266
313.00,0.353
314.00,0.468
315.00,0.601
316.00,0.760
317.00,0.954
318.00,1.180
319.00,1.439
320.00,1.747
321.00,2.069
322.00,2.438
323.00,2.840
324.00,3.283
325.00,3.706
326.00,4.186
327.00,4.721
328.00,5.250
329.00,5.783
330.00,6.335
331.00,6.891
332.00,7.493
333.00,8.110
334.00,8.664
335.00,9.256
336.00,9.852
337.00,10.422
338.00,11.033
339.00,11.520
340.00,12.060
341.00,12.607
342.00,13.124
343.00,13.542
344.00,13.989
345.00,14.461
346.00,14.863
347.00,15.219
348.00,15.559
349.00,15.880
350.00,16.217
351.00,16.502
352.00,16.765
353.00,16.997
354.00,17.249
355.00,17.506
356.00,17.692
357.00,17.869
358.00,18.078
359.00,18.271
360.00,18.422
361.00,18.519
362.00,18.648
363.00,18.804
364.00,18.850
365.00,18.920
366.00,18.961
367.00,19.060
368.00,19.052
369.00,19.085
370.00,19.138
371.00,19.185
372.00,19.124
373.00,19.101
374.00,19.108
375.00,19.122
376.00,19.041
377.00,18.991
378.00,18.926
379.00,18.860
380.00,18.841
381.00,18.776
382.00,18.774
383.00,18.765
384.00,18.768
385.00,18.801
386.00,18.783
387.00,18.832
388.00,18.849
389.00,18.844
390.00,18.851
391.00,18.849
392.00,18.880
393.00,18.865
394.00,18.877
395.00,18.849
396.00,18.838
397.00,18.820
398.00,18.815
399.00,18.839
400.00,18.818
401.00,18.819
402.00,18.786
403.00,18.792
404.00,18.749
405.00,18.753
406.00,18.749
407.00,18.741
408.00,18.730
409.00,18.663
410.00,18.669
411.00,18.595
412.00,18.558
413.00,18.613
414.00,18.581
415.00,18.606
416.00,18.631
417.00,18.629
418.00,18.647
419.00,18.725
420.00,18.751
421.00,18.767
422.00,18.760
423.00,18.848
424.00,18.832
425.00,18.847
426.00,18.903
427.00,18.947
428.00,19.002
429.00,19.014
430.00,19.084
431.00,19.107
432.00,19.180
433.00,19.231
434.00,19.311
435.00,19.362
436.00,19.426
437.00,19.465
438.00,19.538
439.00,19.619
440.00,19.702
441.00,19.764
442.00,19.851
443.00,19.919
444.00,20.047
445.00,20.084
446.00,20.195
447.00,20.295
448.00,20.391
449.00,20.487
450.00,20.591
451.00,20.679
452.00,20.752
453.00,20.904
454.00,20.993
455.00,21.087
456.00,21.191
457.00,21.313
458.00,21.408
459.00,21.552
460.00,21.716
461.00,21.816
462.00,21.935
463.00,22.108
464.00,22.198
465.00,22.319
466.00,22.454
467.00,22.586
468.00,22.696
469.00,22.816
470.00,22.931
471.00,23.017
472.00,23.196
473.00,23.268
474.00,23.416
475.00,23.505
476.00,23.626
477.00,23.752
478.00,23.898
479.00,24.087
480.00,24.225
481.00,24.285
482.00,24.495
483.00,24.587
484.00,24.779
485.00,24.952
486.00,25.089
487.00,25.290
488.00,25.437
489.00,25.589
490.00,25.770
491.00,25.895
492.00,26.049
493.00,26.249
494.00,26.415
495.00,26.415
496.00,26.560
497.00,26.675
498.00,26.867
499.00,26.993
500.00,27.136
501.00,27.267
502.00,27.415
503.00,27.550
504.00,27.610
505.00,27.789
506.00,27.931
507.00,27.981
508.00,28.141
509.00,28.332
510.00,28.452
511.00,28.523
512.00,28.716
513.00,28.874
514.00,28.984
515.00,29.118
516.00,29.249
517.00,29.339
518.00,29.440
519.00,29.514
520.00,29.615
521.00,29.711
522.00,29.814
523.00,29.904
524.00,30.029
525.00,30.108
526.00,30.224
527.00,30.261
528.00,30.375
529.00,30.585
530.00,30.740
531.00,30.826
532.00,30.906
533.00,31.004
534.00,31.117
535.00,31.166
536.00,31.276
537.00,31.374
538.00,31.394
539.00,31.478
540.00,31.578
541.00,31.627
542.00,31.686
543.00,31.805
544.00,31.889
545.00,31.945
546.00,31.955
547.00,32.103
548.00,32.213
549.00,32.257
550.00,32.324
551.00,32.435
552.00,32.480
553.00,32.569
554.00,32.685
555.00,32.663
556.00,32.738
557.00,32.794
558.00,32.897
559.00,32.955
560.00,33.029
561.00,33.117
562.00,33.165
563.00,33.206
564.00,33.281
565.00,33.334
566.00,33.325
567.00,33.380
568.00,33.434
569.00,33.501
570.00,33.527
571.00,33.578
572.00,33.624
573.00,33.618
574.00,33.702
575.00,33.699
576.00,33.737
577.00,33.813
578.00,33.912
579.00,33.934
580.00,33.982
581.00,34.148
582.00,34.235
583.00,34.192
584.00,34.304
585.00,34.345
586.00,34.430
587.00,34.516
588.00,34.552
589.00,34.510
590.00,34.618
591.00,34.695
592.00,34.616
593.00,34.673
594.00,34.779
595.00,34.867
596.00,34.985
597.00,35.105
598.00,35.040
599.00,35.060
600.00,35.092
601.00,35.098
602.00,35.100
603.00,35.241
604.00,35.342
605.00,35.371
606.00,35.345
607.00,35.418
608.00,35.579
609.00,35.641
610.00,35.547
611.00,35.664
612.00,35.686
613.00,35.829
614.00,35.767
615.00,35.869
616.00,36.006
617.00,35.962
618.00,36.044
619.00,36.168
620.00,36.181
621.00,36.211
622.00,36.331
623.00,36.411
624.00,36.443
625.00,36.527
626.00,36.565
627.00,36.625
628.00,36.682
629.00,36.741
630.00,36.811
631.00,36.891
632.00,36.991
633.00,37.052
634.00,37.157
635.00,37.257
636.00,37.327
637.00,37.389
638.00,37.495
639.00,37.588
640.00,37.631
641.00,37.668
642.00,37.799
643.00,37.894
644.00,37.978
645.00,38.033
646.00,38.175
647.00,38.263
648.00,38.376
649.00,38.422
650.00,38.470
651.00,38.684
652.00,38.564
653.00,38.626
654.00,38.872
655.00,38.927
656.00,39.316
657.00,38.495
658.00,39.342
659.00,39.518
660.00,39.626
661.00,39.568
662.00,39.677
663.00,39.778
664.00,40.153
665.00,40.256
666.00,40.218
667.00,40.265
668.00,40.366
669.00,40.613
670.00,40.776
671.00,40.719
672.00,40.889
673.00,40.902
674.00,40.963
675.00,41.094
676.00,41.323
677.00,41.522
678.00,41.313
679.00,41.582
680.00,41.771
681.00,41.892
682.00,41.911
683.00,41.973
684.00,42.268
685.00,42.327
686.00,42.199
687.00,42.319
688.00,42.396
689.00,42.551
690.00,42.896
691.00,43.041
692.00,42.855
693.00,42.957
694.00,43.086
695.00,43.323
696.00,43.435
697.00,43.400
698.00,43.574
699.00,43.889
700.00,43.920
701.00,43.877
702.00,43.980
703.00,44.219
704.00,44.321
705.00,44.287
706.00,44.481
707.00,44.522
708.00,44.428
709.00,44.782
710.00,45.201
711.00,44.600
712.00,44.870
713.00,45.263
714.00,45.212
715.00,45.232
716.00,45.310
717.00,45.475
718.00,45.556
719.00,45.505
720.00,45.759
721.00,50.123
722.00,50.027
723.00,50.126
724.00,50.074
725.00,50.217
726.00,50.325
727.00,50.339
728.00,50.431
729.00,50.378
730.00,50.533
731.00,50.475
732.00,50.577
733.00,50.660
734.00,50.666
735.00,50.719
736.00,50.773
737.00,50.811
738.00,50.864
739.00,50.936
740.00,51.044
741.00,51.020
742.00,51.110
743.00,51.070
744.00,51.110
745.00,51.181
746.00,51.250
747.00,51.217
748.00,51.247
749.00,51.248
750.00,51.249
751.00,51.291
752.00,51.353
753.00,51.316
754.00,51.399
755.00,51.370
756.00,51.453
757.00,51.523
758.00,51.458
759.00,51.472
760.00,51.538
761.00,51.591
762.00,51.542
763.00,51.690
764.00,51.595
765.00,51.691
766.00,51.666
767.00,51.707
768.00,51.786
769.00,51.786
770.00,51.840
771.00,51.828
772.00,51.951
773.00,51.867
774.00,51.926
775.00,51.950
776.00,51.874
777.00,52.010
778.00,51.958
779.00,52.083
780.00,51.959
781.00,51.981
782.00,51.989
783.00,52.012
784.00,52.086
785.00,52.030
786.00,52.069
787.00,51.952
788.00,51.971
789.00,52.085
790.00,52.030
791.00,52.098
792.00,52.144
793.00,51.967
794.00,52.082
795.00,52.057
796.00,52.116
797.00,52.019
798.00,52.124
799.00,52.084
800.00,52.044
801.00,52.058
802.00,52.123
803.00,52.039
804.00,52.018
805.00,52.126
806.00,51.993
807.00,51.977
808.00,52.044
809.00,52.018
810.00,51.963
811.00,52.053
812.00,52.064
813.00,51.947
814.00,52.023
815.00,52.054
816.00,52.002
817.00,51.975
818.00,51.894
819.00,51.978
820.00,51.922
821.00,51.970
822.00,51.933
823.00,51.925
824.00,51.922
825.00,51.989
826.00,51.899
827.00,51.991
828.00,51.901
829.00,51.930
830.00,51.929
831.00,54.311
832.00,54.329
833.00,54.245
834.00,54.259
835.00,54.221
836.00,54.231
837.00,54.197
838.00,54.199
839.00,54.197
840.00,54.140
841.00,54.168
842.00,54.148
843.00,54.148
844.00,54.137
845.00,54.088
846.00,54.133
847.00,54.117
848.00,54.065
849.00,54.023
850.00,54.029
851.00,53.943
852.00,53.980
853.00,53.913
854.00,53.937
855.00,53.877
856.00,53.900
857.00,53.853
858.00,53.802
859.00,53.811
860.00,53.784
861.00,53.794
862.00,53.771
863.00,53.773
864.00,53.721
865.00,53.773
866.00,53.766
867.00,53.744
868.00,53.722
869.00,53.723
870.00,53.729
871.00,53.711
872.00,53.694
873.00,53.692
874.00,53.667
875.00,53.666
876.00,53.647
877.00,53.666
878.00,53.657
879.00,53.618
880.00,53.629
881.00,53.603
882.00,53.659
883.00,53.580
884.00,53.558
885.00,53.544
886.00,53.557
887.00,53.539
888.00,53.503
889.00,53.527
890.00,53.512
891.00,53.474
892.00,53.460
893.00,53.397
894.00,53.412
895.00,53.376
896.00,53.367
897.00,53.348
898.00,53.328
899.00,53.338
900.00,53.321
901.00,53.302
902.00,53.292
903.00,53.342
904.00,53.318
905.00,53.236
906.00,53.259
907.00,53.214
908.00,53.188
909.00,53.196
910.00,53.158
911.00,53.167
912.00,53.146
913.00,53.101
914.00,53.079
915.00,53.072
916.00,53.033
917.00,53.020
918.00,53.025
919.00,52.997
920.00,52.975
921.00,53.001
922.00,52.950
923.00,52.927
924.00,52.908
925.00,52.914
926.00,52.893
927.00,52.887
928.00,52.861
929.00,52.865
930.00,52.806
931.00,52.800
932.00,52.765
933.00,52.763
934.00,52.737
935.00,52.707
936.00,52.717
937.00,52.700
938.00,52.604
939.00,52.678
940.00,52.656
941.00,52.615
942.00,52.601
943.00,52.598
944.00,52.564
945.00,52.578
946.00,52.608
947.00,52.604
948.00,52.524
949.00,52.489
950.00,52.466
951.00,52.452
952.00,52.423
953.00,52.388
954.00,52.390
955.00,52.336
956.00,52.343
957.00,52.280
958.00,52.309
959.00,52.247
960.00,52.233
961.00,52.249
962.00,52.256
963.00,52.187
964.00,52.214
965.00,52.199
966.00,52.160
967.00,52.164
968.00,52.117
969.00,52.151
970.00,52.140
971.00,52.125
972.00,52.119
973.00,52.170
974.00,52.198
975.00,52.159
976.00,52.193
977.00,52.176
978.00,52.213
979.00,52.154
980.00,52.169
981.00,52.171
982.00,52.131
983.00,52.148
984.00,52.116
985.00,52.216
986.00,52.104
987.00,52.138
988.00,52.101
989.00,52.090
990.00,52.085
991.00,52.067
992.00,52.099
993.00,52.039
994.00,52.016
995.00,52.004
996.00,52.018
997.00,51.999
998.00,51.977
999.00,51.992
1000.00,52.007
1001.00,51.939
1002.00,51.951
1003.00,51.951
1004.00,51.912
1005.00,51.893
1006.00,51.931
1007.00,51.888
1008.00,51.861
1009.00,51.852
1010.00,51.866
1011.00,51.838
1012.00,51.828
1013.00,51.834
1014.00,51.782
1015.00,51.786
1016.00,51.760
1017.00,51.754
1018.00,51.735
1019.00,51.697
1020.00,51.697
1021.00,51.669
1022.00,51.674
1023.00,51.611
1024.00,51.640
1025.00,51.623
1026.00,51.604
1027.00,51.594
1028.00,51.596
1029.00,51.572
1030.00,51.537
1031.00,51.554
1032.00,51.508
1033.00,51.510
1034.00,51.473
1035.00,51.440
1036.00,51.429
1037.00,51.397
1038.00,51.385
1039.00,51.363
1040.00,51.356
1041.00,51.318
1042.00,51.318
1043.00,51.295
1044.00,51.331
1045.00,51.312
1046.00,51.292
1047.00,51.321
1048.00,51.333
1049.00,51.339
1050.00,51.339
1051.00,51.382
1052.00,51.364
1053.00,51.364
1054.00,51.371
1055.00,51.388
1056.00,51.397
1057.00,51.403
1058.00,51.395
1059.00,51.386
1060.00,51.408
1061.00,51.415
1062.00,51.374
1063.00,51.368
1064.00,51.376
1065.00,51.353
1066.00,51.343
1067.00,51.336
1068.00,51.359
1069.00,51.324
1070.00,51.302
1071.00,51.286
1072.00,51.315
1073.00,51.281
1074.00,51.277
1075.00,51.276
1076.00,51.278
1077.00,51.259
1078.00,51.231
1079.00,51.237
1080.00,51.238
1081.00,51.216
1082.00,51.216
1083.00,51.206
1084.00,51.192
1085.00,51.202
1086.00,51.180
1087.00,51.182
1088.00,51.161
1089.00,51.151
1090.00,51.150
1091.00,51.174
1092.00,51.143
1093.00,51.133
1094.00,51.117
1095.00,51.104
1096.00,51.080
1097.00,51.084
1098.00,51.056
1099.00,51.062
1100.00,51.043
1101.00,51.053
1102.00,51.041
1103.00,51.037
1104.00,51.030
1105.00,51.023
1106.00,51.003
1107.00,50.992
1108.00,50.986
1109.00,50.980
1110.00,50.979
1111.00,50.973
1112.00,50.949
1113.00,50.949
1114.00,50.930
1115.00,50.936
1116.00,50.927
1117.00,50.907
1118.00,50.896
1119.00,50.889
1120.00,50.889
1121.00,50.876
1122.00,50.867
1123.00,50.867
1124.00,50.850
1125.00,50.844
1126.00,50.834
1127.00,50.849
1128.00,50.822
1129.00,50.820
1130.00,50.796
1131.00,50.794
1132.00,50.782
1133.00,50.781
1134.00,50.787
1135.00,50.785
1136.00,50.764
1137.00,50.785
1138.00,50.773
1139.00,50.772
1140.00,50.759
1141.00,50.758
1142.00,50.737
1143.00,50.753
1144.00,50.714
1145.00,50.727
1146.00,50.729
1147.00,50.719
1148.00,50.719
1149.00,50.739
1150.00,50.740
1151.00,50.732
1152.00,50.721
1153.00,50.720
1154.00,50.703
1155.00,50.708
1156.00,50.692
1157.00,50.707
1158.00,50.696
1159.00,50.683
1160.00,50.696
1161.00,50.703
1162.00,50.696
1163.00,50.669
1164.00,50.680
1165.00,50.675
1166.00,50.672
1167.00,50.667
1168.00,50.684
1169.00,50.659
1170.00,50.650
1171.00,50.634
1172.00,50.635
1173.00,50.634
1174.00,50.640
1175.00,50.636
1176.00,50.643
1177.00,50.623
1178.00,50.629
1179.00,50.650
1180.00,50.628
1181.00,50.649
1182.00,50.644
1183.00,50.620
1184.00,50.616
1185.00,50.626
1186.00,50.615
1187.00,50.620
1188.00,50.613
1189.00,50.614
1190.00,50.618
1191.00,50.613
1192.00,50.629
1193.00,50.632
1194.00,50.630
1195.00,50.609
1196.00,50.636
1197.00,50.632
1198.00,50.609
1199.00,50.610
1200.00,50.623
1201.00,50.647
1202.00,50.610
1203.00,50.606
1204.00,50.606
1205.00,50.614
1206.00,50.606
1207.00,50.613
1208.00,50.593
1209.00,50.601
1210.00,50.596
1211.00,50.591
1212.00,50.627
1213.00,50.576
1214.00,50.605
1215.00,50.597
1216.00,50.596
1217.00,50.597
1218.00,50.585
1219.00,50.614
1220.00,50.594
1221.00,50.602
1222.00,50.586
1223.00,50.617
1224.00,50.592
1225.00,50.573
1226.00,50.585
1227.00,50.571
1228.00,50.594
1229.00,50.583
1230.00,50.612
1231.00,50.598
1232.00,50.612
1233.00,50.627
1234.00,50.634
1235.00,50.617
1236.00,50.616
1237.00,50.634
1238.00,50.621
1239.00,50.634
1240.00,50.612
1241.00,50.619
1242.00,50.631
1243.00,50.633
1244.00,50.631
1245.00,50.649
1246.00,50.646
1247.00,50.636
1248.00,50.648
1249.00,50.647
1250.00,50.649
1251.00,50.630
1252.00,50.651
1253.00,50.640
1254.00,50.656
1255.00,50.635
1256.00,50.624
1257.00,50.623
1258.00,50.676
1259.00,50.694
1260.00,50.686
1261.00,50.681
1262.00,50.671
1263.00,50.680
1264.00,50.680
1265.00,50.678
1266.00,50.683
1267.00,50.706
1268.00,50.687
1269.00,50.697
1270.00,50.728
1271.00,50.718
1272.00,50.723
1273.00,50.735
1274.00,50.724
1275.00,50.727
1276.00,50.711
1277.00,50.732
1278.00,50.753
1279.00,50.743
1280.00,50.744
1281.00,50.758
1282.00,50.753
1283.00,50.748
1284.00,50.757
1285.00,50.742
1286.00,50.772
1287.00,50.793
1288.00,50.772
1289.00,50.779
1290.00,50.824
1291.00,50.789
1292.00,50.790
1293.00,50.775
1294.00,50.804
1295.00,50.810
1296.00,50.792
1297.00,50.816
1298.00,50.829
1299.00,50.815
1300.00,50.841
1301.00,50.823
1302.00,50.839
1303.00,50.840
1304.00,50.829
1305.00,50.850
1306.00,50.849
1307.00,50.861
1308.00,50.858
1309.00,50.855
1310.00,50.869
1311.00,50.868
1312.00,50.859
1313.00,50.878
1314.00,50.896
1315.00,50.901
1316.00,50.882
1317.00,50.911
1318.00,50.901
1319.00,50.905
1320.00,50.918
1321.00,51.091
1322.00,51.082
1323.00,51.068
1324.00,51.068
1325.00,51.056
1326.00,51.071
1327.00,51.053
1328.00,51.058
1329.00,51.047
1330.00,51.056
1331.00,51.060
1332.00,51.063
1333.00,51.056
1334.00,51.111
1335.00,51.100
1336.00,51.112
1337.00,51.135
1338.00,51.220
1339.00,51.263
1340.00,51.321
1341.00,51.375
1342.00,51.433
1343.00,51.494
1344.00,51.531
1345.00,51.578
1346.00,51.626
1347.00,51.646
1348.00,51.668
1349.00,51.695
1350.00,51.722
1351.00,51.741
1352.00,51.739
1353.00,51.744
1354.00,51.757
1355.00,51.713
1356.00,51.766
1357.00,51.747
1358.00,51.750
1359.00,51.766
1360.00,51.757
1361.00,51.775
1362.00,51.802
1363.00,51.778
1364.00,51.789
1365.00,51.778
1366.00,51.825
1367.00,51.785
1368.00,51.786
1369.00,51.785
1370.00,51.792
1371.00,51.776
1372.00,51.755
1373.00,51.790
1374.00,51.782
1375.00,51.751
1376.00,51.793
1377.00,51.740
1378.00,51.784
1379.00,51.747
1380.00,51.743
1381.00,51.786
1382.00,51.683
1383.00,51.727
1384.00,51.672
1385.00,51.676
1386.00,51.767
1387.00,51.719
1388.00,51.688
1389.00,51.662
1390.00,51.751
1391.00,51.732
1392.00,51.713
1393.00,51.744
1394.00,51.748
1395.00,51.723
1396.00,51.666
1397.00,51.719
1398.00,51.739
1399.00,51.765
1400.00,51.733
1401.00,51.694
1402.00,51.781
1403.00,51.744
1404.00,51.758
1405.00,51.761
1406.00,51.801
1407.00,51.787
1408.00,51.774
1409.00,51.813
1410.00,51.816
1411.00,51.770
1412.00,51.813
1413.00,51.798
1414.00,51.800
1415.00,51.807
1416.00,51.833
1417.00,51.855
1418.00,51.829
1419.00,51.834
1420.00,51.853
1421.00,51.907
1422.00,51.882
1423.00,51.916
1424.00,51.922
1425.00,51.924
1426.00,51.923
1427.00,51.942
1428.00,51.931
1429.00,51.940
1430.00,51.966
1431.00,52.002
1432.00,52.007
1433.00,52.022
1434.00,52.013
1435.00,52.070
1436.00,52.072
1437.00,52.065
1438.00,52.080
1439.00,52.102
1440.00,52.104
1441.00,52.119
1442.00,52.147
1443.00,52.160
1444.00,52.200
1445.00,52.169
1446.00,52.194
1447.00,52.226
1448.00,52.248
1449.00,52.253
1450.00,52.250
1451.00,52.281
1452.00,52.304
1453.00,52.305
1454.00,52.326
1455.00,52.342
1456.00,52.365
1457.00,52.350
1458.00,52.386
1459.00,52.394
1460.00,52.421
1461.00,52.427
1462.00,52.462
1463.00,52.468
1464.00,52.476
1465.00,52.495
1466.00,52.487
1467.00,52.505
1468.00,52.546
1469.00,52.512
1470.00,52.533
1471.00,52.554
1472.00,52.566
1473.00,52.569
1474.00,52.594
1475.00,52.607
1476.00,52.612
1477.00,52.601
1478.00,52.633
1479.00,52.654
1480.00,52.650
1481.00,52.659
1482.00,52.701
1483.00,52.693
1484.00,52.702
1485.00,52.712
1486.00,52.708
1487.00,52.733
1488.00,52.758
1489.00,52.733
1490.00,52.748
1491.00,52.773
1492.00,52.811
1493.00,52.779
1494.00,52.838
1495.00,52.834
1496.00,52.849
1497.00,52.829
1498.00,52.830
1499.00,52.850
1500.00,52.870
1501.00, 
1502.00, 
1503.00, 
1504.00, 
1505.00, 
1506.00, 
1507.00, 
1508.00, 
1509.00, 
1510.00, 
1511.00, 
1512.00, 
1513.00, 
1514.00, 
1515.00, 
1516.00, 
1517.00, 
1518.00, 
1519.00, 
1520.00, 
1521.00, 
1522.00, 
1523.00, 
1524.00, 
1525.00, 
1526.00, 
1527.00, 
1528.00, 
1529.00, 
1530.00, 
1531.00, 
1532.00, 
1533.00, 
1534.00, 
1535.00, 
1536.00, 
1537.00, 
1538.00, 
1539.00, 
1540.00, 
1541.00, 
1542.00, 
1543.00, 
1544.00, 
1545.00, 
1546.00, 
1547.00, 
1548.00, 
1549.00, 
1550.00, 
1551.00, 
1552.00, 
1553.00, 
1554.00, 
1555.00, 
1556.00, 
1557.00, 
1558.00, 
1559.00, 
1560.00, 
1561.00, 
1562.00, 
1563.00, 
1564.00, 
1565.00, 
1566.00, 
1567.00, 
1568.00, 
1569.00, 
1570.00, 
1571.00, 
1572.00, 
1573.00, 
1574.00, 
1575.00, 
1576.00, 
1577.00, 
1578.00, 
1579.00, 
1580.00, 
1581.00, 
1582.00, 
1583.00, 
1584.00, 
1585.00, 
1586.00, 
1587.00, 
1588.00, 
1589.00, 
1590.00, 
1591.00, 
1592.00, 
1593.00, 
1594.00, 
1595.00, 
1596.00, 
1597.00, 
1598.00, 
1599.00, 
1600.00, 
1601.00, 
1602.00, 
1603.00, 
1604.00, 
1605.00, 
1606.00, 
1607.00, 
1608.00, 
1609.00, 
1610.00, 
1611.00, 
1612.00, 
1613.00, 
1614.00, 
1615.00, 
1616.00, 
1617.00, 
1618.00, 
1619.00, 
1620.00, 
1621.00, 
1622.00, 
1623.00, 
1624.00, 
1625.00, 
1626.00, 
1627.00, 
1628.00, 
1629.00, 
1630.00, 
1631.00, 
1632.00, 
1633.00, 
1634.00, 
1635.00, 
1636.00, 
1637.00, 
1638.00, 
1639.00, 
1640.00, 
1641.00, 
1642.00, 
1643.00, 
1644.00, 
1645.00, 
1646.00, 
1647.00, 
1648.00, 
1649.00, 
1650.00, 
1651.00, 
1652.00, 
1653.00, 
1654.00, 
1655.00, 
1656.00, 
1657.00, 
1658.00, 
1659.00, 
1660.00, 
1661.00, 
1662.00, 
1663.00, 
1664.00, 
1665.00, 
1666.00, 
1667.00, 
1668.00, 
1669.00, 
1670.00, 
1671.00, 
1672.00, 
1673.00, 
1674.00, 
1675.00, 
1676.00, 
1677.00, 
1678.00, 
1679.00, 
1680.00, 
1681.00, 
1682.00, 
1683.00, 
1684.00, 
1685.00, 
1686.00, 
1687.00, 
1688.00, 
1689.00, 
1690.00, 
1691.00, 
1692.00, 
1693.00, 
1694.00, 
1695.00, 
1696.00, 
1697.00, 
1698.00, 
1699.00, 
1700.00, 
1701.00, 
1702.00, 
1703.00, 
1704.00, 
1705.00, 
1706.00, 
1707.00, 
1708.00, 
1709.00, 
1710.00, 
1711.00, 
1712.00, 
1713.00, 
1714.00, 
1715.00, 
1716.00, 
1717.00, 
1718.00, 
1719.00, 
1720.00, 
1721.00, 
1722.00, 
1723.00, 
1724.00, 
1725.00, 
1726.00, 
1727.00, 
1728.00, 
1729.00, 
1730.00, 
1731.00, 
1732.00, 
1733.00, 
1734.00, 
1735.00, 
1736.00, 
1737.00, 
1738.00, 
1739.00, 
1740.00, 
1741.00, 
1742.00, 
1743.00, 
1744.00, 
1745.00, 
1746.00, 
1747.00, 
1748.00, 
1749.00, 
1750.00, 
1751.00, 
1752.00, 
1753.00, 
1754.00, 
1755.00, 
1756.00, 
1757.00, 
1758.00, 
1759.00, 
1760.00, 
1761.00, 
1762.00, 
1763.00, 
1764.00, 
1765.00, 
1766.00, 
1767.00, 
1768.00, 
1769.00, 
1770.00, 
1771.00, 
1772.00, 
1773.00, 
1774.00, 
1775.00, 
1776.00, 
1777.00, 
1778.00, 
1779.00, 
1780.00, 
1781.00, 
1782.00, 
1783.00, 
1784.00, 
1785.00, 
1786.00, 
1787.00, 
1788.00, 
1789.00, 
1790.00, 
1791.00, 
1792.00, 
1793.00, 
1794.00, 
1795.00, 
1796.00, 
1797.00, 
1798.00, 
1799.00, 
1800.00, 
1801.00, 
1802.00, 
1803.00, 
1804.00, 
1805.00, 
1806.00, 
1807.00, 
1808.00, 
1809.00, 
1810.00, 
1811.00, 
1812.00, 
1813.00, 
1814.00, 
1815.00, 
1816.00, 
1817.00, 
1818.00, 
1819.00, 
1820.00, 
1821.00, 
1822.00, 
1823.00, 
1824.00, 
1825.00, 
1826.00, 
1827.00, 
1828.00, 
1829.00, 
1830.00, 
1831.00, 
1832.00, 
1833.00, 
1834.00, 
1835.00, 
1836.00, 
1837.00, 
1838.00, 
1839.00, 
1840.00, 
1841.00, 
1842.00, 
1843.00, 
1844.00, 
1845.00, 
1846.00, 
1847.00, 
1848.00, 
1849.00, 
1850.00, 
1851.00, 
1852.00, 
1853.00, 
1854.00, 
1855.00, 
1856.00, 
1857.00, 
1858.00, 
1859.00, 
1860.00, 
1861.00, 
1862.00, 
1863.00, 
1864.00, 
1865.00, 
1866.00, 
1867.00, 
1868.00, 
1869.00, 
1870.00, 
1871.00, 
1872.00, 
1873.00, 
1874.00, 
1875.00, 
1876.00, 
1877.00, 
1878.00, 
1879.00, 
1880.00, 
1881.00, 
1882.00, 
1883.00, 
1884.00, 
1885.00, 
1886.00, 
1887.00, 
1888.00, 
1889.00, 
1890.00, 
1891.00, 
1892.00, 
1893.00, 
1894.00, 
1895.00, 
1896.00, 
1897.00, 
1898.00, 
1899.00, 
1900.00, 
1901.00, 
1902.00, 
1903.00, 
1904.00, 
1905.00, 
1906.00, 
1907.00, 
1908.00, 
1909.00, 
1910.00, 
1911.00, 
1912.00, 
1913.00, 
1914.00, 
1915.00, 
1916.00, 
1917.00, 
1918.00, 
1919.00, 
1920.00, 
1921.00, 
1922.00, 
1923.00, 
1924.00, 
1925.00, 
1926.00, 
1927.00, 
1928.00, 
1929.00, 
1930.00, 
1931.00, 
1932.00, 
1933.00, 
1934.00, 
1935.00, 
1936.00, 
1937.00, 
1938.00, 
1939.00, 
1940.00, 
1941.00, 
1942.00, 
1943.00, 
1944.00, 
1945.00, 
1946.00, 
1947.00, 
1948.00, 
1949.00, 
1950.00, 
1951.00, 
1952.00, 
1953.00, 
1954.00, 
1955.00, 
1956.00, 
1957.00, 
1958.00, 
1959.00, 
1960.00, 
1961.00, 
1962.00, 
1963.00, 
1964.00, 
1965.00, 
1966.00, 
1967.00, 
1968.00, 
1969.00, 
1970.00, 
1971.00, 
1972.00, 
1973.00, 
1974.00, 
1975.00, 
1976.00, 
1977.00, 
1978.00, 
1979.00, 
1980.00, 
1981.00, 
1982.00, 
1983.00, 
1984.00, 
1985.00, 
1986.00, 
1987.00, 
1988.00, 
1989.00, 
1990.00, 
1991.00, 
1992.00, 
1993.00, 
1994.00, 
1995.00, 
1996.00, 
1997.00, 
1998.00, 
1999.00, 
2000.00, 
2001.00, 
2002.00, 
2003.00, 
2004.00, 
2005.00, 
2006.00, 
2007.00, 
2008.00, 
2009.00, 
2010.00, 
2011.00, 
2012.00, 
2013.00, 
2014.00, 
2015.00, 
2016.00, 
2017.00, 
2018.00, 
2019.00, 
2020.00, 
2021.00, 
2022.00, 
2023.00, 
2024.00, 
2025.00, 
2026.00, 
2027.00, 
2028.00, 
2029.00, 
2030.00, 
2031.00, 
2032.00, 
2033.00, 
2034.00, 
2035.00, 
2036.00, 
2037.00, 
2038.00, 
2039.00, 
2040.00, 
2041.00, 
2042.00, 
2043.00, 
2044.00, 
2045.00, 
2046.00, 
2047.00, 
2048.00, 
2049.00, 
2050.00, 
2051.00, 
2052.00, 
2053.00, 
2054.00, 
2055.00, 
2056.00, 
2057.00, 
2058.00, 
2059.00, 
2060.00, 
2061.00, 
2062.00, 
2063.00, 
2064.00, 
2065.00, 
2066.00, 
2067.00, 
2068.00, 
2069.00, 
2070.00, 
2071.00, 
2072.00, 
2073.00, 
2074.00, 
2075.00, 
2076.00, 
2077.00, 
2078.00, 
2079.00, 
2080.00, 
2081.00, 
2082.00, 
2083.00, 
2084.00, 
2085.00, 
2086.00, 
2087.00, 
2088.00, 
2089.00, 
2090.00, 
2091.00, 
2092.00, 
2093.00, 
2094.00, 
2095.00, 
2096.00, 
2097.00, 
2098.00, 
2099.00, 
2100.00, 
2101.00, 
2102.00, 
2103.00, 
2104.00, 
2105.00, 
2106.00, 
2107.00, 
2108.00, 
2109.00, 
2110.00, 
2111.00, 
2112.00, 
2113.00, 
2114.00, 
2115.00, 
2116.00, 
2117.00, 
2118.00, 
2119.00, 
2120.00, 
2121.00, 
2122.00, 
2123.00, 
2124.00, 
2125.00, 
2126.00, 
2127.00, 
2128.00, 
2129.00, 
2130.00, 
2131.00, 
2132.00, 
2133.00, 
2134.00, 
2135.00, 
2136.00, 
2137.00, 
2138.00, 
2139.00, 
2140.00, 
2141.00, 
2142.00, 
2143.00, 
2144.00, 
2145.00, 
2146.00, 
2147.00, 
2148.00, 
2149.00, 
2150.00, 
2151.00, 
2152.00, 
2153.00, 
2154.00, 
2155.00, 
2156.00, 
2157.00, 
2158.00, 
2159.00, 
2160.00, 
2161.00, 
2162.00, 
2163.00, 
2164.00, 
2165.00, 
2166.00, 
2167.00, 
2168.00, 
2169.00, 
2170.00, 
2171.00, 
2172.00, 
2173.00, 
2174.00, 
2175.00, 
2176.00, 
2177.00, 
2178.00, 
2179.00, 
2180.00, 
2181.00, 
2182.00, 
2183.00, 
2184.00, 
2185.00, 
2186.00, 
2187.00, 
2188.00, 
2189.00, 
2190.00, 
2191.00, 
2192.00, 
2193.00, 
2194.00, 
2195.00, 
2196.00, 
2197.00, 
2198.00, 
2199.00, 
2200.00, 
2201.00, 
2202.00, 
2203.00, 
2204.00, 
2205.00, 
2206.00, 
2207.00, 
2208.00, 
2209.00, 
2210.00, 
2211.00, 
2212.00, 
2213.00, 
2214.00, 
2215.00, 
2216.00, 
2217.00, 
2218.00, 
2219.00, 
2220.00, 
2221.00, 
2222.00, 
2223.00, 
2224.00, 
2225.00, 
2226.00, 
2227.00, 
2228.00, 
2229.00, 
2230.00, 
2231.00, 
2232.00, 
2233.00, 
2234.00, 
2235.00, 
2236.00, 
2237.00, 
2238.00, 
2239.00, 
2240.00, 
2241.00, 
2242.00, 
2243.00, 
2244.00, 
2245.00, 
2246.00, 
2247.00, 
2248.00, 
2249.00, 
2250.00, 
2251.00, 
2252.00, 
2253.00, 
2254.00, 
2255.00, 
2256.00, 
2257.00, 
2258.00, 
2259.00, 
2260.00, 
2261.00, 
2262.00, 
2263.00, 
2264.00, 
2265.00, 
2266.00, 
2267.00, 
2268.00, 
2269.00, 
2270.00, 
2271.00, 
2272.00, 
2273.00, 
2274.00, 
2275.00, 
2276.00, 
2277.00, 
2278.00, 
2279.00, 
2280.00, 
2281.00, 
2282.00, 
2283.00, 
2284.00, 
2285.00, 
2286.00, 
2287.00, 
2288.00, 
2289.00, 
2290.00, 
2291.00, 
2292.00, 
2293.00, 
2294.00, 
2295.00, 
2296.00, 
2297.00, 
2298.00, 
2299.00, 
2300.00, 
2301.00, 
2302.00, 
2303.00, 
2304.00, 
2305.00, 
2306.00, 
2307.00, 
2308.00, 
2309.00, 
2310.00, 
2311.00, 
2312.00, 
2313.00, 
2314.00, 
2315.00, 
2316.00, 
2317.00, 
2318.00, 
2319.00, 
2320.00, 
2321.00, 
2322.00, 
2323.00, 
2324.00, 
2325.00, 
2326.00, 
2327.00, 
2328.00, 
2329.00, 
2330.00, 
2331.00, 
2332.00, 
2333.00, 
2334.00, 
2335.00, 
2336.00, 
2337.00, 
2338.00, 
2339.00, 
2340.00, 
2341.00, 
2342.00, 
2343.00, 
2344.00, 
2345.00, 
2346.00, 
2347.00, 
2348.00, 
2349.00, 
2350.00, 
2351.00, 
2352.00, 
2353.00, 
2354.00, 
2355.00, 
2356.00, 
2357.00, 
2358.00, 
2359.00, 
2360.00, 
2361.00, 
2362.00, 
2363.00, 
2364.00, 
2365.00, 
2366.00, 
2367.00, 
2368.00, 
2369.00, 
2370.00, 
2371.00, 
2372.00, 
2373.00, 
2374.00, 
2375.00, 
2376.00, 
2377.00, 
2378.00, 
2379.00, 
2380.00, 
2381.00, 
2382.00, 
2383.00, 
2384.00, 
2385.00, 
2386.00, 
2387.00, 
2388.00, 
2389.00, 
2390.00, 
2391.00, 
2392.00, 
2393.00, 
2394.00, 
2395.00, 
2396.00, 
2397.00, 
2398.00, 
2399.00, 
2400.00, 
2401.00, 
2402.00, 
2403.00, 
2404.00, 
2405.00, 
2406.00, 
2407.00, 
2408.00, 
2409.00, 
2410.00, 
2411.00, 
2412.00, 
2413.00, 
2414.00, 
2415.00, 
2416.00, 
2417.00, 
2418.00, 
2419.00, 
2420.00, 
2421.00, 
2422.00, 
2423.00, 
2424.00, 
2425.00, 
2426.00, 
2427.00, 
2428.00, 
2429.00, 
2430.00, 
2431.00, 
2432.00, 
2433.00, 
2434.00, 
2435.00, 
2436.00, 
2437.00, 
2438.00, 
2439.00, 
2440.00, 
2441.00, 
2442.00, 
2443.00, 
2444.00, 
2445.00, 
2446.00, 
2447.00, 
2448.00, 
2449.00, 
2450.00, 
2451.00, 
2452.00, 
2453.00, 
2454.00, 
2455.00, 
2456.00, 
2457.00, 
2458.00, 
2459.00, 
2460.00, 
2461.00, 
2462.00, 
2463.00, 
2464.00, 
2465.00, 
2466.00, 
2467.00, 
2468.00, 
2469.00, 
2470.00, 
2471.00, 
2472.00, 
2473.00, 
2474.00, 
2475.00, 
2476.00, 
2477.00, 
2478.00, 
2479.00, 
2480.00, 
2481.00, 
2482.00, 
2483.00, 
2484.00, 
2485.00, 
2486.00, 
2487.00, 
2488.00, 
2489.00, 
2490.00, 
2491.00, 
2492.00, 
2493.00, 
2494.00, 
2495.00, 
2496.00, 
2497.00, 
2498.00, 
2499.00, 
2500.00, 
2501.00, 
2502.00, 
2503.00, 
2504.00, 
2505.00, 
2506.00, 
2507.00, 
2508.00, 
2509.00, 
2510.00, 
2511.00, 
2512.00, 
2513.00, 
2514.00, 
2515.00, 
2516.00, 
2517.00, 
2518.00, 
2519.00, 
2520.00, 
2521.00, 
2522.00, 
2523.00, 
2524.00, 
2525.00, 
2526.00, 
2527.00, 
2528.00, 
2529.00, 
2530.00, 
2531.00, 
2532.00, 
2533.00, 
2534.00, 
2535.00, 
2536.00, 
2537.00, 
2538.00, 
2539.00, 
2540.00, 
2541.00, 
2542.00, 
2543.00, 
2544.00, 
2545.00, 
2546.00, 
2547.00, 
2548.00, 
2549.00, 
2550.00, 
2551.00, 
2552.00, 
2553.00, 
2554.00, 
2555.00, 
2556.00, 
2557.00, 
2558.00, 
2559.00, 
2560.00, 
2561.00, 
2562.00, 
2563.00, 
2564.00, 
2565.00, 
2566.00, 
2567.00, 
2568.00, 
2569.00, 
2570.00, 
2571.00, 
2572.00, 
2573.00, 
2574.00, 
2575.00, 
2576.00, 
2577.00, 
2578.00, 
2579.00, 
2580.00, 
2581.00, 
2582.00, 
2583.00, 
2584.00, 
2585.00, 
2586.00, 
2587.00, 
2588.00, 
2589.00, 
2590.00, 
2591.00, 
2592.00, 
2593.00, 
2594.00, 
2595.00, 
2596.00, 
2597.00, 
2598.00, 
2599.00, 
2600.00, 
