"2cP3 - RawData"
"Wavelength nm.","T%"
200.00,0.000
201.00,-0.001
202.00,-0.002
203.00,0.001
204.00,0.000
205.00,0.000
206.00,-0.001
207.00,0.002
208.00,0.002
209.00,-0.002
210.00,0.001
211.00,0.000
212.00,0.003
213.00,0.002
214.00,0.000
215.00,0.000
216.00,0.005
217.00,0.005
218.00,-0.002
219.00,0.001
220.00,-0.000
221.00,0.000
222.00,0.003
223.00,0.001
224.00,0.003
225.00,-0.002
226.00,-0.000
227.00,0.002
228.00,0.000
229.00,0.002
230.00,0.002
231.00,0.000
232.00,-0.002
233.00,-0.002
234.00,0.001
235.00,-0.000
236.00,-0.001
237.00,0.002
238.00,0.002
239.00,-0.001
240.00,-0.001
241.00,0.001
242.00,0.000
243.00,0.001
244.00,-0.001
245.00,0.001
246.00,-0.001
247.00,0.000
248.00,0.001
249.00,0.001
250.00,-0.001
251.00,-0.001
252.00,-0.001
253.00,-0.000
254.00,-0.001
255.00,0.001
256.00,-0.000
257.00,-0.000
258.00,-0.001
259.00,0.001
260.00,0.001
261.00,0.001
262.00,0.002
263.00,0.000
264.00,0.001
265.00,0.000
266.00,0.001
267.00,-0.002
268.00,0.000
269.00,0.001
270.00,-0.001
271.00,-0.002
272.00,-0.000
273.00,-0.000
274.00,-0.000
275.00,0.000
276.00,0.000
277.00,0.001
278.00,0.000
279.00,0.001
280.00,-0.000
281.00,0.000
282.00,-0.001
283.00,0.001
284.00,0.002
285.00,0.000
286.00,0.001
287.00,-0.000
288.00,0.001
289.00,0.002
290.00,-0.000
291.00,0.001
292.00,-0.002
293.00,-0.000
294.00,0.002
295.00,0.000
296.00,0.000
297.00,-0.000
298.00,0.000
299.00,0.000
300.00,0.003
301.00,0.002
302.00,0.004
303.00,0.005
304.00,0.011
305.00,0.016
306.00,0.029
307.00,0.041
308.00,0.068
309.00,0.100
310.00,0.142
311.00,0.194
312.00,0.267
313.00,0.365
314.00,0.489
315.00,0.632
316.00,0.804
317.00,1.009
318.00,1.240
319.00,1.536
320.00,1.864
321.00,2.228
322.00,2.664
323.00,3.130
324.00,3.627
325.00,4.140
326.00,4.657
327.00,5.259
328.00,5.883
329.00,6.528
330.00,7.199
331.00,7.863
332.00,8.578
333.00,9.294
334.00,9.949
335.00,10.685
336.00,11.385
337.00,12.084
338.00,12.746
339.00,13.417
340.00,14.092
341.00,14.748
342.00,15.429
343.00,15.925
344.00,16.408
345.00,17.025
346.00,17.481
347.00,18.009
348.00,18.494
349.00,18.930
350.00,19.336
351.00,19.692
352.00,20.044
353.00,20.429
354.00,20.746
355.00,21.020
356.00,21.305
357.00,21.574
358.00,21.818
359.00,22.061
360.00,22.251
361.00,22.431
362.00,22.609
363.00,22.820
364.00,22.941
365.00,23.119
366.00,23.229
367.00,23.336
368.00,23.376
369.00,23.464
370.00,23.534
371.00,23.604
372.00,23.606
373.00,23.599
374.00,23.606
375.00,23.594
376.00,23.560
377.00,23.558
378.00,23.504
379.00,23.464
380.00,23.389
381.00,23.417
382.00,23.445
383.00,23.431
384.00,23.484
385.00,23.555
386.00,23.563
387.00,23.633
388.00,23.663
389.00,23.684
390.00,23.721
391.00,23.772
392.00,23.817
393.00,23.831
394.00,23.854
395.00,23.851
396.00,23.851
397.00,23.850
398.00,23.887
399.00,23.884
400.00,23.898
401.00,23.894
402.00,23.890
403.00,23.913
404.00,23.902
405.00,23.867
406.00,23.865
407.00,23.844
408.00,23.862
409.00,23.762
410.00,23.758
411.00,23.669
412.00,23.720
413.00,23.744
414.00,23.708
415.00,23.718
416.00,23.754
417.00,23.746
418.00,23.778
419.00,23.841
420.00,23.846
421.00,23.894
422.00,23.900
423.00,23.929
424.00,23.976
425.00,24.001
426.00,24.043
427.00,24.095
428.00,24.122
429.00,24.121
430.00,24.182
431.00,24.221
432.00,24.251
433.00,24.314
434.00,24.347
435.00,24.415
436.00,24.493
437.00,24.538
438.00,24.630
439.00,24.624
440.00,24.737
441.00,24.822
442.00,24.891
443.00,24.986
444.00,25.072
445.00,25.116
446.00,25.230
447.00,25.271
448.00,25.383
449.00,25.490
450.00,25.571
451.00,25.628
452.00,25.751
453.00,25.871
454.00,25.951
455.00,26.048
456.00,26.133
457.00,26.274
458.00,26.362
459.00,26.460
460.00,26.584
461.00,26.664
462.00,26.794
463.00,26.963
464.00,27.051
465.00,27.139
466.00,27.263
467.00,27.371
468.00,27.510
469.00,27.629
470.00,27.711
471.00,27.812
472.00,27.890
473.00,27.979
474.00,28.115
475.00,28.187
476.00,28.289
477.00,28.435
478.00,28.543
479.00,28.689
480.00,28.803
481.00,28.910
482.00,29.078
483.00,29.193
484.00,29.360
485.00,29.534
486.00,29.625
487.00,29.768
488.00,29.923
489.00,30.063
490.00,30.182
491.00,30.316
492.00,30.469
493.00,30.602
494.00,30.707
495.00,30.790
496.00,30.782
497.00,30.990
498.00,31.165
499.00,31.312
500.00,31.393
501.00,31.499
502.00,31.645
503.00,31.748
504.00,31.860
505.00,31.954
506.00,32.126
507.00,32.124
508.00,32.208
509.00,32.330
510.00,32.519
511.00,32.722
512.00,32.837
513.00,32.927
514.00,33.096
515.00,33.170
516.00,33.324
517.00,33.409
518.00,33.531
519.00,33.616
520.00,33.714
521.00,33.776
522.00,33.846
523.00,33.964
524.00,34.009
525.00,34.153
526.00,34.299
527.00,34.354
528.00,34.417
529.00,34.554
530.00,34.668
531.00,34.825
532.00,34.901
533.00,34.973
534.00,35.081
535.00,35.153
536.00,35.239
537.00,35.298
538.00,35.396
539.00,35.494
540.00,35.543
541.00,35.611
542.00,35.648
543.00,35.761
544.00,35.851
545.00,35.881
546.00,35.960
547.00,36.074
548.00,36.127
549.00,36.157
550.00,36.289
551.00,36.290
552.00,36.389
553.00,36.499
554.00,36.550
555.00,36.621
556.00,36.718
557.00,36.815
558.00,36.892
559.00,36.927
560.00,37.037
561.00,37.127
562.00,37.169
563.00,37.208
564.00,37.287
565.00,37.313
566.00,37.342
567.00,37.402
568.00,37.423
569.00,37.496
570.00,37.488
571.00,37.565
572.00,37.630
573.00,37.642
574.00,37.729
575.00,37.738
576.00,37.768
577.00,37.855
578.00,37.901
579.00,37.952
580.00,38.025
581.00,38.137
582.00,38.245
583.00,38.235
584.00,38.317
585.00,38.341
586.00,38.455
587.00,38.605
588.00,38.652
589.00,38.642
590.00,38.689
591.00,38.742
592.00,38.759
593.00,38.811
594.00,38.891
595.00,38.920
596.00,39.024
597.00,39.136
598.00,39.097
599.00,39.160
600.00,39.205
601.00,39.296
602.00,39.350
603.00,39.330
604.00,39.359
605.00,39.444
606.00,39.484
607.00,39.534
608.00,39.650
609.00,39.620
610.00,39.615
611.00,39.728
612.00,39.763
613.00,39.771
614.00,39.835
615.00,39.901
616.00,39.983
617.00,39.977
618.00,40.104
619.00,40.198
620.00,40.213
621.00,40.174
622.00,40.252
623.00,40.437
624.00,40.373
625.00,40.517
626.00,40.499
627.00,40.547
628.00,40.636
629.00,40.679
630.00,40.764
631.00,40.815
632.00,40.848
633.00,40.919
634.00,40.946
635.00,41.097
636.00,41.154
637.00,41.232
638.00,41.307
639.00,41.383
640.00,41.338
641.00,41.384
642.00,41.468
643.00,41.480
644.00,41.698
645.00,41.740
646.00,41.889
647.00,41.915
648.00,42.004
649.00,42.195
650.00,42.074
651.00,42.177
652.00,42.195
653.00,42.320
654.00,42.394
655.00,42.443
656.00,42.486
657.00,42.601
658.00,42.693
659.00,42.906
660.00,42.888
661.00,42.737
662.00,43.020
663.00,43.053
664.00,43.331
665.00,43.323
666.00,43.436
667.00,43.518
668.00,43.643
669.00,43.681
670.00,43.745
671.00,43.759
672.00,43.808
673.00,43.897
674.00,44.081
675.00,44.069
676.00,44.231
677.00,44.242
678.00,44.015
679.00,44.236
680.00,44.532
681.00,44.551
682.00,44.624
683.00,44.752
684.00,44.885
685.00,44.894
686.00,44.846
687.00,45.042
688.00,45.069
689.00,45.163
690.00,45.239
691.00,45.336
692.00,45.274
693.00,45.343
694.00,45.460
695.00,45.500
696.00,45.624
697.00,45.747
698.00,45.770
699.00,45.913
700.00,46.006
701.00,46.011
702.00,46.120
703.00,46.258
704.00,46.306
705.00,46.276
706.00,46.432
707.00,46.567
708.00,46.316
709.00,46.678
710.00,46.781
711.00,46.650
712.00,46.675
713.00,46.804
714.00,46.770
715.00,46.839
716.00,46.868
717.00,46.996
718.00,46.935
719.00,47.009
720.00,47.102
721.00,51.460
722.00,51.306
723.00,51.342
724.00,51.248
725.00,51.439
726.00,51.415
727.00,51.383
728.00,51.455
729.00,51.448
730.00,51.495
731.00,51.425
732.00,51.485
733.00,51.529
734.00,51.600
735.00,51.584
736.00,51.621
737.00,51.609
738.00,51.588
739.00,51.655
740.00,51.680
741.00,51.665
742.00,51.648
743.00,51.666
744.00,51.682
745.00,51.776
746.00,51.789
747.00,51.680
748.00,51.746
749.00,51.608
750.00,51.691
751.00,51.727
752.00,51.705
753.00,51.747
754.00,51.716
755.00,51.754
756.00,51.691
757.00,51.760
758.00,51.734
759.00,51.744
760.00,51.683
761.00,51.710
762.00,51.724
763.00,51.777
764.00,51.766
765.00,51.799
766.00,51.759
767.00,51.761
768.00,51.812
769.00,51.803
770.00,51.898
771.00,51.755
772.00,51.839
773.00,51.816
774.00,51.929
775.00,51.906
776.00,51.804
777.00,51.862
778.00,51.854
779.00,51.924
780.00,51.877
781.00,51.809
782.00,51.802
783.00,51.788
784.00,51.792
785.00,51.805
786.00,51.870
787.00,51.795
788.00,51.729
789.00,51.788
790.00,51.754
791.00,51.742
792.00,51.810
793.00,51.673
794.00,51.701
795.00,51.732
796.00,51.686
797.00,51.687
798.00,51.737
799.00,51.612
800.00,51.616
801.00,51.651
802.00,51.611
803.00,51.591
804.00,51.509
805.00,51.647
806.00,51.513
807.00,51.529
808.00,51.534
809.00,51.509
810.00,51.495
811.00,51.482
812.00,51.528
813.00,51.429
814.00,51.435
815.00,51.459
816.00,51.441
817.00,51.414
818.00,51.294
819.00,51.324
820.00,51.311
821.00,51.304
822.00,51.312
823.00,51.290
824.00,51.264
825.00,51.290
826.00,51.222
827.00,51.363
828.00,51.236
829.00,51.278
830.00,51.195
831.00,53.774
832.00,53.754
833.00,53.725
834.00,53.774
835.00,53.685
836.00,53.704
837.00,53.681
838.00,53.661
839.00,53.630
840.00,53.573
841.00,53.585
842.00,53.540
843.00,53.551
844.00,53.533
845.00,53.465
846.00,53.495
847.00,53.485
848.00,53.470
849.00,53.398
850.00,53.399
851.00,53.307
852.00,53.322
853.00,53.277
854.00,53.294
855.00,53.210
856.00,53.206
857.00,53.304
858.00,53.123
859.00,53.101
860.00,53.142
861.00,53.121
862.00,53.053
863.00,53.068
864.00,53.044
865.00,53.065
866.00,53.035
867.00,53.012
868.00,53.007
869.00,52.990
870.00,52.990
871.00,52.923
872.00,53.063
873.00,52.931
874.00,52.914
875.00,52.917
876.00,52.878
877.00,52.907
878.00,52.886
879.00,52.890
880.00,52.874
881.00,52.808
882.00,52.834
883.00,52.806
884.00,52.761
885.00,52.749
886.00,52.735
887.00,52.722
888.00,52.708
889.00,52.694
890.00,52.674
891.00,52.655
892.00,52.628
893.00,52.596
894.00,52.604
895.00,52.575
896.00,52.551
897.00,52.547
898.00,52.501
899.00,52.513
900.00,52.483
901.00,52.474
902.00,52.457
903.00,52.501
904.00,52.470
905.00,52.393
906.00,52.374
907.00,52.357
908.00,52.328
909.00,52.333
910.00,52.315
911.00,52.314
912.00,52.301
913.00,52.259
914.00,52.251
915.00,52.212
916.00,52.195
917.00,52.166
918.00,52.150
919.00,52.117
920.00,52.105
921.00,52.083
922.00,52.078
923.00,52.051
924.00,52.054
925.00,52.010
926.00,52.134
927.00,51.995
928.00,51.981
929.00,51.969
930.00,51.928
931.00,51.938
932.00,51.891
933.00,51.885
934.00,51.884
935.00,51.834
936.00,51.829
937.00,51.775
938.00,51.775
939.00,51.750
940.00,51.769
941.00,51.723
942.00,51.712
943.00,51.688
944.00,51.656
945.00,51.663
946.00,51.668
947.00,51.682
948.00,51.600
949.00,51.562
950.00,51.542
951.00,51.517
952.00,51.485
953.00,51.469
954.00,51.451
955.00,51.422
956.00,51.412
957.00,51.372
958.00,51.401
959.00,51.342
960.00,51.333
961.00,51.310
962.00,51.325
963.00,51.259
964.00,51.265
965.00,51.258
966.00,51.244
967.00,51.249
968.00,51.218
969.00,51.253
970.00,51.225
971.00,51.210
972.00,51.207
973.00,51.219
974.00,51.244
975.00,51.190
976.00,51.223
977.00,51.211
978.00,51.241
979.00,51.193
980.00,51.214
981.00,51.209
982.00,51.178
983.00,51.196
984.00,51.178
985.00,51.181
986.00,51.151
987.00,51.161
988.00,51.144
989.00,51.117
990.00,51.110
991.00,51.103
992.00,51.117
993.00,51.077
994.00,51.062
995.00,51.059
996.00,51.033
997.00,51.048
998.00,51.014
999.00,51.027
1000.00,50.993
1001.00,50.969
1002.00,50.990
1003.00,50.972
1004.00,50.937
1005.00,50.935
1006.00,50.958
1007.00,50.910
1008.00,50.890
1009.00,50.872
1010.00,50.865
1011.00,50.855
1012.00,50.814
1013.00,50.833
1014.00,50.799
1015.00,50.796
1016.00,50.766
1017.00,50.763
1018.00,50.740
1019.00,50.723
1020.00,50.714
1021.00,50.695
1022.00,50.699
1023.00,50.644
1024.00,50.658
1025.00,50.643
1026.00,50.631
1027.00,50.617
1028.00,50.606
1029.00,50.580
1030.00,50.569
1031.00,50.559
1032.00,50.523
1033.00,50.520
1034.00,50.486
1035.00,50.450
1036.00,50.432
1037.00,50.406
1038.00,50.396
1039.00,50.361
1040.00,50.366
1041.00,50.341
1042.00,50.332
1043.00,50.301
1044.00,50.344
1045.00,50.310
1046.00,50.303
1047.00,50.315
1048.00,50.329
1049.00,50.349
1050.00,50.344
1051.00,50.359
1052.00,50.380
1053.00,50.370
1054.00,50.388
1055.00,50.397
1056.00,50.408
1057.00,50.413
1058.00,50.400
1059.00,50.381
1060.00,50.398
1061.00,50.388
1062.00,50.370
1063.00,50.378
1064.00,50.353
1065.00,50.348
1066.00,50.340
1067.00,50.321
1068.00,50.344
1069.00,50.312
1070.00,50.299
1071.00,50.291
1072.00,50.309
1073.00,50.271
1074.00,50.281
1075.00,50.267
1076.00,50.253
1077.00,50.242
1078.00,50.210
1079.00,50.210
1080.00,50.216
1081.00,50.189
1082.00,50.205
1083.00,50.188
1084.00,50.182
1085.00,50.182
1086.00,50.164
1087.00,50.152
1088.00,50.145
1089.00,50.130
1090.00,50.142
1091.00,50.130
1092.00,50.098
1093.00,50.076
1094.00,50.065
1095.00,50.055
1096.00,50.059
1097.00,50.036
1098.00,50.033
1099.00,50.027
1100.00,50.003
1101.00,49.997
1102.00,50.000
1103.00,49.986
1104.00,49.987
1105.00,49.965
1106.00,49.956
1107.00,49.958
1108.00,49.945
1109.00,49.933
1110.00,49.934
1111.00,49.915
1112.00,49.919
1113.00,49.900
1114.00,49.897
1115.00,49.898
1116.00,49.885
1117.00,49.872
1118.00,49.865
1119.00,49.851
1120.00,49.852
1121.00,49.839
1122.00,49.829
1123.00,49.829
1124.00,49.826
1125.00,49.804
1126.00,49.818
1127.00,49.807
1128.00,49.792
1129.00,49.786
1130.00,49.777
1131.00,49.763
1132.00,49.760
1133.00,49.744
1134.00,49.758
1135.00,49.730
1136.00,49.720
1137.00,49.733
1138.00,49.732
1139.00,49.727
1140.00,49.737
1141.00,49.704
1142.00,49.699
1143.00,49.722
1144.00,49.701
1145.00,49.708
1146.00,49.688
1147.00,49.676
1148.00,49.687
1149.00,49.680
1150.00,49.674
1151.00,49.680
1152.00,49.661
1153.00,49.661
1154.00,49.648
1155.00,49.646
1156.00,49.641
1157.00,49.656
1158.00,49.632
1159.00,49.625
1160.00,49.616
1161.00,49.627
1162.00,49.636
1163.00,49.608
1164.00,49.608
1165.00,49.615
1166.00,49.606
1167.00,49.624
1168.00,49.626
1169.00,49.608
1170.00,49.614
1171.00,49.597
1172.00,49.601
1173.00,49.593
1174.00,49.590
1175.00,49.588
1176.00,49.597
1177.00,49.585
1178.00,49.575
1179.00,49.589
1180.00,49.570
1181.00,49.603
1182.00,49.596
1183.00,49.569
1184.00,49.564
1185.00,49.575
1186.00,49.564
1187.00,49.572
1188.00,49.545
1189.00,49.563
1190.00,49.559
1191.00,49.559
1192.00,49.584
1193.00,49.552
1194.00,49.549
1195.00,49.534
1196.00,49.543
1197.00,49.537
1198.00,49.541
1199.00,49.532
1200.00,49.541
1201.00,49.551
1202.00,49.524
1203.00,49.539
1204.00,49.520
1205.00,49.529
1206.00,49.531
1207.00,49.526
1208.00,49.524
1209.00,49.516
1210.00,49.515
1211.00,49.513
1212.00,49.538
1213.00,49.500
1214.00,49.531
1215.00,49.512
1216.00,49.511
1217.00,49.524
1218.00,49.494
1219.00,49.512
1220.00,49.510
1221.00,49.514
1222.00,49.503
1223.00,49.523
1224.00,49.512
1225.00,49.512
1226.00,49.512
1227.00,49.498
1228.00,49.532
1229.00,49.516
1230.00,49.554
1231.00,49.541
1232.00,49.544
1233.00,49.549
1234.00,49.562
1235.00,49.537
1236.00,49.550
1237.00,49.553
1238.00,49.541
1239.00,49.553
1240.00,49.534
1241.00,49.548
1242.00,49.553
1243.00,49.557
1244.00,49.548
1245.00,49.571
1246.00,49.570
1247.00,49.571
1248.00,49.570
1249.00,49.563
1250.00,49.573
1251.00,49.560
1252.00,49.588
1253.00,49.595
1254.00,49.577
1255.00,49.578
1256.00,49.568
1257.00,49.534
1258.00,49.604
1259.00,49.594
1260.00,49.609
1261.00,49.605
1262.00,49.589
1263.00,49.591
1264.00,49.611
1265.00,49.598
1266.00,49.603
1267.00,49.622
1268.00,49.628
1269.00,49.624
1270.00,49.633
1271.00,49.632
1272.00,49.656
1273.00,49.646
1274.00,49.651
1275.00,49.654
1276.00,49.639
1277.00,49.647
1278.00,49.663
1279.00,49.657
1280.00,49.661
1281.00,49.672
1282.00,49.675
1283.00,49.692
1284.00,49.673
1285.00,49.662
1286.00,49.689
1287.00,49.667
1288.00,49.688
1289.00,49.680
1290.00,49.705
1291.00,49.697
1292.00,49.703
1293.00,49.694
1294.00,49.717
1295.00,49.713
1296.00,49.692
1297.00,49.740
1298.00,49.754
1299.00,49.757
1300.00,49.761
1301.00,49.754
1302.00,49.770
1303.00,49.779
1304.00,49.749
1305.00,49.786
1306.00,49.779
1307.00,49.788
1308.00,49.782
1309.00,49.778
1310.00,49.782
1311.00,49.781
1312.00,49.782
1313.00,49.796
1314.00,49.794
1315.00,49.793
1316.00,49.807
1317.00,49.816
1318.00,49.808
1319.00,49.834
1320.00,49.857
1321.00,50.006
1322.00,50.015
1323.00,49.987
1324.00,49.993
1325.00,49.985
1326.00,49.996
1327.00,50.015
1328.00,49.988
1329.00,49.976
1330.00,49.996
1331.00,49.982
1332.00,49.978
1333.00,49.965
1334.00,50.066
1335.00,50.018
1336.00,50.070
1337.00,50.082
1338.00,50.156
1339.00,50.201
1340.00,50.247
1341.00,50.316
1342.00,50.370
1343.00,50.460
1344.00,50.465
1345.00,50.513
1346.00,50.576
1347.00,50.581
1348.00,50.591
1349.00,50.645
1350.00,50.650
1351.00,50.682
1352.00,50.683
1353.00,50.704
1354.00,50.703
1355.00,50.604
1356.00,50.710
1357.00,50.690
1358.00,50.685
1359.00,50.705
1360.00,50.782
1361.00,50.703
1362.00,50.663
1363.00,50.700
1364.00,50.710
1365.00,50.711
1366.00,50.788
1367.00,50.710
1368.00,50.687
1369.00,50.702
1370.00,50.668
1371.00,50.683
1372.00,50.671
1373.00,50.687
1374.00,50.708
1375.00,50.670
1376.00,50.690
1377.00,50.674
1378.00,50.725
1379.00,50.672
1380.00,50.696
1381.00,50.681
1382.00,50.571
1383.00,50.676
1384.00,50.621
1385.00,50.608
1386.00,50.717
1387.00,50.634
1388.00,50.579
1389.00,50.503
1390.00,50.674
1391.00,50.626
1392.00,50.658
1393.00,50.708
1394.00,50.668
1395.00,50.616
1396.00,50.606
1397.00,50.700
1398.00,50.661
1399.00,50.653
1400.00,50.582
1401.00,50.638
1402.00,50.669
1403.00,50.662
1404.00,50.641
1405.00,50.697
1406.00,50.687
1407.00,50.721
1408.00,50.655
1409.00,50.722
1410.00,50.739
1411.00,50.706
1412.00,50.751
1413.00,50.714
1414.00,50.719
1415.00,50.765
1416.00,50.768
1417.00,50.786
1418.00,50.782
1419.00,50.750
1420.00,50.777
1421.00,50.824
1422.00,50.820
1423.00,50.842
1424.00,50.848
1425.00,50.846
1426.00,50.874
1427.00,50.892
1428.00,50.902
1429.00,50.920
1430.00,50.918
1431.00,50.939
1432.00,50.948
1433.00,50.963
1434.00,50.972
1435.00,51.013
1436.00,51.017
1437.00,51.018
1438.00,51.024
1439.00,51.059
1440.00,51.068
1441.00,51.057
1442.00,51.094
1443.00,51.137
1444.00,51.133
1445.00,51.127
1446.00,51.125
1447.00,51.182
1448.00,51.221
1449.00,51.219
1450.00,51.229
1451.00,51.229
1452.00,51.226
1453.00,51.246
1454.00,51.261
1455.00,51.277
1456.00,51.301
1457.00,51.296
1458.00,51.307
1459.00,51.338
1460.00,51.329
1461.00,51.368
1462.00,51.409
1463.00,51.381
1464.00,51.413
1465.00,51.432
1466.00,51.420
1467.00,51.440
1468.00,51.492
1469.00,51.474
1470.00,51.489
1471.00,51.496
1472.00,51.507
1473.00,51.525
1474.00,51.533
1475.00,51.559
1476.00,51.567
1477.00,51.553
1478.00,51.583
1479.00,51.598
1480.00,51.593
1481.00,51.622
1482.00,51.647
1483.00,51.647
1484.00,51.661
1485.00,51.665
1486.00,51.667
1487.00,51.693
1488.00,51.704
1489.00,51.712
1490.00,51.715
1491.00,51.722
1492.00,51.756
1493.00,51.742
1494.00,51.762
1495.00,51.780
1496.00,51.770
1497.00,51.784
1498.00,51.786
1499.00,51.806
1500.00,51.836
1501.00, 
1502.00, 
1503.00, 
1504.00, 
1505.00, 
1506.00, 
1507.00, 
1508.00, 
1509.00, 
1510.00, 
1511.00, 
1512.00, 
1513.00, 
1514.00, 
1515.00, 
1516.00, 
1517.00, 
1518.00, 
1519.00, 
1520.00, 
1521.00, 
1522.00, 
1523.00, 
1524.00, 
1525.00, 
1526.00, 
1527.00, 
1528.00, 
1529.00, 
1530.00, 
1531.00, 
1532.00, 
1533.00, 
1534.00, 
1535.00, 
1536.00, 
1537.00, 
1538.00, 
1539.00, 
1540.00, 
1541.00, 
1542.00, 
1543.00, 
1544.00, 
1545.00, 
1546.00, 
1547.00, 
1548.00, 
1549.00, 
1550.00, 
1551.00, 
1552.00, 
1553.00, 
1554.00, 
1555.00, 
1556.00, 
1557.00, 
1558.00, 
1559.00, 
1560.00, 
1561.00, 
1562.00, 
1563.00, 
1564.00, 
1565.00, 
1566.00, 
1567.00, 
1568.00, 
1569.00, 
1570.00, 
1571.00, 
1572.00, 
1573.00, 
1574.00, 
1575.00, 
1576.00, 
1577.00, 
1578.00, 
1579.00, 
1580.00, 
1581.00, 
1582.00, 
1583.00, 
1584.00, 
1585.00, 
1586.00, 
1587.00, 
1588.00, 
1589.00, 
1590.00, 
1591.00, 
1592.00, 
1593.00, 
1594.00, 
1595.00, 
1596.00, 
1597.00, 
1598.00, 
1599.00, 
1600.00, 
1601.00, 
1602.00, 
1603.00, 
1604.00, 
1605.00, 
1606.00, 
1607.00, 
1608.00, 
1609.00, 
1610.00, 
1611.00, 
1612.00, 
1613.00, 
1614.00, 
1615.00, 
1616.00, 
1617.00, 
1618.00, 
1619.00, 
1620.00, 
1621.00, 
1622.00, 
1623.00, 
1624.00, 
1625.00, 
1626.00, 
1627.00, 
1628.00, 
1629.00, 
1630.00, 
1631.00, 
1632.00, 
1633.00, 
1634.00, 
1635.00, 
1636.00, 
1637.00, 
1638.00, 
1639.00, 
1640.00, 
1641.00, 
1642.00, 
1643.00, 
1644.00, 
1645.00, 
1646.00, 
1647.00, 
1648.00, 
1649.00, 
1650.00, 
1651.00, 
1652.00, 
1653.00, 
1654.00, 
1655.00, 
1656.00, 
1657.00, 
1658.00, 
1659.00, 
1660.00, 
1661.00, 
1662.00, 
1663.00, 
1664.00, 
1665.00, 
1666.00, 
1667.00, 
1668.00, 
1669.00, 
1670.00, 
1671.00, 
1672.00, 
1673.00, 
1674.00, 
1675.00, 
1676.00, 
1677.00, 
1678.00, 
1679.00, 
1680.00, 
1681.00, 
1682.00, 
1683.00, 
1684.00, 
1685.00, 
1686.00, 
1687.00, 
1688.00, 
1689.00, 
1690.00, 
1691.00, 
1692.00, 
1693.00, 
1694.00, 
1695.00, 
1696.00, 
1697.00, 
1698.00, 
1699.00, 
1700.00, 
1701.00, 
1702.00, 
1703.00, 
1704.00, 
1705.00, 
1706.00, 
1707.00, 
1708.00, 
1709.00, 
1710.00, 
1711.00, 
1712.00, 
1713.00, 
1714.00, 
1715.00, 
1716.00, 
1717.00, 
1718.00, 
1719.00, 
1720.00, 
1721.00, 
1722.00, 
1723.00, 
1724.00, 
1725.00, 
1726.00, 
1727.00, 
1728.00, 
1729.00, 
1730.00, 
1731.00, 
1732.00, 
1733.00, 
1734.00, 
1735.00, 
1736.00, 
1737.00, 
1738.00, 
1739.00, 
1740.00, 
1741.00, 
1742.00, 
1743.00, 
1744.00, 
1745.00, 
1746.00, 
1747.00, 
1748.00, 
1749.00, 
1750.00, 
1751.00, 
1752.00, 
1753.00, 
1754.00, 
1755.00, 
1756.00, 
1757.00, 
1758.00, 
1759.00, 
1760.00, 
1761.00, 
1762.00, 
1763.00, 
1764.00, 
1765.00, 
1766.00, 
1767.00, 
1768.00, 
1769.00, 
1770.00, 
1771.00, 
1772.00, 
1773.00, 
1774.00, 
1775.00, 
1776.00, 
1777.00, 
1778.00, 
1779.00, 
1780.00, 
1781.00, 
1782.00, 
1783.00, 
1784.00, 
1785.00, 
1786.00, 
1787.00, 
1788.00, 
1789.00, 
1790.00, 
1791.00, 
1792.00, 
1793.00, 
1794.00, 
1795.00, 
1796.00, 
1797.00, 
1798.00, 
1799.00, 
1800.00, 
1801.00, 
1802.00, 
1803.00, 
1804.00, 
1805.00, 
1806.00, 
1807.00, 
1808.00, 
1809.00, 
1810.00, 
1811.00, 
1812.00, 
1813.00, 
1814.00, 
1815.00, 
1816.00, 
1817.00, 
1818.00, 
1819.00, 
1820.00, 
1821.00, 
1822.00, 
1823.00, 
1824.00, 
1825.00, 
1826.00, 
1827.00, 
1828.00, 
1829.00, 
1830.00, 
1831.00, 
1832.00, 
1833.00, 
1834.00, 
1835.00, 
1836.00, 
1837.00, 
1838.00, 
1839.00, 
1840.00, 
1841.00, 
1842.00, 
1843.00, 
1844.00, 
1845.00, 
1846.00, 
1847.00, 
1848.00, 
1849.00, 
1850.00, 
1851.00, 
1852.00, 
1853.00, 
1854.00, 
1855.00, 
1856.00, 
1857.00, 
1858.00, 
1859.00, 
1860.00, 
1861.00, 
1862.00, 
1863.00, 
1864.00, 
1865.00, 
1866.00, 
1867.00, 
1868.00, 
1869.00, 
1870.00, 
1871.00, 
1872.00, 
1873.00, 
1874.00, 
1875.00, 
1876.00, 
1877.00, 
1878.00, 
1879.00, 
1880.00, 
1881.00, 
1882.00, 
1883.00, 
1884.00, 
1885.00, 
1886.00, 
1887.00, 
1888.00, 
1889.00, 
1890.00, 
1891.00, 
1892.00, 
1893.00, 
1894.00, 
1895.00, 
1896.00, 
1897.00, 
1898.00, 
1899.00, 
1900.00, 
1901.00, 
1902.00, 
1903.00, 
1904.00, 
1905.00, 
1906.00, 
1907.00, 
1908.00, 
1909.00, 
1910.00, 
1911.00, 
1912.00, 
1913.00, 
1914.00, 
1915.00, 
1916.00, 
1917.00, 
1918.00, 
1919.00, 
1920.00, 
1921.00, 
1922.00, 
1923.00, 
1924.00, 
1925.00, 
1926.00, 
1927.00, 
1928.00, 
1929.00, 
1930.00, 
1931.00, 
1932.00, 
1933.00, 
1934.00, 
1935.00, 
1936.00, 
1937.00, 
1938.00, 
1939.00, 
1940.00, 
1941.00, 
1942.00, 
1943.00, 
1944.00, 
1945.00, 
1946.00, 
1947.00, 
1948.00, 
1949.00, 
1950.00, 
1951.00, 
1952.00, 
1953.00, 
1954.00, 
1955.00, 
1956.00, 
1957.00, 
1958.00, 
1959.00, 
1960.00, 
1961.00, 
1962.00, 
1963.00, 
1964.00, 
1965.00, 
1966.00, 
1967.00, 
1968.00, 
1969.00, 
1970.00, 
1971.00, 
1972.00, 
1973.00, 
1974.00, 
1975.00, 
1976.00, 
1977.00, 
1978.00, 
1979.00, 
1980.00, 
1981.00, 
1982.00, 
1983.00, 
1984.00, 
1985.00, 
1986.00, 
1987.00, 
1988.00, 
1989.00, 
1990.00, 
1991.00, 
1992.00, 
1993.00, 
1994.00, 
1995.00, 
1996.00, 
1997.00, 
1998.00, 
1999.00, 
2000.00, 
2001.00, 
2002.00, 
2003.00, 
2004.00, 
2005.00, 
2006.00, 
2007.00, 
2008.00, 
2009.00, 
2010.00, 
2011.00, 
2012.00, 
2013.00, 
2014.00, 
2015.00, 
2016.00, 
2017.00, 
2018.00, 
2019.00, 
2020.00, 
2021.00, 
2022.00, 
2023.00, 
2024.00, 
2025.00, 
2026.00, 
2027.00, 
2028.00, 
2029.00, 
2030.00, 
2031.00, 
2032.00, 
2033.00, 
2034.00, 
2035.00, 
2036.00, 
2037.00, 
2038.00, 
2039.00, 
2040.00, 
2041.00, 
2042.00, 
2043.00, 
2044.00, 
2045.00, 
2046.00, 
2047.00, 
2048.00, 
2049.00, 
2050.00, 
2051.00, 
2052.00, 
2053.00, 
2054.00, 
2055.00, 
2056.00, 
2057.00, 
2058.00, 
2059.00, 
2060.00, 
2061.00, 
2062.00, 
2063.00, 
2064.00, 
2065.00, 
2066.00, 
2067.00, 
2068.00, 
2069.00, 
2070.00, 
2071.00, 
2072.00, 
2073.00, 
2074.00, 
2075.00, 
2076.00, 
2077.00, 
2078.00, 
2079.00, 
2080.00, 
2081.00, 
2082.00, 
2083.00, 
2084.00, 
2085.00, 
2086.00, 
2087.00, 
2088.00, 
2089.00, 
2090.00, 
2091.00, 
2092.00, 
2093.00, 
2094.00, 
2095.00, 
2096.00, 
2097.00, 
2098.00, 
2099.00, 
2100.00, 
2101.00, 
2102.00, 
2103.00, 
2104.00, 
2105.00, 
2106.00, 
2107.00, 
2108.00, 
2109.00, 
2110.00, 
2111.00, 
2112.00, 
2113.00, 
2114.00, 
2115.00, 
2116.00, 
2117.00, 
2118.00, 
2119.00, 
2120.00, 
2121.00, 
2122.00, 
2123.00, 
2124.00, 
2125.00, 
2126.00, 
2127.00, 
2128.00, 
2129.00, 
2130.00, 
2131.00, 
2132.00, 
2133.00, 
2134.00, 
2135.00, 
2136.00, 
2137.00, 
2138.00, 
2139.00, 
2140.00, 
2141.00, 
2142.00, 
2143.00, 
2144.00, 
2145.00, 
2146.00, 
2147.00, 
2148.00, 
2149.00, 
2150.00, 
2151.00, 
2152.00, 
2153.00, 
2154.00, 
2155.00, 
2156.00, 
2157.00, 
2158.00, 
2159.00, 
2160.00, 
2161.00, 
2162.00, 
2163.00, 
2164.00, 
2165.00, 
2166.00, 
2167.00, 
2168.00, 
2169.00, 
2170.00, 
2171.00, 
2172.00, 
2173.00, 
2174.00, 
2175.00, 
2176.00, 
2177.00, 
2178.00, 
2179.00, 
2180.00, 
2181.00, 
2182.00, 
2183.00, 
2184.00, 
2185.00, 
2186.00, 
2187.00, 
2188.00, 
2189.00, 
2190.00, 
2191.00, 
2192.00, 
2193.00, 
2194.00, 
2195.00, 
2196.00, 
2197.00, 
2198.00, 
2199.00, 
2200.00, 
2201.00, 
2202.00, 
2203.00, 
2204.00, 
2205.00, 
2206.00, 
2207.00, 
2208.00, 
2209.00, 
2210.00, 
2211.00, 
2212.00, 
2213.00, 
2214.00, 
2215.00, 
2216.00, 
2217.00, 
2218.00, 
2219.00, 
2220.00, 
2221.00, 
2222.00, 
2223.00, 
2224.00, 
2225.00, 
2226.00, 
2227.00, 
2228.00, 
2229.00, 
2230.00, 
2231.00, 
2232.00, 
2233.00, 
2234.00, 
2235.00, 
2236.00, 
2237.00, 
2238.00, 
2239.00, 
2240.00, 
2241.00, 
2242.00, 
2243.00, 
2244.00, 
2245.00, 
2246.00, 
2247.00, 
2248.00, 
2249.00, 
2250.00, 
2251.00, 
2252.00, 
2253.00, 
2254.00, 
2255.00, 
2256.00, 
2257.00, 
2258.00, 
2259.00, 
2260.00, 
2261.00, 
2262.00, 
2263.00, 
2264.00, 
2265.00, 
2266.00, 
2267.00, 
2268.00, 
2269.00, 
2270.00, 
2271.00, 
2272.00, 
2273.00, 
2274.00, 
2275.00, 
2276.00, 
2277.00, 
2278.00, 
2279.00, 
2280.00, 
2281.00, 
2282.00, 
2283.00, 
2284.00, 
2285.00, 
2286.00, 
2287.00, 
2288.00, 
2289.00, 
2290.00, 
2291.00, 
2292.00, 
2293.00, 
2294.00, 
2295.00, 
2296.00, 
2297.00, 
2298.00, 
2299.00, 
2300.00, 
2301.00, 
2302.00, 
2303.00, 
2304.00, 
2305.00, 
2306.00, 
2307.00, 
2308.00, 
2309.00, 
2310.00, 
2311.00, 
2312.00, 
2313.00, 
2314.00, 
2315.00, 
2316.00, 
2317.00, 
2318.00, 
2319.00, 
2320.00, 
2321.00, 
2322.00, 
2323.00, 
2324.00, 
2325.00, 
2326.00, 
2327.00, 
2328.00, 
2329.00, 
2330.00, 
2331.00, 
2332.00, 
2333.00, 
2334.00, 
2335.00, 
2336.00, 
2337.00, 
2338.00, 
2339.00, 
2340.00, 
2341.00, 
2342.00, 
2343.00, 
2344.00, 
2345.00, 
2346.00, 
2347.00, 
2348.00, 
2349.00, 
2350.00, 
2351.00, 
2352.00, 
2353.00, 
2354.00, 
2355.00, 
2356.00, 
2357.00, 
2358.00, 
2359.00, 
2360.00, 
2361.00, 
2362.00, 
2363.00, 
2364.00, 
2365.00, 
2366.00, 
2367.00, 
2368.00, 
2369.00, 
2370.00, 
2371.00, 
2372.00, 
2373.00, 
2374.00, 
2375.00, 
2376.00, 
2377.00, 
2378.00, 
2379.00, 
2380.00, 
2381.00, 
2382.00, 
2383.00, 
2384.00, 
2385.00, 
2386.00, 
2387.00, 
2388.00, 
2389.00, 
2390.00, 
2391.00, 
2392.00, 
2393.00, 
2394.00, 
2395.00, 
2396.00, 
2397.00, 
2398.00, 
2399.00, 
2400.00, 
2401.00, 
2402.00, 
2403.00, 
2404.00, 
2405.00, 
2406.00, 
2407.00, 
2408.00, 
2409.00, 
2410.00, 
2411.00, 
2412.00, 
2413.00, 
2414.00, 
2415.00, 
2416.00, 
2417.00, 
2418.00, 
2419.00, 
2420.00, 
2421.00, 
2422.00, 
2423.00, 
2424.00, 
2425.00, 
2426.00, 
2427.00, 
2428.00, 
2429.00, 
2430.00, 
2431.00, 
2432.00, 
2433.00, 
2434.00, 
2435.00, 
2436.00, 
2437.00, 
2438.00, 
2439.00, 
2440.00, 
2441.00, 
2442.00, 
2443.00, 
2444.00, 
2445.00, 
2446.00, 
2447.00, 
2448.00, 
2449.00, 
2450.00, 
2451.00, 
2452.00, 
2453.00, 
2454.00, 
2455.00, 
2456.00, 
2457.00, 
2458.00, 
2459.00, 
2460.00, 
2461.00, 
2462.00, 
2463.00, 
2464.00, 
2465.00, 
2466.00, 
2467.00, 
2468.00, 
2469.00, 
2470.00, 
2471.00, 
2472.00, 
2473.00, 
2474.00, 
2475.00, 
2476.00, 
2477.00, 
2478.00, 
2479.00, 
2480.00, 
2481.00, 
2482.00, 
2483.00, 
2484.00, 
2485.00, 
2486.00, 
2487.00, 
2488.00, 
2489.00, 
2490.00, 
2491.00, 
2492.00, 
2493.00, 
2494.00, 
2495.00, 
2496.00, 
2497.00, 
2498.00, 
2499.00, 
2500.00, 
2501.00, 
2502.00, 
2503.00, 
2504.00, 
2505.00, 
2506.00, 
2507.00, 
2508.00, 
2509.00, 
2510.00, 
2511.00, 
2512.00, 
2513.00, 
2514.00, 
2515.00, 
2516.00, 
2517.00, 
2518.00, 
2519.00, 
2520.00, 
2521.00, 
2522.00, 
2523.00, 
2524.00, 
2525.00, 
2526.00, 
2527.00, 
2528.00, 
2529.00, 
2530.00, 
2531.00, 
2532.00, 
2533.00, 
2534.00, 
2535.00, 
2536.00, 
2537.00, 
2538.00, 
2539.00, 
2540.00, 
2541.00, 
2542.00, 
2543.00, 
2544.00, 
2545.00, 
2546.00, 
2547.00, 
2548.00, 
2549.00, 
2550.00, 
2551.00, 
2552.00, 
2553.00, 
2554.00, 
2555.00, 
2556.00, 
2557.00, 
2558.00, 
2559.00, 
2560.00, 
2561.00, 
2562.00, 
2563.00, 
2564.00, 
2565.00, 
2566.00, 
2567.00, 
2568.00, 
2569.00, 
2570.00, 
2571.00, 
2572.00, 
2573.00, 
2574.00, 
2575.00, 
2576.00, 
2577.00, 
2578.00, 
2579.00, 
2580.00, 
2581.00, 
2582.00, 
2583.00, 
2584.00, 
2585.00, 
2586.00, 
2587.00, 
2588.00, 
2589.00, 
2590.00, 
2591.00, 
2592.00, 
2593.00, 
2594.00, 
2595.00, 
2596.00, 
2597.00, 
2598.00, 
2599.00, 
2600.00, 
