"1bP2 - RawData"
"Wavelength nm.","T%"
200.00,0.003
201.00,0.001
202.00,0.004
203.00,0.003
204.00,0.004
205.00,0.002
206.00,0.000
207.00,0.001
208.00,0.003
209.00,0.002
210.00,0.003
211.00,0.001
212.00,0.001
213.00,0.002
214.00,0.001
215.00,-0.001
216.00,0.005
217.00,0.001
218.00,0.005
219.00,0.006
220.00,0.001
221.00,0.001
222.00,0.001
223.00,0.000
224.00,0.000
225.00,0.001
226.00,0.003
227.00,0.004
228.00,0.002
229.00,-0.001
230.00,0.001
231.00,0.001
232.00,0.003
233.00,0.001
234.00,-0.000
235.00,0.001
236.00,0.001
237.00,0.001
238.00,0.001
239.00,0.000
240.00,0.003
241.00,-0.000
242.00,-0.000
243.00,0.000
244.00,0.000
245.00,-0.000
246.00,0.001
247.00,0.000
248.00,-0.000
249.00,0.000
250.00,0.001
251.00,0.003
252.00,-0.002
253.00,0.002
254.00,-0.000
255.00,-0.001
256.00,0.001
257.00,-0.000
258.00,0.001
259.00,0.000
260.00,-0.001
261.00,0.001
262.00,0.001
263.00,0.001
264.00,0.001
265.00,0.002
266.00,-0.000
267.00,0.000
268.00,0.003
269.00,0.001
270.00,0.000
271.00,0.000
272.00,0.002
273.00,-0.001
274.00,0.001
275.00,0.002
276.00,-0.000
277.00,0.000
278.00,0.001
279.00,0.001
280.00,0.000
281.00,0.002
282.00,0.003
283.00,-0.001
284.00,0.001
285.00,0.003
286.00,0.000
287.00,-0.001
288.00,-0.001
289.00,-0.001
290.00,0.001
291.00,-0.000
292.00,0.001
293.00,0.001
294.00,0.001
295.00,0.000
296.00,0.002
297.00,0.001
298.00,0.002
299.00,0.003
300.00,0.004
301.00,0.006
302.00,0.010
303.00,0.017
304.00,0.025
305.00,0.040
306.00,0.063
307.00,0.092
308.00,0.143
309.00,0.213
310.00,0.295
311.00,0.403
312.00,0.542
313.00,0.727
314.00,0.949
315.00,1.215
316.00,1.530
317.00,1.930
318.00,2.361
319.00,2.866
320.00,3.460
321.00,4.134
322.00,4.853
323.00,5.644
324.00,6.491
325.00,7.369
326.00,8.230
327.00,9.213
328.00,10.197
329.00,11.234
330.00,12.295
331.00,13.330
332.00,14.390
333.00,15.491
334.00,16.579
335.00,17.609
336.00,18.630
337.00,19.692
338.00,20.706
339.00,21.653
340.00,22.581
341.00,23.547
342.00,24.355
343.00,25.200
344.00,26.041
345.00,26.773
346.00,27.491
347.00,28.215
348.00,28.823
349.00,29.406
350.00,29.961
351.00,30.480
352.00,30.953
353.00,31.424
354.00,31.854
355.00,32.270
356.00,32.618
357.00,32.967
358.00,33.278
359.00,33.579
360.00,33.890
361.00,34.136
362.00,34.405
363.00,34.636
364.00,34.852
365.00,34.985
366.00,35.182
367.00,35.307
368.00,35.420
369.00,35.464
370.00,35.490
371.00,35.562
372.00,35.577
373.00,35.655
374.00,35.632
375.00,35.640
376.00,35.580
377.00,35.490
378.00,35.481
379.00,35.421
380.00,35.388
381.00,35.416
382.00,35.436
383.00,35.472
384.00,35.540
385.00,35.612
386.00,35.658
387.00,35.732
388.00,35.859
389.00,35.924
390.00,36.039
391.00,36.059
392.00,36.142
393.00,36.155
394.00,36.214
395.00,36.280
396.00,36.267
397.00,36.295
398.00,36.385
399.00,36.342
400.00,36.440
401.00,36.403
402.00,36.421
403.00,36.417
404.00,36.408
405.00,36.389
406.00,36.403
407.00,36.312
408.00,36.354
409.00,36.323
410.00,36.219
411.00,36.245
412.00,36.157
413.00,36.176
414.00,36.213
415.00,36.183
416.00,36.174
417.00,36.185
418.00,36.146
419.00,36.257
420.00,36.279
421.00,36.409
422.00,36.416
423.00,36.470
424.00,36.465
425.00,36.469
426.00,36.528
427.00,36.573
428.00,36.597
429.00,36.624
430.00,36.686
431.00,36.648
432.00,36.612
433.00,36.803
434.00,36.829
435.00,36.921
436.00,36.946
437.00,37.046
438.00,37.062
439.00,37.118
440.00,37.175
441.00,37.237
442.00,37.297
443.00,37.323
444.00,37.434
445.00,37.526
446.00,37.585
447.00,37.696
448.00,37.788
449.00,37.829
450.00,37.892
451.00,38.005
452.00,38.075
453.00,38.142
454.00,38.255
455.00,38.362
456.00,38.410
457.00,38.514
458.00,38.593
459.00,38.700
460.00,38.788
461.00,38.832
462.00,38.989
463.00,39.028
464.00,39.159
465.00,39.242
466.00,39.362
467.00,39.486
468.00,39.553
469.00,39.626
470.00,39.680
471.00,39.740
472.00,39.817
473.00,39.865
474.00,40.009
475.00,39.998
476.00,40.046
477.00,40.141
478.00,40.198
479.00,40.361
480.00,40.498
481.00,40.585
482.00,40.679
483.00,40.780
484.00,40.905
485.00,41.082
486.00,41.155
487.00,41.283
488.00,41.442
489.00,41.541
490.00,41.554
491.00,41.636
492.00,41.623
493.00,41.928
494.00,41.928
495.00,42.007
496.00,42.131
497.00,42.231
498.00,42.325
499.00,42.503
500.00,42.504
501.00,42.610
502.00,42.677
503.00,42.793
504.00,42.840
505.00,42.882
506.00,43.029
507.00,43.101
508.00,43.149
509.00,43.294
510.00,43.335
511.00,43.447
512.00,43.513
513.00,43.591
514.00,43.679
515.00,43.824
516.00,43.824
517.00,43.922
518.00,44.079
519.00,44.071
520.00,44.098
521.00,44.138
522.00,44.200
523.00,44.238
524.00,44.301
525.00,44.338
526.00,44.452
527.00,44.448
528.00,44.462
529.00,44.555
530.00,44.603
531.00,44.802
532.00,44.848
533.00,44.921
534.00,44.950
535.00,45.025
536.00,45.110
537.00,45.111
538.00,45.172
539.00,45.212
540.00,45.255
541.00,45.256
542.00,45.267
543.00,45.363
544.00,45.465
545.00,45.377
546.00,45.486
547.00,45.513
548.00,45.603
549.00,45.587
550.00,45.647
551.00,45.749
552.00,45.773
553.00,45.748
554.00,45.840
555.00,45.884
556.00,45.859
557.00,45.941
558.00,45.967
559.00,45.942
560.00,46.030
561.00,46.074
562.00,46.101
563.00,46.128
564.00,46.120
565.00,46.078
566.00,46.204
567.00,46.206
568.00,46.272
569.00,46.290
570.00,46.203
571.00,46.338
572.00,46.302
573.00,46.279
574.00,46.353
575.00,46.330
576.00,46.327
577.00,46.382
578.00,46.450
579.00,46.487
580.00,46.485
581.00,46.602
582.00,46.743
583.00,46.708
584.00,46.782
585.00,46.814
586.00,46.815
587.00,46.929
588.00,46.850
589.00,46.816
590.00,47.066
591.00,47.008
592.00,46.934
593.00,46.947
594.00,47.041
595.00,46.975
596.00,47.045
597.00,47.261
598.00,47.231
599.00,47.161
600.00,47.198
601.00,47.259
602.00,47.233
603.00,47.249
604.00,47.225
605.00,47.249
606.00,47.324
607.00,47.281
608.00,47.254
609.00,47.220
610.00,47.344
611.00,47.380
612.00,47.353
613.00,47.401
614.00,47.366
615.00,47.425
616.00,47.509
617.00,47.498
618.00,47.471
619.00,47.527
620.00,47.553
621.00,47.622
622.00,47.658
623.00,47.691
624.00,47.765
625.00,47.712
626.00,47.690
627.00,47.814
628.00,47.685
629.00,47.711
630.00,47.865
631.00,47.709
632.00,47.839
633.00,47.969
634.00,47.869
635.00,48.000
636.00,48.082
637.00,48.121
638.00,48.202
639.00,48.243
640.00,48.227
641.00,48.186
642.00,48.262
643.00,48.246
644.00,48.342
645.00,48.307
646.00,48.378
647.00,48.427
648.00,48.391
649.00,48.432
650.00,48.425
651.00,48.386
652.00,48.547
653.00,48.518
654.00,48.573
655.00,48.626
656.00,48.641
657.00,48.810
658.00,48.768
659.00,48.832
660.00,48.899
661.00,48.824
662.00,48.957
663.00,48.885
664.00,49.004
665.00,49.071
666.00,48.935
667.00,49.291
668.00,49.124
669.00,48.958
670.00,49.371
671.00,49.666
672.00,49.341
673.00,49.412
674.00,49.382
675.00,49.406
676.00,49.542
677.00,49.532
678.00,49.463
679.00,49.614
680.00,49.725
681.00,49.713
682.00,49.724
683.00,49.857
684.00,49.892
685.00,49.858
686.00,49.713
687.00,49.836
688.00,49.864
689.00,49.790
690.00,49.891
691.00,49.874
692.00,49.911
693.00,50.051
694.00,49.880
695.00,50.020
696.00,50.010
697.00,50.050
698.00,50.101
699.00,50.182
700.00,50.258
701.00,50.052
702.00,50.253
703.00,50.526
704.00,50.461
705.00,50.287
706.00,50.326
707.00,50.530
708.00,50.278
709.00,50.435
710.00,50.683
711.00,50.470
712.00,50.456
713.00,50.624
714.00,50.577
715.00,50.595
716.00,50.610
717.00,50.564
718.00,50.619
719.00,50.713
720.00,50.912
721.00,55.217
722.00,55.176
723.00,55.115
724.00,55.110
725.00,55.088
726.00,54.999
727.00,55.056
728.00,55.064
729.00,55.097
730.00,55.000
731.00,54.974
732.00,54.958
733.00,54.961
734.00,54.936
735.00,54.954
736.00,54.968
737.00,54.967
738.00,54.939
739.00,54.919
740.00,54.853
741.00,54.906
742.00,54.845
743.00,54.833
744.00,54.784
745.00,54.784
746.00,54.732
747.00,54.710
748.00,54.656
749.00,54.675
750.00,54.600
751.00,54.584
752.00,54.484
753.00,54.497
754.00,54.493
755.00,54.415
756.00,54.445
757.00,54.404
758.00,54.448
759.00,54.336
760.00,54.419
761.00,54.421
762.00,54.297
763.00,54.369
764.00,54.236
765.00,54.314
766.00,54.297
767.00,54.266
768.00,54.276
769.00,54.230
770.00,54.283
771.00,54.268
772.00,54.220
773.00,54.116
774.00,54.151
775.00,54.124
776.00,54.104
777.00,54.180
778.00,54.087
779.00,54.150
780.00,54.067
781.00,54.024
782.00,54.057
783.00,54.034
784.00,54.031
785.00,53.927
786.00,53.929
787.00,53.943
788.00,53.814
789.00,53.836
790.00,53.794
791.00,53.842
792.00,53.746
793.00,53.704
794.00,53.743
795.00,53.660
796.00,53.685
797.00,53.614
798.00,53.715
799.00,53.546
800.00,53.505
801.00,53.584
802.00,53.564
803.00,53.429
804.00,53.382
805.00,53.488
806.00,53.368
807.00,53.384
808.00,53.383
809.00,53.333
810.00,53.270
811.00,53.248
812.00,53.414
813.00,53.205
814.00,53.248
815.00,53.142
816.00,53.142
817.00,53.196
818.00,53.088
819.00,53.069
820.00,53.033
821.00,52.979
822.00,52.935
823.00,52.998
824.00,52.939
825.00,52.937
826.00,52.923
827.00,52.863
828.00,53.011
829.00,52.823
830.00,52.888
831.00,55.430
832.00,55.418
833.00,55.367
834.00,55.366
835.00,55.306
836.00,55.342
837.00,55.293
838.00,55.282
839.00,55.272
840.00,55.168
841.00,55.278
842.00,55.181
843.00,55.206
844.00,55.166
845.00,55.106
846.00,55.115
847.00,55.050
848.00,54.912
849.00,54.978
850.00,54.988
851.00,54.865
852.00,54.999
853.00,54.842
854.00,54.824
855.00,54.814
856.00,54.768
857.00,54.760
858.00,54.718
859.00,54.704
860.00,54.691
861.00,54.699
862.00,54.660
863.00,54.632
864.00,54.620
865.00,54.655
866.00,54.546
867.00,54.565
868.00,54.539
869.00,54.549
870.00,54.557
871.00,54.551
872.00,54.506
873.00,54.546
874.00,54.448
875.00,54.496
876.00,54.505
877.00,54.435
878.00,54.457
879.00,54.435
880.00,54.379
881.00,54.382
882.00,54.432
883.00,54.365
884.00,54.307
885.00,54.303
886.00,54.329
887.00,54.297
888.00,54.242
889.00,54.255
890.00,54.244
891.00,54.182
892.00,54.209
893.00,54.190
894.00,54.172
895.00,54.135
896.00,54.120
897.00,54.041
898.00,54.101
899.00,54.043
900.00,54.028
901.00,54.017
902.00,54.027
903.00,53.992
904.00,53.980
905.00,53.960
906.00,53.981
907.00,53.946
908.00,53.917
909.00,53.892
910.00,53.825
911.00,53.866
912.00,53.832
913.00,53.794
914.00,53.781
915.00,53.729
916.00,53.785
917.00,53.667
918.00,53.718
919.00,53.674
920.00,53.656
921.00,53.624
922.00,53.639
923.00,53.590
924.00,53.578
925.00,53.596
926.00,53.585
927.00,53.531
928.00,53.538
929.00,53.506
930.00,53.446
931.00,53.449
932.00,53.430
933.00,53.435
934.00,53.405
935.00,53.393
936.00,53.354
937.00,53.336
938.00,53.319
939.00,53.329
940.00,53.280
941.00,53.279
942.00,53.262
943.00,53.265
944.00,53.208
945.00,53.233
946.00,53.220
947.00,53.188
948.00,53.173
949.00,53.149
950.00,53.104
951.00,53.085
952.00,53.081
953.00,53.140
954.00,53.040
955.00,52.988
956.00,52.987
957.00,52.946
958.00,52.962
959.00,52.899
960.00,52.884
961.00,52.882
962.00,52.892
963.00,52.842
964.00,52.845
965.00,52.830
966.00,52.843
967.00,52.797
968.00,52.800
969.00,52.900
970.00,52.805
971.00,52.826
972.00,52.765
973.00,52.798
974.00,52.808
975.00,52.800
976.00,52.810
977.00,52.779
978.00,52.837
979.00,52.803
980.00,52.804
981.00,52.824
982.00,52.795
983.00,52.789
984.00,52.782
985.00,52.801
986.00,52.773
987.00,52.797
988.00,52.744
989.00,52.757
990.00,52.752
991.00,52.723
992.00,52.731
993.00,52.706
994.00,52.676
995.00,52.651
996.00,52.668
997.00,52.639
998.00,52.621
999.00,52.682
1000.00,52.608
1001.00,52.615
1002.00,52.600
1003.00,52.605
1004.00,52.578
1005.00,52.537
1006.00,52.573
1007.00,52.541
1008.00,52.549
1009.00,52.523
1010.00,52.524
1011.00,52.506
1012.00,52.469
1013.00,52.490
1014.00,52.453
1015.00,52.479
1016.00,52.429
1017.00,52.421
1018.00,52.396
1019.00,52.389
1020.00,52.387
1021.00,52.359
1022.00,52.374
1023.00,52.321
1024.00,52.330
1025.00,52.312
1026.00,52.303
1027.00,52.256
1028.00,52.259
1029.00,52.230
1030.00,52.202
1031.00,52.223
1032.00,52.172
1033.00,52.194
1034.00,52.169
1035.00,52.123
1036.00,52.088
1037.00,52.090
1038.00,52.062
1039.00,52.030
1040.00,52.039
1041.00,52.006
1042.00,52.002
1043.00,51.969
1044.00,52.025
1045.00,51.984
1046.00,51.977
1047.00,51.999
1048.00,52.025
1049.00,52.015
1050.00,52.030
1051.00,52.054
1052.00,52.068
1053.00,52.070
1054.00,52.057
1055.00,52.081
1056.00,52.086
1057.00,52.104
1058.00,52.099
1059.00,52.084
1060.00,52.144
1061.00,52.105
1062.00,52.080
1063.00,52.094
1064.00,52.095
1065.00,52.079
1066.00,52.067
1067.00,52.078
1068.00,52.090
1069.00,52.050
1070.00,52.028
1071.00,52.014
1072.00,52.031
1073.00,51.995
1074.00,52.019
1075.00,52.007
1076.00,52.004
1077.00,51.986
1078.00,51.976
1079.00,51.967
1080.00,51.984
1081.00,51.959
1082.00,51.958
1083.00,51.943
1084.00,51.936
1085.00,51.946
1086.00,51.937
1087.00,51.912
1088.00,51.919
1089.00,51.902
1090.00,51.897
1091.00,51.907
1092.00,51.903
1093.00,51.862
1094.00,51.851
1095.00,51.822
1096.00,51.816
1097.00,51.809
1098.00,51.790
1099.00,51.792
1100.00,51.786
1101.00,51.777
1102.00,51.776
1103.00,51.768
1104.00,51.758
1105.00,51.767
1106.00,51.732
1107.00,51.744
1108.00,51.745
1109.00,51.720
1110.00,51.744
1111.00,51.732
1112.00,51.703
1113.00,51.714
1114.00,51.702
1115.00,51.703
1116.00,51.684
1117.00,51.666
1118.00,51.679
1119.00,51.669
1120.00,51.679
1121.00,51.683
1122.00,51.670
1123.00,51.641
1124.00,51.659
1125.00,51.662
1126.00,51.622
1127.00,51.626
1128.00,51.603
1129.00,51.596
1130.00,51.580
1131.00,51.553
1132.00,51.571
1133.00,51.548
1134.00,51.591
1135.00,51.636
1136.00,51.576
1137.00,51.560
1138.00,51.575
1139.00,51.576
1140.00,51.574
1141.00,51.558
1142.00,51.536
1143.00,51.554
1144.00,51.527
1145.00,51.513
1146.00,51.516
1147.00,51.529
1148.00,51.490
1149.00,51.514
1150.00,51.535
1151.00,51.535
1152.00,51.521
1153.00,51.538
1154.00,51.536
1155.00,51.536
1156.00,51.528
1157.00,51.545
1158.00,51.522
1159.00,51.507
1160.00,51.504
1161.00,51.513
1162.00,51.512
1163.00,51.531
1164.00,51.517
1165.00,51.525
1166.00,51.531
1167.00,51.512
1168.00,51.537
1169.00,51.506
1170.00,51.494
1171.00,51.501
1172.00,51.480
1173.00,51.479
1174.00,51.500
1175.00,51.478
1176.00,51.485
1177.00,51.484
1178.00,51.480
1179.00,51.486
1180.00,51.479
1181.00,51.513
1182.00,51.492
1183.00,51.485
1184.00,51.472
1185.00,51.499
1186.00,51.474
1187.00,51.503
1188.00,51.494
1189.00,51.490
1190.00,51.482
1191.00,51.490
1192.00,51.486
1193.00,51.469
1194.00,51.487
1195.00,51.467
1196.00,51.488
1197.00,51.482
1198.00,51.492
1199.00,51.489
1200.00,51.497
1201.00,51.507
1202.00,51.489
1203.00,51.471
1204.00,51.472
1205.00,51.465
1206.00,51.466
1207.00,51.488
1208.00,51.440
1209.00,51.468
1210.00,51.476
1211.00,51.470
1212.00,51.509
1213.00,51.451
1214.00,51.472
1215.00,51.473
1216.00,51.476
1217.00,51.482
1218.00,51.485
1219.00,51.504
1220.00,51.489
1221.00,51.504
1222.00,51.504
1223.00,51.528
1224.00,51.513
1225.00,51.493
1226.00,51.505
1227.00,51.490
1228.00,51.492
1229.00,51.511
1230.00,51.540
1231.00,51.515
1232.00,51.540
1233.00,51.543
1234.00,51.532
1235.00,51.525
1236.00,51.529
1237.00,51.534
1238.00,51.525
1239.00,51.530
1240.00,51.544
1241.00,51.524
1242.00,51.542
1243.00,51.570
1244.00,51.522
1245.00,51.559
1246.00,51.562
1247.00,51.550
1248.00,51.559
1249.00,51.560
1250.00,51.568
1251.00,51.569
1252.00,51.571
1253.00,51.573
1254.00,51.592
1255.00,51.585
1256.00,51.563
1257.00,51.548
1258.00,51.596
1259.00,51.587
1260.00,51.610
1261.00,51.611
1262.00,51.610
1263.00,51.607
1264.00,51.616
1265.00,51.637
1266.00,51.639
1267.00,51.651
1268.00,51.649
1269.00,51.631
1270.00,51.685
1271.00,51.661
1272.00,51.682
1273.00,51.710
1274.00,51.662
1275.00,51.674
1276.00,51.698
1277.00,51.695
1278.00,51.701
1279.00,51.690
1280.00,51.684
1281.00,51.702
1282.00,51.700
1283.00,51.695
1284.00,51.702
1285.00,51.693
1286.00,51.717
1287.00,51.723
1288.00,51.727
1289.00,51.725
1290.00,51.770
1291.00,51.759
1292.00,51.740
1293.00,51.741
1294.00,51.766
1295.00,51.781
1296.00,51.749
1297.00,51.787
1298.00,51.812
1299.00,51.762
1300.00,51.794
1301.00,51.799
1302.00,51.800
1303.00,51.816
1304.00,51.794
1305.00,51.839
1306.00,51.832
1307.00,51.826
1308.00,51.856
1309.00,51.846
1310.00,51.839
1311.00,51.842
1312.00,51.863
1313.00,51.846
1314.00,51.878
1315.00,51.893
1316.00,51.891
1317.00,51.892
1318.00,51.898
1319.00,51.911
1320.00,51.907
1321.00,52.072
1322.00,52.078
1323.00,52.075
1324.00,52.050
1325.00,52.034
1326.00,52.062
1327.00,52.025
1328.00,52.011
1329.00,52.012
1330.00,52.019
1331.00,52.027
1332.00,52.021
1333.00,52.035
1334.00,52.076
1335.00,52.084
1336.00,52.124
1337.00,52.155
1338.00,52.195
1339.00,52.260
1340.00,52.314
1341.00,52.372
1342.00,52.439
1343.00,52.465
1344.00,52.527
1345.00,52.586
1346.00,52.614
1347.00,52.658
1348.00,52.671
1349.00,52.679
1350.00,52.711
1351.00,52.713
1352.00,52.723
1353.00,52.729
1354.00,52.750
1355.00,52.750
1356.00,52.738
1357.00,52.733
1358.00,52.750
1359.00,52.743
1360.00,52.694
1361.00,52.706
1362.00,52.750
1363.00,52.940
1364.00,52.915
1365.00,52.773
1366.00,52.869
1367.00,52.794
1368.00,52.784
1369.00,52.782
1370.00,52.785
1371.00,52.691
1372.00,52.737
1373.00,52.740
1374.00,52.754
1375.00,52.753
1376.00,52.719
1377.00,52.702
1378.00,52.900
1379.00,52.760
1380.00,52.780
1381.00,52.827
1382.00,52.786
1383.00,52.787
1384.00,52.744
1385.00,52.713
1386.00,52.736
1387.00,52.802
1388.00,52.751
1389.00,52.739
1390.00,52.625
1391.00,52.796
1392.00,52.720
1393.00,52.667
1394.00,52.753
1395.00,52.743
1396.00,52.705
1397.00,52.785
1398.00,52.668
1399.00,52.769
1400.00,52.534
1401.00,52.670
1402.00,52.738
1403.00,52.742
1404.00,52.743
1405.00,52.756
1406.00,52.789
1407.00,52.774
1408.00,52.807
1409.00,52.723
1410.00,52.825
1411.00,52.733
1412.00,52.815
1413.00,52.837
1414.00,52.812
1415.00,52.790
1416.00,52.849
1417.00,52.825
1418.00,52.835
1419.00,52.845
1420.00,52.848
1421.00,52.908
1422.00,52.871
1423.00,52.887
1424.00,52.898
1425.00,52.941
1426.00,52.863
1427.00,52.947
1428.00,52.958
1429.00,52.939
1430.00,52.958
1431.00,53.001
1432.00,52.989
1433.00,53.014
1434.00,52.996
1435.00,53.067
1436.00,53.056
1437.00,53.042
1438.00,53.069
1439.00,53.086
1440.00,53.114
1441.00,53.130
1442.00,53.107
1443.00,53.142
1444.00,53.246
1445.00,53.188
1446.00,53.177
1447.00,53.202
1448.00,53.217
1449.00,53.246
1450.00,53.238
1451.00,53.242
1452.00,53.269
1453.00,53.282
1454.00,53.299
1455.00,53.321
1456.00,53.331
1457.00,53.322
1458.00,53.334
1459.00,53.338
1460.00,53.370
1461.00,53.378
1462.00,53.406
1463.00,53.434
1464.00,53.436
1465.00,53.451
1466.00,53.439
1467.00,53.450
1468.00,53.524
1469.00,53.495
1470.00,53.520
1471.00,53.539
1472.00,53.537
1473.00,53.547
1474.00,53.581
1475.00,53.579
1476.00,53.608
1477.00,53.604
1478.00,53.604
1479.00,53.631
1480.00,53.626
1481.00,53.623
1482.00,53.650
1483.00,53.650
1484.00,53.663
1485.00,53.690
1486.00,53.693
1487.00,53.734
1488.00,53.742
1489.00,53.718
1490.00,53.735
1491.00,53.760
1492.00,53.752
1493.00,53.737
1494.00,53.771
1495.00,53.767
1496.00,53.804
1497.00,53.786
1498.00,53.812
1499.00,53.836
1500.00,53.820
1501.00, 
1502.00, 
1503.00, 
1504.00, 
1505.00, 
1506.00, 
1507.00, 
1508.00, 
1509.00, 
1510.00, 
1511.00, 
1512.00, 
1513.00, 
1514.00, 
1515.00, 
1516.00, 
1517.00, 
1518.00, 
1519.00, 
1520.00, 
1521.00, 
1522.00, 
1523.00, 
1524.00, 
1525.00, 
1526.00, 
1527.00, 
1528.00, 
1529.00, 
1530.00, 
1531.00, 
1532.00, 
1533.00, 
1534.00, 
1535.00, 
1536.00, 
1537.00, 
1538.00, 
1539.00, 
1540.00, 
1541.00, 
1542.00, 
1543.00, 
1544.00, 
1545.00, 
1546.00, 
1547.00, 
1548.00, 
1549.00, 
1550.00, 
1551.00, 
1552.00, 
1553.00, 
1554.00, 
1555.00, 
1556.00, 
1557.00, 
1558.00, 
1559.00, 
1560.00, 
1561.00, 
1562.00, 
1563.00, 
1564.00, 
1565.00, 
1566.00, 
1567.00, 
1568.00, 
1569.00, 
1570.00, 
1571.00, 
1572.00, 
1573.00, 
1574.00, 
1575.00, 
1576.00, 
1577.00, 
1578.00, 
1579.00, 
1580.00, 
1581.00, 
1582.00, 
1583.00, 
1584.00, 
1585.00, 
1586.00, 
1587.00, 
1588.00, 
1589.00, 
1590.00, 
1591.00, 
1592.00, 
1593.00, 
1594.00, 
1595.00, 
1596.00, 
1597.00, 
1598.00, 
1599.00, 
1600.00, 
1601.00, 
1602.00, 
1603.00, 
1604.00, 
1605.00, 
1606.00, 
1607.00, 
1608.00, 
1609.00, 
1610.00, 
1611.00, 
1612.00, 
1613.00, 
1614.00, 
1615.00, 
1616.00, 
1617.00, 
1618.00, 
1619.00, 
1620.00, 
1621.00, 
1622.00, 
1623.00, 
1624.00, 
1625.00, 
1626.00, 
1627.00, 
1628.00, 
1629.00, 
1630.00, 
1631.00, 
1632.00, 
1633.00, 
1634.00, 
1635.00, 
1636.00, 
1637.00, 
1638.00, 
1639.00, 
1640.00, 
1641.00, 
1642.00, 
1643.00, 
1644.00, 
1645.00, 
1646.00, 
1647.00, 
1648.00, 
1649.00, 
1650.00, 
1651.00, 
1652.00, 
1653.00, 
1654.00, 
1655.00, 
1656.00, 
1657.00, 
1658.00, 
1659.00, 
1660.00, 
1661.00, 
1662.00, 
1663.00, 
1664.00, 
1665.00, 
1666.00, 
1667.00, 
1668.00, 
1669.00, 
1670.00, 
1671.00, 
1672.00, 
1673.00, 
1674.00, 
1675.00, 
1676.00, 
1677.00, 
1678.00, 
1679.00, 
1680.00, 
1681.00, 
1682.00, 
1683.00, 
1684.00, 
1685.00, 
1686.00, 
1687.00, 
1688.00, 
1689.00, 
1690.00, 
1691.00, 
1692.00, 
1693.00, 
1694.00, 
1695.00, 
1696.00, 
1697.00, 
1698.00, 
1699.00, 
1700.00, 
1701.00, 
1702.00, 
1703.00, 
1704.00, 
1705.00, 
1706.00, 
1707.00, 
1708.00, 
1709.00, 
1710.00, 
1711.00, 
1712.00, 
1713.00, 
1714.00, 
1715.00, 
1716.00, 
1717.00, 
1718.00, 
1719.00, 
1720.00, 
1721.00, 
1722.00, 
1723.00, 
1724.00, 
1725.00, 
1726.00, 
1727.00, 
1728.00, 
1729.00, 
1730.00, 
1731.00, 
1732.00, 
1733.00, 
1734.00, 
1735.00, 
1736.00, 
1737.00, 
1738.00, 
1739.00, 
1740.00, 
1741.00, 
1742.00, 
1743.00, 
1744.00, 
1745.00, 
1746.00, 
1747.00, 
1748.00, 
1749.00, 
1750.00, 
1751.00, 
1752.00, 
1753.00, 
1754.00, 
1755.00, 
1756.00, 
1757.00, 
1758.00, 
1759.00, 
1760.00, 
1761.00, 
1762.00, 
1763.00, 
1764.00, 
1765.00, 
1766.00, 
1767.00, 
1768.00, 
1769.00, 
1770.00, 
1771.00, 
1772.00, 
1773.00, 
1774.00, 
1775.00, 
1776.00, 
1777.00, 
1778.00, 
1779.00, 
1780.00, 
1781.00, 
1782.00, 
1783.00, 
1784.00, 
1785.00, 
1786.00, 
1787.00, 
1788.00, 
1789.00, 
1790.00, 
1791.00, 
1792.00, 
1793.00, 
1794.00, 
1795.00, 
1796.00, 
1797.00, 
1798.00, 
1799.00, 
1800.00, 
1801.00, 
1802.00, 
1803.00, 
1804.00, 
1805.00, 
1806.00, 
1807.00, 
1808.00, 
1809.00, 
1810.00, 
1811.00, 
1812.00, 
1813.00, 
1814.00, 
1815.00, 
1816.00, 
1817.00, 
1818.00, 
1819.00, 
1820.00, 
1821.00, 
1822.00, 
1823.00, 
1824.00, 
1825.00, 
1826.00, 
1827.00, 
1828.00, 
1829.00, 
1830.00, 
1831.00, 
1832.00, 
1833.00, 
1834.00, 
1835.00, 
1836.00, 
1837.00, 
1838.00, 
1839.00, 
1840.00, 
1841.00, 
1842.00, 
1843.00, 
1844.00, 
1845.00, 
1846.00, 
1847.00, 
1848.00, 
1849.00, 
1850.00, 
1851.00, 
1852.00, 
1853.00, 
1854.00, 
1855.00, 
1856.00, 
1857.00, 
1858.00, 
1859.00, 
1860.00, 
1861.00, 
1862.00, 
1863.00, 
1864.00, 
1865.00, 
1866.00, 
1867.00, 
1868.00, 
1869.00, 
1870.00, 
1871.00, 
1872.00, 
1873.00, 
1874.00, 
1875.00, 
1876.00, 
1877.00, 
1878.00, 
1879.00, 
1880.00, 
1881.00, 
1882.00, 
1883.00, 
1884.00, 
1885.00, 
1886.00, 
1887.00, 
1888.00, 
1889.00, 
1890.00, 
1891.00, 
1892.00, 
1893.00, 
1894.00, 
1895.00, 
1896.00, 
1897.00, 
1898.00, 
1899.00, 
1900.00, 
1901.00, 
1902.00, 
1903.00, 
1904.00, 
1905.00, 
1906.00, 
1907.00, 
1908.00, 
1909.00, 
1910.00, 
1911.00, 
1912.00, 
1913.00, 
1914.00, 
1915.00, 
1916.00, 
1917.00, 
1918.00, 
1919.00, 
1920.00, 
1921.00, 
1922.00, 
1923.00, 
1924.00, 
1925.00, 
1926.00, 
1927.00, 
1928.00, 
1929.00, 
1930.00, 
1931.00, 
1932.00, 
1933.00, 
1934.00, 
1935.00, 
1936.00, 
1937.00, 
1938.00, 
1939.00, 
1940.00, 
1941.00, 
1942.00, 
1943.00, 
1944.00, 
1945.00, 
1946.00, 
1947.00, 
1948.00, 
1949.00, 
1950.00, 
1951.00, 
1952.00, 
1953.00, 
1954.00, 
1955.00, 
1956.00, 
1957.00, 
1958.00, 
1959.00, 
1960.00, 
1961.00, 
1962.00, 
1963.00, 
1964.00, 
1965.00, 
1966.00, 
1967.00, 
1968.00, 
1969.00, 
1970.00, 
1971.00, 
1972.00, 
1973.00, 
1974.00, 
1975.00, 
1976.00, 
1977.00, 
1978.00, 
1979.00, 
1980.00, 
1981.00, 
1982.00, 
1983.00, 
1984.00, 
1985.00, 
1986.00, 
1987.00, 
1988.00, 
1989.00, 
1990.00, 
1991.00, 
1992.00, 
1993.00, 
1994.00, 
1995.00, 
1996.00, 
1997.00, 
1998.00, 
1999.00, 
2000.00, 
2001.00, 
2002.00, 
2003.00, 
2004.00, 
2005.00, 
2006.00, 
2007.00, 
2008.00, 
2009.00, 
2010.00, 
2011.00, 
2012.00, 
2013.00, 
2014.00, 
2015.00, 
2016.00, 
2017.00, 
2018.00, 
2019.00, 
2020.00, 
2021.00, 
2022.00, 
2023.00, 
2024.00, 
2025.00, 
2026.00, 
2027.00, 
2028.00, 
2029.00, 
2030.00, 
2031.00, 
2032.00, 
2033.00, 
2034.00, 
2035.00, 
2036.00, 
2037.00, 
2038.00, 
2039.00, 
2040.00, 
2041.00, 
2042.00, 
2043.00, 
2044.00, 
2045.00, 
2046.00, 
2047.00, 
2048.00, 
2049.00, 
2050.00, 
2051.00, 
2052.00, 
2053.00, 
2054.00, 
2055.00, 
2056.00, 
2057.00, 
2058.00, 
2059.00, 
2060.00, 
2061.00, 
2062.00, 
2063.00, 
2064.00, 
2065.00, 
2066.00, 
2067.00, 
2068.00, 
2069.00, 
2070.00, 
2071.00, 
2072.00, 
2073.00, 
2074.00, 
2075.00, 
2076.00, 
2077.00, 
2078.00, 
2079.00, 
2080.00, 
2081.00, 
2082.00, 
2083.00, 
2084.00, 
2085.00, 
2086.00, 
2087.00, 
2088.00, 
2089.00, 
2090.00, 
2091.00, 
2092.00, 
2093.00, 
2094.00, 
2095.00, 
2096.00, 
2097.00, 
2098.00, 
2099.00, 
2100.00, 
2101.00, 
2102.00, 
2103.00, 
2104.00, 
2105.00, 
2106.00, 
2107.00, 
2108.00, 
2109.00, 
2110.00, 
2111.00, 
2112.00, 
2113.00, 
2114.00, 
2115.00, 
2116.00, 
2117.00, 
2118.00, 
2119.00, 
2120.00, 
2121.00, 
2122.00, 
2123.00, 
2124.00, 
2125.00, 
2126.00, 
2127.00, 
2128.00, 
2129.00, 
2130.00, 
2131.00, 
2132.00, 
2133.00, 
2134.00, 
2135.00, 
2136.00, 
2137.00, 
2138.00, 
2139.00, 
2140.00, 
2141.00, 
2142.00, 
2143.00, 
2144.00, 
2145.00, 
2146.00, 
2147.00, 
2148.00, 
2149.00, 
2150.00, 
2151.00, 
2152.00, 
2153.00, 
2154.00, 
2155.00, 
2156.00, 
2157.00, 
2158.00, 
2159.00, 
2160.00, 
2161.00, 
2162.00, 
2163.00, 
2164.00, 
2165.00, 
2166.00, 
2167.00, 
2168.00, 
2169.00, 
2170.00, 
2171.00, 
2172.00, 
2173.00, 
2174.00, 
2175.00, 
2176.00, 
2177.00, 
2178.00, 
2179.00, 
2180.00, 
2181.00, 
2182.00, 
2183.00, 
2184.00, 
2185.00, 
2186.00, 
2187.00, 
2188.00, 
2189.00, 
2190.00, 
2191.00, 
2192.00, 
2193.00, 
2194.00, 
2195.00, 
2196.00, 
2197.00, 
2198.00, 
2199.00, 
2200.00, 
2201.00, 
2202.00, 
2203.00, 
2204.00, 
2205.00, 
2206.00, 
2207.00, 
2208.00, 
2209.00, 
2210.00, 
2211.00, 
2212.00, 
2213.00, 
2214.00, 
2215.00, 
2216.00, 
2217.00, 
2218.00, 
2219.00, 
2220.00, 
2221.00, 
2222.00, 
2223.00, 
2224.00, 
2225.00, 
2226.00, 
2227.00, 
2228.00, 
2229.00, 
2230.00, 
2231.00, 
2232.00, 
2233.00, 
2234.00, 
2235.00, 
2236.00, 
2237.00, 
2238.00, 
2239.00, 
2240.00, 
2241.00, 
2242.00, 
2243.00, 
2244.00, 
2245.00, 
2246.00, 
2247.00, 
2248.00, 
2249.00, 
2250.00, 
2251.00, 
2252.00, 
2253.00, 
2254.00, 
2255.00, 
2256.00, 
2257.00, 
2258.00, 
2259.00, 
2260.00, 
2261.00, 
2262.00, 
2263.00, 
2264.00, 
2265.00, 
2266.00, 
2267.00, 
2268.00, 
2269.00, 
2270.00, 
2271.00, 
2272.00, 
2273.00, 
2274.00, 
2275.00, 
2276.00, 
2277.00, 
2278.00, 
2279.00, 
2280.00, 
2281.00, 
2282.00, 
2283.00, 
2284.00, 
2285.00, 
2286.00, 
2287.00, 
2288.00, 
2289.00, 
2290.00, 
2291.00, 
2292.00, 
2293.00, 
2294.00, 
2295.00, 
2296.00, 
2297.00, 
2298.00, 
2299.00, 
2300.00, 
2301.00, 
2302.00, 
2303.00, 
2304.00, 
2305.00, 
2306.00, 
2307.00, 
2308.00, 
2309.00, 
2310.00, 
2311.00, 
2312.00, 
2313.00, 
2314.00, 
2315.00, 
2316.00, 
2317.00, 
2318.00, 
2319.00, 
2320.00, 
2321.00, 
2322.00, 
2323.00, 
2324.00, 
2325.00, 
2326.00, 
2327.00, 
2328.00, 
2329.00, 
2330.00, 
2331.00, 
2332.00, 
2333.00, 
2334.00, 
2335.00, 
2336.00, 
2337.00, 
2338.00, 
2339.00, 
2340.00, 
2341.00, 
2342.00, 
2343.00, 
2344.00, 
2345.00, 
2346.00, 
2347.00, 
2348.00, 
2349.00, 
2350.00, 
2351.00, 
2352.00, 
2353.00, 
2354.00, 
2355.00, 
2356.00, 
2357.00, 
2358.00, 
2359.00, 
2360.00, 
2361.00, 
2362.00, 
2363.00, 
2364.00, 
2365.00, 
2366.00, 
2367.00, 
2368.00, 
2369.00, 
2370.00, 
2371.00, 
2372.00, 
2373.00, 
2374.00, 
2375.00, 
2376.00, 
2377.00, 
2378.00, 
2379.00, 
2380.00, 
2381.00, 
2382.00, 
2383.00, 
2384.00, 
2385.00, 
2386.00, 
2387.00, 
2388.00, 
2389.00, 
2390.00, 
2391.00, 
2392.00, 
2393.00, 
2394.00, 
2395.00, 
2396.00, 
2397.00, 
2398.00, 
2399.00, 
2400.00, 
2401.00, 
2402.00, 
2403.00, 
2404.00, 
2405.00, 
2406.00, 
2407.00, 
2408.00, 
2409.00, 
2410.00, 
2411.00, 
2412.00, 
2413.00, 
2414.00, 
2415.00, 
2416.00, 
2417.00, 
2418.00, 
2419.00, 
2420.00, 
2421.00, 
2422.00, 
2423.00, 
2424.00, 
2425.00, 
2426.00, 
2427.00, 
2428.00, 
2429.00, 
2430.00, 
2431.00, 
2432.00, 
2433.00, 
2434.00, 
2435.00, 
2436.00, 
2437.00, 
2438.00, 
2439.00, 
2440.00, 
2441.00, 
2442.00, 
2443.00, 
2444.00, 
2445.00, 
2446.00, 
2447.00, 
2448.00, 
2449.00, 
2450.00, 
2451.00, 
2452.00, 
2453.00, 
2454.00, 
2455.00, 
2456.00, 
2457.00, 
2458.00, 
2459.00, 
2460.00, 
2461.00, 
2462.00, 
2463.00, 
2464.00, 
2465.00, 
2466.00, 
2467.00, 
2468.00, 
2469.00, 
2470.00, 
2471.00, 
2472.00, 
2473.00, 
2474.00, 
2475.00, 
2476.00, 
2477.00, 
2478.00, 
2479.00, 
2480.00, 
2481.00, 
2482.00, 
2483.00, 
2484.00, 
2485.00, 
2486.00, 
2487.00, 
2488.00, 
2489.00, 
2490.00, 
2491.00, 
2492.00, 
2493.00, 
2494.00, 
2495.00, 
2496.00, 
2497.00, 
2498.00, 
2499.00, 
2500.00, 
2501.00, 
2502.00, 
2503.00, 
2504.00, 
2505.00, 
2506.00, 
2507.00, 
2508.00, 
2509.00, 
2510.00, 
2511.00, 
2512.00, 
2513.00, 
2514.00, 
2515.00, 
2516.00, 
2517.00, 
2518.00, 
2519.00, 
2520.00, 
2521.00, 
2522.00, 
2523.00, 
2524.00, 
2525.00, 
2526.00, 
2527.00, 
2528.00, 
2529.00, 
2530.00, 
2531.00, 
2532.00, 
2533.00, 
2534.00, 
2535.00, 
2536.00, 
2537.00, 
2538.00, 
2539.00, 
2540.00, 
2541.00, 
2542.00, 
2543.00, 
2544.00, 
2545.00, 
2546.00, 
2547.00, 
2548.00, 
2549.00, 
2550.00, 
2551.00, 
2552.00, 
2553.00, 
2554.00, 
2555.00, 
2556.00, 
2557.00, 
2558.00, 
2559.00, 
2560.00, 
2561.00, 
2562.00, 
2563.00, 
2564.00, 
2565.00, 
2566.00, 
2567.00, 
2568.00, 
2569.00, 
2570.00, 
2571.00, 
2572.00, 
2573.00, 
2574.00, 
2575.00, 
2576.00, 
2577.00, 
2578.00, 
2579.00, 
2580.00, 
2581.00, 
2582.00, 
2583.00, 
2584.00, 
2585.00, 
2586.00, 
2587.00, 
2588.00, 
2589.00, 
2590.00, 
2591.00, 
2592.00, 
2593.00, 
2594.00, 
2595.00, 
2596.00, 
2597.00, 
2598.00, 
2599.00, 
2600.00, 
