"2cP1 - RawData"
"Wavelength nm.","T%"
200.00,0.004
201.00,0.001
202.00,0.005
203.00,0.003
204.00,0.003
205.00,0.002
206.00,-0.000
207.00,0.002
208.00,0.003
209.00,-0.000
210.00,0.002
211.00,0.001
212.00,0.001
213.00,0.003
214.00,-0.000
215.00,0.001
216.00,0.003
217.00,0.004
218.00,0.000
219.00,0.003
220.00,0.003
221.00,0.002
222.00,0.003
223.00,0.002
224.00,-0.000
225.00,0.000
226.00,0.001
227.00,0.003
228.00,0.000
229.00,-0.002
230.00,0.002
231.00,-0.001
232.00,-0.001
233.00,-0.002
234.00,0.001
235.00,0.002
236.00,0.001
237.00,0.002
238.00,0.002
239.00,0.000
240.00,-0.000
241.00,0.001
242.00,0.001
243.00,0.001
244.00,0.001
245.00,-0.000
246.00,0.002
247.00,-0.000
248.00,0.001
249.00,0.000
250.00,-0.000
251.00,0.002
252.00,-0.000
253.00,0.002
254.00,-0.000
255.00,-0.001
256.00,0.002
257.00,0.001
258.00,0.001
259.00,-0.001
260.00,0.000
261.00,-0.000
262.00,-0.001
263.00,-0.000
264.00,0.002
265.00,0.000
266.00,0.002
267.00,0.000
268.00,0.001
269.00,0.000
270.00,0.001
271.00,-0.000
272.00,0.001
273.00,0.001
274.00,0.001
275.00,0.001
276.00,0.000
277.00,0.000
278.00,-0.000
279.00,0.002
280.00,0.002
281.00,0.001
282.00,-0.000
283.00,0.002
284.00,0.000
285.00,-0.000
286.00,-0.000
287.00,0.002
288.00,-0.000
289.00,-0.000
290.00,-0.000
291.00,-0.001
292.00,0.001
293.00,-0.000
294.00,-0.000
295.00,0.001
296.00,0.002
297.00,0.001
298.00,-0.001
299.00,0.001
300.00,0.002
301.00,0.005
302.00,0.006
303.00,0.011
304.00,0.015
305.00,0.022
306.00,0.036
307.00,0.055
308.00,0.086
309.00,0.130
310.00,0.180
311.00,0.245
312.00,0.341
313.00,0.467
314.00,0.614
315.00,0.794
316.00,1.015
317.00,1.277
318.00,1.572
319.00,1.953
320.00,2.344
321.00,2.857
322.00,3.378
323.00,3.973
324.00,4.606
325.00,5.266
326.00,5.945
327.00,6.719
328.00,7.489
329.00,8.318
330.00,9.175
331.00,10.043
332.00,10.902
333.00,11.827
334.00,12.726
335.00,13.588
336.00,14.537
337.00,15.458
338.00,16.341
339.00,17.130
340.00,17.977
341.00,18.830
342.00,19.557
343.00,20.358
344.00,21.044
345.00,21.726
346.00,22.430
347.00,22.972
348.00,23.672
349.00,24.262
350.00,24.806
351.00,25.270
352.00,25.739
353.00,26.197
354.00,26.638
355.00,27.036
356.00,27.382
357.00,27.789
358.00,28.104
359.00,28.408
360.00,28.729
361.00,28.953
362.00,29.289
363.00,29.550
364.00,29.759
365.00,29.939
366.00,30.151
367.00,30.267
368.00,30.353
369.00,30.485
370.00,30.553
371.00,30.676
372.00,30.682
373.00,30.730
374.00,30.762
375.00,30.839
376.00,30.832
377.00,30.796
378.00,30.791
379.00,30.797
380.00,30.745
381.00,30.767
382.00,30.838
383.00,30.877
384.00,30.953
385.00,31.032
386.00,31.120
387.00,31.202
388.00,31.251
389.00,31.353
390.00,31.424
391.00,31.523
392.00,31.556
393.00,31.622
394.00,31.707
395.00,31.722
396.00,31.752
397.00,31.763
398.00,31.846
399.00,31.885
400.00,31.917
401.00,31.882
402.00,31.855
403.00,31.925
404.00,31.954
405.00,31.949
406.00,31.952
407.00,31.926
408.00,31.911
409.00,31.894
410.00,31.881
411.00,31.839
412.00,31.818
413.00,31.811
414.00,31.792
415.00,31.826
416.00,31.842
417.00,31.833
418.00,31.849
419.00,31.873
420.00,31.894
421.00,32.060
422.00,32.083
423.00,32.103
424.00,32.157
425.00,32.157
426.00,32.223
427.00,32.245
428.00,32.235
429.00,32.264
430.00,32.329
431.00,32.362
432.00,32.407
433.00,32.496
434.00,32.536
435.00,32.568
436.00,32.615
437.00,32.680
438.00,32.762
439.00,32.812
440.00,32.867
441.00,32.943
442.00,33.049
443.00,33.053
444.00,33.168
445.00,33.223
446.00,33.260
447.00,33.421
448.00,33.477
449.00,33.548
450.00,33.622
451.00,33.725
452.00,33.826
453.00,33.928
454.00,34.011
455.00,34.061
456.00,34.177
457.00,34.281
458.00,34.348
459.00,34.468
460.00,34.524
461.00,34.570
462.00,34.756
463.00,34.875
464.00,34.956
465.00,35.052
466.00,35.122
467.00,35.285
468.00,35.367
469.00,35.448
470.00,35.434
471.00,35.598
472.00,35.656
473.00,35.726
474.00,35.876
475.00,35.889
476.00,35.923
477.00,36.072
478.00,36.180
479.00,36.300
480.00,36.406
481.00,36.537
482.00,36.647
483.00,36.788
484.00,36.864
485.00,37.058
486.00,37.172
487.00,37.288
488.00,37.462
489.00,37.609
490.00,37.582
491.00,37.683
492.00,37.643
493.00,37.986
494.00,37.983
495.00,38.055
496.00,38.198
497.00,38.188
498.00,38.362
499.00,38.524
500.00,38.560
501.00,38.662
502.00,38.725
503.00,38.727
504.00,38.973
505.00,39.049
506.00,39.127
507.00,39.256
508.00,39.312
509.00,39.444
510.00,39.552
511.00,39.612
512.00,39.726
513.00,39.789
514.00,39.920
515.00,40.032
516.00,40.096
517.00,40.156
518.00,40.311
519.00,40.340
520.00,40.384
521.00,40.436
522.00,40.517
523.00,40.574
524.00,40.658
525.00,40.704
526.00,40.770
527.00,40.849
528.00,40.880
529.00,40.939
530.00,41.051
531.00,41.251
532.00,41.260
533.00,41.367
534.00,41.477
535.00,41.487
536.00,41.589
537.00,41.635
538.00,41.714
539.00,41.770
540.00,41.779
541.00,41.875
542.00,41.862
543.00,42.022
544.00,42.086
545.00,42.044
546.00,42.144
547.00,42.187
548.00,42.264
549.00,42.280
550.00,42.419
551.00,42.458
552.00,42.546
553.00,42.557
554.00,42.624
555.00,42.678
556.00,42.692
557.00,42.793
558.00,42.790
559.00,42.878
560.00,42.918
561.00,42.935
562.00,42.997
563.00,43.033
564.00,43.093
565.00,43.086
566.00,43.092
567.00,43.105
568.00,43.125
569.00,43.229
570.00,43.128
571.00,43.281
572.00,43.309
573.00,43.262
574.00,43.364
575.00,43.386
576.00,43.406
577.00,43.483
578.00,43.533
579.00,43.569
580.00,43.620
581.00,43.723
582.00,43.911
583.00,43.902
584.00,43.945
585.00,43.986
586.00,44.005
587.00,44.116
588.00,44.085
589.00,44.166
590.00,44.343
591.00,44.251
592.00,44.237
593.00,44.254
594.00,44.360
595.00,44.275
596.00,44.441
597.00,44.664
598.00,44.573
599.00,44.600
600.00,44.680
601.00,44.686
602.00,44.714
603.00,44.695
604.00,44.698
605.00,44.718
606.00,44.789
607.00,44.784
608.00,44.800
609.00,44.786
610.00,44.887
611.00,44.884
612.00,44.879
613.00,44.972
614.00,44.924
615.00,45.002
616.00,45.064
617.00,45.132
618.00,45.144
619.00,45.147
620.00,45.225
621.00,45.287
622.00,45.346
623.00,45.344
624.00,45.372
625.00,45.411
626.00,45.393
627.00,45.505
628.00,45.498
629.00,45.531
630.00,45.594
631.00,45.588
632.00,45.635
633.00,45.732
634.00,45.751
635.00,45.822
636.00,45.929
637.00,45.908
638.00,45.960
639.00,46.004
640.00,45.985
641.00,46.031
642.00,46.094
643.00,46.120
644.00,46.194
645.00,46.251
646.00,46.294
647.00,46.317
648.00,46.336
649.00,46.427
650.00,46.389
651.00,46.452
652.00,46.533
653.00,46.529
654.00,46.616
655.00,46.663
656.00,46.719
657.00,46.747
658.00,46.777
659.00,46.778
660.00,46.840
661.00,46.877
662.00,47.091
663.00,46.986
664.00,47.085
665.00,47.093
666.00,47.240
667.00,47.313
668.00,47.276
669.00,47.269
670.00,47.421
671.00,47.458
672.00,47.553
673.00,47.601
674.00,47.577
675.00,47.569
676.00,47.634
677.00,47.715
678.00,47.670
679.00,47.747
680.00,47.885
681.00,47.940
682.00,47.904
683.00,48.053
684.00,48.084
685.00,48.130
686.00,48.119
687.00,48.184
688.00,48.191
689.00,48.178
690.00,48.256
691.00,48.395
692.00,48.380
693.00,48.369
694.00,48.317
695.00,48.451
696.00,48.452
697.00,48.516
698.00,48.529
699.00,48.600
700.00,48.740
701.00,48.691
702.00,48.784
703.00,48.764
704.00,48.748
705.00,48.653
706.00,48.795
707.00,48.915
708.00,48.858
709.00,48.835
710.00,49.185
711.00,49.072
712.00,49.035
713.00,49.041
714.00,49.022
715.00,49.119
716.00,49.090
717.00,49.126
718.00,49.158
719.00,49.182
720.00,49.330
721.00,53.556
722.00,53.551
723.00,53.495
724.00,53.458
725.00,53.486
726.00,53.369
727.00,53.474
728.00,53.411
729.00,53.407
730.00,53.362
731.00,53.362
732.00,53.412
733.00,53.375
734.00,53.340
735.00,53.369
736.00,53.422
737.00,53.375
738.00,53.396
739.00,53.348
740.00,53.364
741.00,53.323
742.00,53.323
743.00,53.293
744.00,53.318
745.00,53.268
746.00,53.212
747.00,53.233
748.00,53.159
749.00,53.106
750.00,53.056
751.00,53.180
752.00,53.040
753.00,52.983
754.00,52.987
755.00,52.976
756.00,53.006
757.00,52.915
758.00,52.975
759.00,52.880
760.00,52.924
761.00,52.899
762.00,52.875
763.00,52.896
764.00,52.833
765.00,52.831
766.00,52.793
767.00,52.886
768.00,52.898
769.00,52.841
770.00,52.845
771.00,52.833
772.00,52.863
773.00,52.744
774.00,52.811
775.00,52.807
776.00,52.799
777.00,52.767
778.00,52.802
779.00,52.728
780.00,52.696
781.00,52.667
782.00,52.650
783.00,52.691
784.00,52.582
785.00,52.644
786.00,52.580
787.00,52.599
788.00,52.481
789.00,52.492
790.00,52.456
791.00,52.492
792.00,52.459
793.00,52.335
794.00,52.354
795.00,52.383
796.00,52.382
797.00,52.314
798.00,52.365
799.00,52.233
800.00,52.311
801.00,52.284
802.00,52.173
803.00,52.134
804.00,52.115
805.00,52.147
806.00,52.041
807.00,52.063
808.00,52.088
809.00,52.036
810.00,52.009
811.00,51.964
812.00,52.008
813.00,51.925
814.00,51.941
815.00,51.854
816.00,51.856
817.00,51.951
818.00,51.821
819.00,51.745
820.00,51.748
821.00,51.800
822.00,51.635
823.00,51.705
824.00,51.714
825.00,51.548
826.00,51.624
827.00,51.526
828.00,51.709
829.00,51.569
830.00,51.588
831.00,54.123
832.00,54.091
833.00,54.023
834.00,54.029
835.00,53.987
836.00,53.990
837.00,53.961
838.00,53.934
839.00,53.931
840.00,53.896
841.00,53.889
842.00,53.805
843.00,53.832
844.00,53.820
845.00,53.755
846.00,53.760
847.00,53.731
848.00,53.516
849.00,53.656
850.00,53.599
851.00,53.536
852.00,53.558
853.00,53.482
854.00,53.475
855.00,53.399
856.00,53.407
857.00,53.382
858.00,53.328
859.00,53.297
860.00,53.287
861.00,53.277
862.00,53.278
863.00,53.249
864.00,53.215
865.00,53.241
866.00,53.194
867.00,53.180
868.00,53.133
869.00,53.133
870.00,53.131
871.00,53.115
872.00,53.072
873.00,53.113
874.00,53.028
875.00,53.044
876.00,53.044
877.00,53.014
878.00,53.002
879.00,52.987
880.00,52.957
881.00,52.941
882.00,52.955
883.00,52.908
884.00,52.878
885.00,52.853
886.00,52.838
887.00,52.831
888.00,52.781
889.00,52.737
890.00,52.751
891.00,52.703
892.00,52.697
893.00,52.683
894.00,52.670
895.00,52.622
896.00,52.614
897.00,52.589
898.00,52.559
899.00,52.532
900.00,52.536
901.00,52.545
902.00,52.535
903.00,52.518
904.00,52.495
905.00,52.419
906.00,52.574
907.00,52.430
908.00,52.395
909.00,52.375
910.00,52.312
911.00,52.345
912.00,52.337
913.00,52.284
914.00,52.268
915.00,52.225
916.00,52.267
917.00,52.146
918.00,52.184
919.00,52.158
920.00,52.143
921.00,52.083
922.00,52.091
923.00,52.072
924.00,52.043
925.00,52.026
926.00,52.025
927.00,52.006
928.00,51.996
929.00,51.970
930.00,51.945
931.00,51.949
932.00,51.890
933.00,51.888
934.00,51.887
935.00,51.820
936.00,51.839
937.00,51.807
938.00,51.773
939.00,51.784
940.00,51.742
941.00,51.743
942.00,51.704
943.00,51.697
944.00,51.661
945.00,51.665
946.00,51.633
947.00,51.630
948.00,51.615
949.00,51.545
950.00,51.580
951.00,51.521
952.00,51.493
953.00,51.470
954.00,51.441
955.00,51.409
956.00,51.402
957.00,51.361
958.00,51.379
959.00,51.334
960.00,51.313
961.00,51.281
962.00,51.308
963.00,51.254
964.00,51.255
965.00,51.219
966.00,51.225
967.00,51.222
968.00,51.193
969.00,51.224
970.00,51.199
971.00,51.207
972.00,51.164
973.00,51.201
974.00,51.211
975.00,51.186
976.00,51.207
977.00,51.173
978.00,51.222
979.00,51.165
980.00,51.197
981.00,51.215
982.00,51.177
983.00,51.175
984.00,51.161
985.00,51.178
986.00,51.137
987.00,51.149
988.00,51.135
989.00,51.115
990.00,51.102
991.00,51.085
992.00,51.113
993.00,51.067
994.00,51.055
995.00,51.053
996.00,51.027
997.00,51.032
998.00,50.994
999.00,51.022
1000.00,50.966
1001.00,50.963
1002.00,50.944
1003.00,50.925
1004.00,50.923
1005.00,50.886
1006.00,50.917
1007.00,50.884
1008.00,50.876
1009.00,50.879
1010.00,50.873
1011.00,50.882
1012.00,50.803
1013.00,50.826
1014.00,50.787
1015.00,50.795
1016.00,50.765
1017.00,50.765
1018.00,50.734
1019.00,50.714
1020.00,50.708
1021.00,50.680
1022.00,50.687
1023.00,50.620
1024.00,50.634
1025.00,50.624
1026.00,50.611
1027.00,50.587
1028.00,50.582
1029.00,50.570
1030.00,50.537
1031.00,50.537
1032.00,50.491
1033.00,50.508
1034.00,50.480
1035.00,50.440
1036.00,50.421
1037.00,50.404
1038.00,50.384
1039.00,50.358
1040.00,50.364
1041.00,50.323
1042.00,50.317
1043.00,50.284
1044.00,50.327
1045.00,50.296
1046.00,50.299
1047.00,50.306
1048.00,50.315
1049.00,50.332
1050.00,50.337
1051.00,50.340
1052.00,50.367
1053.00,50.363
1054.00,50.363
1055.00,50.380
1056.00,50.380
1057.00,50.405
1058.00,50.397
1059.00,50.373
1060.00,50.384
1061.00,50.382
1062.00,50.355
1063.00,50.373
1064.00,50.343
1065.00,50.347
1066.00,50.336
1067.00,50.327
1068.00,50.342
1069.00,50.311
1070.00,50.280
1071.00,50.270
1072.00,50.282
1073.00,50.244
1074.00,50.260
1075.00,50.239
1076.00,50.224
1077.00,50.219
1078.00,50.201
1079.00,50.186
1080.00,50.208
1081.00,50.172
1082.00,50.183
1083.00,50.160
1084.00,50.141
1085.00,50.141
1086.00,50.142
1087.00,50.124
1088.00,50.120
1089.00,50.101
1090.00,50.103
1091.00,50.102
1092.00,50.085
1093.00,50.072
1094.00,50.055
1095.00,50.028
1096.00,50.033
1097.00,50.022
1098.00,50.023
1099.00,50.017
1100.00,50.002
1101.00,49.978
1102.00,49.985
1103.00,49.973
1104.00,49.965
1105.00,49.953
1106.00,49.941
1107.00,49.944
1108.00,49.922
1109.00,49.902
1110.00,49.918
1111.00,49.902
1112.00,49.891
1113.00,49.885
1114.00,49.888
1115.00,49.881
1116.00,49.871
1117.00,49.846
1118.00,49.846
1119.00,49.825
1120.00,49.821
1121.00,49.839
1122.00,49.809
1123.00,49.789
1124.00,49.808
1125.00,49.786
1126.00,49.793
1127.00,49.781
1128.00,49.776
1129.00,49.760
1130.00,49.742
1131.00,49.740
1132.00,49.737
1133.00,49.714
1134.00,49.685
1135.00,49.717
1136.00,49.716
1137.00,49.709
1138.00,49.710
1139.00,49.699
1140.00,49.698
1141.00,49.663
1142.00,49.672
1143.00,49.687
1144.00,49.665
1145.00,49.661
1146.00,49.675
1147.00,49.664
1148.00,49.667
1149.00,49.668
1150.00,49.663
1151.00,49.669
1152.00,49.638
1153.00,49.628
1154.00,49.634
1155.00,49.624
1156.00,49.616
1157.00,49.629
1158.00,49.616
1159.00,49.611
1160.00,49.607
1161.00,49.611
1162.00,49.603
1163.00,49.602
1164.00,49.593
1165.00,49.596
1166.00,49.582
1167.00,49.578
1168.00,49.594
1169.00,49.577
1170.00,49.583
1171.00,49.571
1172.00,49.573
1173.00,49.586
1174.00,49.566
1175.00,49.567
1176.00,49.577
1177.00,49.565
1178.00,49.562
1179.00,49.578
1180.00,49.564
1181.00,49.577
1182.00,49.580
1183.00,49.556
1184.00,49.554
1185.00,49.564
1186.00,49.550
1187.00,49.565
1188.00,49.535
1189.00,49.548
1190.00,49.539
1191.00,49.533
1192.00,49.542
1193.00,49.536
1194.00,49.547
1195.00,49.515
1196.00,49.532
1197.00,49.531
1198.00,49.534
1199.00,49.518
1200.00,49.516
1201.00,49.538
1202.00,49.512
1203.00,49.516
1204.00,49.514
1205.00,49.515
1206.00,49.513
1207.00,49.523
1208.00,49.500
1209.00,49.512
1210.00,49.509
1211.00,49.507
1212.00,49.525
1213.00,49.483
1214.00,49.509
1215.00,49.498
1216.00,49.490
1217.00,49.513
1218.00,49.493
1219.00,49.496
1220.00,49.507
1221.00,49.501
1222.00,49.496
1223.00,49.513
1224.00,49.505
1225.00,49.507
1226.00,49.504
1227.00,49.484
1228.00,49.504
1229.00,49.508
1230.00,49.542
1231.00,49.538
1232.00,49.547
1233.00,49.538
1234.00,49.561
1235.00,49.542
1236.00,49.546
1237.00,49.527
1238.00,49.532
1239.00,49.543
1240.00,49.526
1241.00,49.535
1242.00,49.544
1243.00,49.564
1244.00,49.538
1245.00,49.561
1246.00,49.567
1247.00,49.563
1248.00,49.565
1249.00,49.565
1250.00,49.577
1251.00,49.557
1252.00,49.559
1253.00,49.582
1254.00,49.600
1255.00,49.567
1256.00,49.556
1257.00,49.542
1258.00,49.599
1259.00,49.585
1260.00,49.600
1261.00,49.603
1262.00,49.590
1263.00,49.587
1264.00,49.604
1265.00,49.598
1266.00,49.603
1267.00,49.617
1268.00,49.624
1269.00,49.612
1270.00,49.629
1271.00,49.629
1272.00,49.635
1273.00,49.628
1274.00,49.629
1275.00,49.635
1276.00,49.643
1277.00,49.634
1278.00,49.659
1279.00,49.651
1280.00,49.653
1281.00,49.673
1282.00,49.661
1283.00,49.667
1284.00,49.673
1285.00,49.681
1286.00,49.684
1287.00,49.657
1288.00,49.670
1289.00,49.665
1290.00,49.683
1291.00,49.696
1292.00,49.694
1293.00,49.682
1294.00,49.703
1295.00,49.722
1296.00,49.711
1297.00,49.729
1298.00,49.729
1299.00,49.718
1300.00,49.737
1301.00,49.736
1302.00,49.743
1303.00,49.764
1304.00,49.736
1305.00,49.761
1306.00,49.771
1307.00,49.771
1308.00,49.775
1309.00,49.769
1310.00,49.778
1311.00,49.779
1312.00,49.771
1313.00,49.772
1314.00,49.809
1315.00,49.800
1316.00,49.813
1317.00,49.810
1318.00,49.805
1319.00,49.819
1320.00,49.837
1321.00,49.977
1322.00,50.005
1323.00,49.983
1324.00,49.979
1325.00,49.974
1326.00,49.994
1327.00,49.997
1328.00,50.022
1329.00,49.981
1330.00,49.986
1331.00,49.988
1332.00,49.997
1333.00,50.004
1334.00,50.031
1335.00,50.052
1336.00,50.079
1337.00,50.100
1338.00,50.157
1339.00,50.218
1340.00,50.260
1341.00,50.321
1342.00,50.386
1343.00,50.438
1344.00,50.483
1345.00,50.541
1346.00,50.573
1347.00,50.597
1348.00,50.620
1349.00,50.646
1350.00,50.660
1351.00,50.666
1352.00,50.679
1353.00,50.752
1354.00,50.679
1355.00,50.652
1356.00,50.674
1357.00,50.704
1358.00,50.706
1359.00,50.777
1360.00,50.949
1361.00,50.616
1362.00,50.688
1363.00,50.725
1364.00,50.723
1365.00,50.738
1366.00,50.793
1367.00,50.725
1368.00,50.725
1369.00,50.750
1370.00,50.700
1371.00,50.661
1372.00,50.668
1373.00,50.683
1374.00,50.682
1375.00,50.688
1376.00,50.679
1377.00,50.665
1378.00,50.725
1379.00,50.688
1380.00,50.683
1381.00,50.662
1382.00,50.683
1383.00,50.671
1384.00,50.655
1385.00,50.637
1386.00,50.652
1387.00,50.654
1388.00,50.626
1389.00,50.640
1390.00,50.661
1391.00,50.660
1392.00,50.679
1393.00,50.679
1394.00,50.634
1395.00,50.616
1396.00,50.616
1397.00,50.748
1398.00,50.649
1399.00,50.670
1400.00,50.336
1401.00,50.652
1402.00,50.671
1403.00,50.666
1404.00,50.650
1405.00,50.675
1406.00,50.673
1407.00,50.695
1408.00,50.678
1409.00,50.683
1410.00,50.719
1411.00,50.748
1412.00,50.735
1413.00,50.738
1414.00,50.724
1415.00,50.783
1416.00,50.818
1417.00,50.768
1418.00,50.770
1419.00,50.785
1420.00,50.803
1421.00,50.827
1422.00,50.814
1423.00,50.807
1424.00,50.843
1425.00,50.850
1426.00,50.870
1427.00,50.883
1428.00,50.890
1429.00,50.912
1430.00,50.916
1431.00,50.933
1432.00,50.953
1433.00,50.953
1434.00,50.970
1435.00,50.998
1436.00,51.011
1437.00,50.979
1438.00,51.018
1439.00,51.056
1440.00,51.054
1441.00,51.055
1442.00,51.056
1443.00,51.103
1444.00,51.135
1445.00,51.104
1446.00,51.128
1447.00,51.159
1448.00,51.160
1449.00,51.184
1450.00,51.177
1451.00,51.185
1452.00,51.197
1453.00,51.220
1454.00,51.241
1455.00,51.257
1456.00,51.268
1457.00,51.293
1458.00,51.303
1459.00,51.320
1460.00,51.338
1461.00,51.346
1462.00,51.352
1463.00,51.378
1464.00,51.385
1465.00,51.404
1466.00,51.406
1467.00,51.427
1468.00,51.465
1469.00,51.441
1470.00,51.454
1471.00,51.480
1472.00,51.482
1473.00,51.499
1474.00,51.516
1475.00,51.527
1476.00,51.533
1477.00,51.540
1478.00,51.554
1479.00,51.586
1480.00,51.569
1481.00,51.596
1482.00,51.619
1483.00,51.623
1484.00,51.630
1485.00,51.648
1486.00,51.641
1487.00,51.678
1488.00,51.671
1489.00,51.669
1490.00,51.703
1491.00,51.705
1492.00,51.710
1493.00,51.720
1494.00,51.733
1495.00,51.742
1496.00,51.748
1497.00,51.753
1498.00,51.760
1499.00,51.771
1500.00,51.795
1501.00, 
1502.00, 
1503.00, 
1504.00, 
1505.00, 
1506.00, 
1507.00, 
1508.00, 
1509.00, 
1510.00, 
1511.00, 
1512.00, 
1513.00, 
1514.00, 
1515.00, 
1516.00, 
1517.00, 
1518.00, 
1519.00, 
1520.00, 
1521.00, 
1522.00, 
1523.00, 
1524.00, 
1525.00, 
1526.00, 
1527.00, 
1528.00, 
1529.00, 
1530.00, 
1531.00, 
1532.00, 
1533.00, 
1534.00, 
1535.00, 
1536.00, 
1537.00, 
1538.00, 
1539.00, 
1540.00, 
1541.00, 
1542.00, 
1543.00, 
1544.00, 
1545.00, 
1546.00, 
1547.00, 
1548.00, 
1549.00, 
1550.00, 
1551.00, 
1552.00, 
1553.00, 
1554.00, 
1555.00, 
1556.00, 
1557.00, 
1558.00, 
1559.00, 
1560.00, 
1561.00, 
1562.00, 
1563.00, 
1564.00, 
1565.00, 
1566.00, 
1567.00, 
1568.00, 
1569.00, 
1570.00, 
1571.00, 
1572.00, 
1573.00, 
1574.00, 
1575.00, 
1576.00, 
1577.00, 
1578.00, 
1579.00, 
1580.00, 
1581.00, 
1582.00, 
1583.00, 
1584.00, 
1585.00, 
1586.00, 
1587.00, 
1588.00, 
1589.00, 
1590.00, 
1591.00, 
1592.00, 
1593.00, 
1594.00, 
1595.00, 
1596.00, 
1597.00, 
1598.00, 
1599.00, 
1600.00, 
1601.00, 
1602.00, 
1603.00, 
1604.00, 
1605.00, 
1606.00, 
1607.00, 
1608.00, 
1609.00, 
1610.00, 
1611.00, 
1612.00, 
1613.00, 
1614.00, 
1615.00, 
1616.00, 
1617.00, 
1618.00, 
1619.00, 
1620.00, 
1621.00, 
1622.00, 
1623.00, 
1624.00, 
1625.00, 
1626.00, 
1627.00, 
1628.00, 
1629.00, 
1630.00, 
1631.00, 
1632.00, 
1633.00, 
1634.00, 
1635.00, 
1636.00, 
1637.00, 
1638.00, 
1639.00, 
1640.00, 
1641.00, 
1642.00, 
1643.00, 
1644.00, 
1645.00, 
1646.00, 
1647.00, 
1648.00, 
1649.00, 
1650.00, 
1651.00, 
1652.00, 
1653.00, 
1654.00, 
1655.00, 
1656.00, 
1657.00, 
1658.00, 
1659.00, 
1660.00, 
1661.00, 
1662.00, 
1663.00, 
1664.00, 
1665.00, 
1666.00, 
1667.00, 
1668.00, 
1669.00, 
1670.00, 
1671.00, 
1672.00, 
1673.00, 
1674.00, 
1675.00, 
1676.00, 
1677.00, 
1678.00, 
1679.00, 
1680.00, 
1681.00, 
1682.00, 
1683.00, 
1684.00, 
1685.00, 
1686.00, 
1687.00, 
1688.00, 
1689.00, 
1690.00, 
1691.00, 
1692.00, 
1693.00, 
1694.00, 
1695.00, 
1696.00, 
1697.00, 
1698.00, 
1699.00, 
1700.00, 
1701.00, 
1702.00, 
1703.00, 
1704.00, 
1705.00, 
1706.00, 
1707.00, 
1708.00, 
1709.00, 
1710.00, 
1711.00, 
1712.00, 
1713.00, 
1714.00, 
1715.00, 
1716.00, 
1717.00, 
1718.00, 
1719.00, 
1720.00, 
1721.00, 
1722.00, 
1723.00, 
1724.00, 
1725.00, 
1726.00, 
1727.00, 
1728.00, 
1729.00, 
1730.00, 
1731.00, 
1732.00, 
1733.00, 
1734.00, 
1735.00, 
1736.00, 
1737.00, 
1738.00, 
1739.00, 
1740.00, 
1741.00, 
1742.00, 
1743.00, 
1744.00, 
1745.00, 
1746.00, 
1747.00, 
1748.00, 
1749.00, 
1750.00, 
1751.00, 
1752.00, 
1753.00, 
1754.00, 
1755.00, 
1756.00, 
1757.00, 
1758.00, 
1759.00, 
1760.00, 
1761.00, 
1762.00, 
1763.00, 
1764.00, 
1765.00, 
1766.00, 
1767.00, 
1768.00, 
1769.00, 
1770.00, 
1771.00, 
1772.00, 
1773.00, 
1774.00, 
1775.00, 
1776.00, 
1777.00, 
1778.00, 
1779.00, 
1780.00, 
1781.00, 
1782.00, 
1783.00, 
1784.00, 
1785.00, 
1786.00, 
1787.00, 
1788.00, 
1789.00, 
1790.00, 
1791.00, 
1792.00, 
1793.00, 
1794.00, 
1795.00, 
1796.00, 
1797.00, 
1798.00, 
1799.00, 
1800.00, 
1801.00, 
1802.00, 
1803.00, 
1804.00, 
1805.00, 
1806.00, 
1807.00, 
1808.00, 
1809.00, 
1810.00, 
1811.00, 
1812.00, 
1813.00, 
1814.00, 
1815.00, 
1816.00, 
1817.00, 
1818.00, 
1819.00, 
1820.00, 
1821.00, 
1822.00, 
1823.00, 
1824.00, 
1825.00, 
1826.00, 
1827.00, 
1828.00, 
1829.00, 
1830.00, 
1831.00, 
1832.00, 
1833.00, 
1834.00, 
1835.00, 
1836.00, 
1837.00, 
1838.00, 
1839.00, 
1840.00, 
1841.00, 
1842.00, 
1843.00, 
1844.00, 
1845.00, 
1846.00, 
1847.00, 
1848.00, 
1849.00, 
1850.00, 
1851.00, 
1852.00, 
1853.00, 
1854.00, 
1855.00, 
1856.00, 
1857.00, 
1858.00, 
1859.00, 
1860.00, 
1861.00, 
1862.00, 
1863.00, 
1864.00, 
1865.00, 
1866.00, 
1867.00, 
1868.00, 
1869.00, 
1870.00, 
1871.00, 
1872.00, 
1873.00, 
1874.00, 
1875.00, 
1876.00, 
1877.00, 
1878.00, 
1879.00, 
1880.00, 
1881.00, 
1882.00, 
1883.00, 
1884.00, 
1885.00, 
1886.00, 
1887.00, 
1888.00, 
1889.00, 
1890.00, 
1891.00, 
1892.00, 
1893.00, 
1894.00, 
1895.00, 
1896.00, 
1897.00, 
1898.00, 
1899.00, 
1900.00, 
1901.00, 
1902.00, 
1903.00, 
1904.00, 
1905.00, 
1906.00, 
1907.00, 
1908.00, 
1909.00, 
1910.00, 
1911.00, 
1912.00, 
1913.00, 
1914.00, 
1915.00, 
1916.00, 
1917.00, 
1918.00, 
1919.00, 
1920.00, 
1921.00, 
1922.00, 
1923.00, 
1924.00, 
1925.00, 
1926.00, 
1927.00, 
1928.00, 
1929.00, 
1930.00, 
1931.00, 
1932.00, 
1933.00, 
1934.00, 
1935.00, 
1936.00, 
1937.00, 
1938.00, 
1939.00, 
1940.00, 
1941.00, 
1942.00, 
1943.00, 
1944.00, 
1945.00, 
1946.00, 
1947.00, 
1948.00, 
1949.00, 
1950.00, 
1951.00, 
1952.00, 
1953.00, 
1954.00, 
1955.00, 
1956.00, 
1957.00, 
1958.00, 
1959.00, 
1960.00, 
1961.00, 
1962.00, 
1963.00, 
1964.00, 
1965.00, 
1966.00, 
1967.00, 
1968.00, 
1969.00, 
1970.00, 
1971.00, 
1972.00, 
1973.00, 
1974.00, 
1975.00, 
1976.00, 
1977.00, 
1978.00, 
1979.00, 
1980.00, 
1981.00, 
1982.00, 
1983.00, 
1984.00, 
1985.00, 
1986.00, 
1987.00, 
1988.00, 
1989.00, 
1990.00, 
1991.00, 
1992.00, 
1993.00, 
1994.00, 
1995.00, 
1996.00, 
1997.00, 
1998.00, 
1999.00, 
2000.00, 
2001.00, 
2002.00, 
2003.00, 
2004.00, 
2005.00, 
2006.00, 
2007.00, 
2008.00, 
2009.00, 
2010.00, 
2011.00, 
2012.00, 
2013.00, 
2014.00, 
2015.00, 
2016.00, 
2017.00, 
2018.00, 
2019.00, 
2020.00, 
2021.00, 
2022.00, 
2023.00, 
2024.00, 
2025.00, 
2026.00, 
2027.00, 
2028.00, 
2029.00, 
2030.00, 
2031.00, 
2032.00, 
2033.00, 
2034.00, 
2035.00, 
2036.00, 
2037.00, 
2038.00, 
2039.00, 
2040.00, 
2041.00, 
2042.00, 
2043.00, 
2044.00, 
2045.00, 
2046.00, 
2047.00, 
2048.00, 
2049.00, 
2050.00, 
2051.00, 
2052.00, 
2053.00, 
2054.00, 
2055.00, 
2056.00, 
2057.00, 
2058.00, 
2059.00, 
2060.00, 
2061.00, 
2062.00, 
2063.00, 
2064.00, 
2065.00, 
2066.00, 
2067.00, 
2068.00, 
2069.00, 
2070.00, 
2071.00, 
2072.00, 
2073.00, 
2074.00, 
2075.00, 
2076.00, 
2077.00, 
2078.00, 
2079.00, 
2080.00, 
2081.00, 
2082.00, 
2083.00, 
2084.00, 
2085.00, 
2086.00, 
2087.00, 
2088.00, 
2089.00, 
2090.00, 
2091.00, 
2092.00, 
2093.00, 
2094.00, 
2095.00, 
2096.00, 
2097.00, 
2098.00, 
2099.00, 
2100.00, 
2101.00, 
2102.00, 
2103.00, 
2104.00, 
2105.00, 
2106.00, 
2107.00, 
2108.00, 
2109.00, 
2110.00, 
2111.00, 
2112.00, 
2113.00, 
2114.00, 
2115.00, 
2116.00, 
2117.00, 
2118.00, 
2119.00, 
2120.00, 
2121.00, 
2122.00, 
2123.00, 
2124.00, 
2125.00, 
2126.00, 
2127.00, 
2128.00, 
2129.00, 
2130.00, 
2131.00, 
2132.00, 
2133.00, 
2134.00, 
2135.00, 
2136.00, 
2137.00, 
2138.00, 
2139.00, 
2140.00, 
2141.00, 
2142.00, 
2143.00, 
2144.00, 
2145.00, 
2146.00, 
2147.00, 
2148.00, 
2149.00, 
2150.00, 
2151.00, 
2152.00, 
2153.00, 
2154.00, 
2155.00, 
2156.00, 
2157.00, 
2158.00, 
2159.00, 
2160.00, 
2161.00, 
2162.00, 
2163.00, 
2164.00, 
2165.00, 
2166.00, 
2167.00, 
2168.00, 
2169.00, 
2170.00, 
2171.00, 
2172.00, 
2173.00, 
2174.00, 
2175.00, 
2176.00, 
2177.00, 
2178.00, 
2179.00, 
2180.00, 
2181.00, 
2182.00, 
2183.00, 
2184.00, 
2185.00, 
2186.00, 
2187.00, 
2188.00, 
2189.00, 
2190.00, 
2191.00, 
2192.00, 
2193.00, 
2194.00, 
2195.00, 
2196.00, 
2197.00, 
2198.00, 
2199.00, 
2200.00, 
2201.00, 
2202.00, 
2203.00, 
2204.00, 
2205.00, 
2206.00, 
2207.00, 
2208.00, 
2209.00, 
2210.00, 
2211.00, 
2212.00, 
2213.00, 
2214.00, 
2215.00, 
2216.00, 
2217.00, 
2218.00, 
2219.00, 
2220.00, 
2221.00, 
2222.00, 
2223.00, 
2224.00, 
2225.00, 
2226.00, 
2227.00, 
2228.00, 
2229.00, 
2230.00, 
2231.00, 
2232.00, 
2233.00, 
2234.00, 
2235.00, 
2236.00, 
2237.00, 
2238.00, 
2239.00, 
2240.00, 
2241.00, 
2242.00, 
2243.00, 
2244.00, 
2245.00, 
2246.00, 
2247.00, 
2248.00, 
2249.00, 
2250.00, 
2251.00, 
2252.00, 
2253.00, 
2254.00, 
2255.00, 
2256.00, 
2257.00, 
2258.00, 
2259.00, 
2260.00, 
2261.00, 
2262.00, 
2263.00, 
2264.00, 
2265.00, 
2266.00, 
2267.00, 
2268.00, 
2269.00, 
2270.00, 
2271.00, 
2272.00, 
2273.00, 
2274.00, 
2275.00, 
2276.00, 
2277.00, 
2278.00, 
2279.00, 
2280.00, 
2281.00, 
2282.00, 
2283.00, 
2284.00, 
2285.00, 
2286.00, 
2287.00, 
2288.00, 
2289.00, 
2290.00, 
2291.00, 
2292.00, 
2293.00, 
2294.00, 
2295.00, 
2296.00, 
2297.00, 
2298.00, 
2299.00, 
2300.00, 
2301.00, 
2302.00, 
2303.00, 
2304.00, 
2305.00, 
2306.00, 
2307.00, 
2308.00, 
2309.00, 
2310.00, 
2311.00, 
2312.00, 
2313.00, 
2314.00, 
2315.00, 
2316.00, 
2317.00, 
2318.00, 
2319.00, 
2320.00, 
2321.00, 
2322.00, 
2323.00, 
2324.00, 
2325.00, 
2326.00, 
2327.00, 
2328.00, 
2329.00, 
2330.00, 
2331.00, 
2332.00, 
2333.00, 
2334.00, 
2335.00, 
2336.00, 
2337.00, 
2338.00, 
2339.00, 
2340.00, 
2341.00, 
2342.00, 
2343.00, 
2344.00, 
2345.00, 
2346.00, 
2347.00, 
2348.00, 
2349.00, 
2350.00, 
2351.00, 
2352.00, 
2353.00, 
2354.00, 
2355.00, 
2356.00, 
2357.00, 
2358.00, 
2359.00, 
2360.00, 
2361.00, 
2362.00, 
2363.00, 
2364.00, 
2365.00, 
2366.00, 
2367.00, 
2368.00, 
2369.00, 
2370.00, 
2371.00, 
2372.00, 
2373.00, 
2374.00, 
2375.00, 
2376.00, 
2377.00, 
2378.00, 
2379.00, 
2380.00, 
2381.00, 
2382.00, 
2383.00, 
2384.00, 
2385.00, 
2386.00, 
2387.00, 
2388.00, 
2389.00, 
2390.00, 
2391.00, 
2392.00, 
2393.00, 
2394.00, 
2395.00, 
2396.00, 
2397.00, 
2398.00, 
2399.00, 
2400.00, 
2401.00, 
2402.00, 
2403.00, 
2404.00, 
2405.00, 
2406.00, 
2407.00, 
2408.00, 
2409.00, 
2410.00, 
2411.00, 
2412.00, 
2413.00, 
2414.00, 
2415.00, 
2416.00, 
2417.00, 
2418.00, 
2419.00, 
2420.00, 
2421.00, 
2422.00, 
2423.00, 
2424.00, 
2425.00, 
2426.00, 
2427.00, 
2428.00, 
2429.00, 
2430.00, 
2431.00, 
2432.00, 
2433.00, 
2434.00, 
2435.00, 
2436.00, 
2437.00, 
2438.00, 
2439.00, 
2440.00, 
2441.00, 
2442.00, 
2443.00, 
2444.00, 
2445.00, 
2446.00, 
2447.00, 
2448.00, 
2449.00, 
2450.00, 
2451.00, 
2452.00, 
2453.00, 
2454.00, 
2455.00, 
2456.00, 
2457.00, 
2458.00, 
2459.00, 
2460.00, 
2461.00, 
2462.00, 
2463.00, 
2464.00, 
2465.00, 
2466.00, 
2467.00, 
2468.00, 
2469.00, 
2470.00, 
2471.00, 
2472.00, 
2473.00, 
2474.00, 
2475.00, 
2476.00, 
2477.00, 
2478.00, 
2479.00, 
2480.00, 
2481.00, 
2482.00, 
2483.00, 
2484.00, 
2485.00, 
2486.00, 
2487.00, 
2488.00, 
2489.00, 
2490.00, 
2491.00, 
2492.00, 
2493.00, 
2494.00, 
2495.00, 
2496.00, 
2497.00, 
2498.00, 
2499.00, 
2500.00, 
2501.00, 
2502.00, 
2503.00, 
2504.00, 
2505.00, 
2506.00, 
2507.00, 
2508.00, 
2509.00, 
2510.00, 
2511.00, 
2512.00, 
2513.00, 
2514.00, 
2515.00, 
2516.00, 
2517.00, 
2518.00, 
2519.00, 
2520.00, 
2521.00, 
2522.00, 
2523.00, 
2524.00, 
2525.00, 
2526.00, 
2527.00, 
2528.00, 
2529.00, 
2530.00, 
2531.00, 
2532.00, 
2533.00, 
2534.00, 
2535.00, 
2536.00, 
2537.00, 
2538.00, 
2539.00, 
2540.00, 
2541.00, 
2542.00, 
2543.00, 
2544.00, 
2545.00, 
2546.00, 
2547.00, 
2548.00, 
2549.00, 
2550.00, 
2551.00, 
2552.00, 
2553.00, 
2554.00, 
2555.00, 
2556.00, 
2557.00, 
2558.00, 
2559.00, 
2560.00, 
2561.00, 
2562.00, 
2563.00, 
2564.00, 
2565.00, 
2566.00, 
2567.00, 
2568.00, 
2569.00, 
2570.00, 
2571.00, 
2572.00, 
2573.00, 
2574.00, 
2575.00, 
2576.00, 
2577.00, 
2578.00, 
2579.00, 
2580.00, 
2581.00, 
2582.00, 
2583.00, 
2584.00, 
2585.00, 
2586.00, 
2587.00, 
2588.00, 
2589.00, 
2590.00, 
2591.00, 
2592.00, 
2593.00, 
2594.00, 
2595.00, 
2596.00, 
2597.00, 
2598.00, 
2599.00, 
2600.00, 
