"1cP4 - RawData"
"Wavelength nm.","T%"
200.00,0.001
201.00,0.000
202.00,0.003
203.00,0.004
204.00,-0.000
205.00,0.002
206.00,-0.001
207.00,0.004
208.00,-0.001
209.00,-0.001
210.00,0.004
211.00,0.001
212.00,0.003
213.00,0.002
214.00,0.003
215.00,0.001
216.00,-0.000
217.00,-0.000
218.00,-0.001
219.00,0.002
220.00,0.000
221.00,0.000
222.00,0.001
223.00,-0.000
224.00,0.002
225.00,0.000
226.00,-0.001
227.00,-0.000
228.00,-0.001
229.00,-0.002
230.00,0.000
231.00,0.001
232.00,0.001
233.00,-0.001
234.00,0.002
235.00,0.001
236.00,-0.001
237.00,0.002
238.00,0.002
239.00,0.001
240.00,-0.001
241.00,0.001
242.00,-0.001
243.00,-0.001
244.00,-0.000
245.00,0.001
246.00,0.001
247.00,0.001
248.00,0.000
249.00,0.000
250.00,0.002
251.00,-0.000
252.00,0.002
253.00,0.000
254.00,0.000
255.00,-0.000
256.00,0.000
257.00,0.000
258.00,0.001
259.00,0.002
260.00,-0.001
261.00,-0.000
262.00,-0.001
263.00,-0.000
264.00,-0.002
265.00,0.002
266.00,0.002
267.00,-0.000
268.00,0.000
269.00,0.001
270.00,0.001
271.00,0.001
272.00,0.002
273.00,-0.001
274.00,0.001
275.00,-0.001
276.00,0.001
277.00,-0.002
278.00,0.002
279.00,0.000
280.00,0.001
281.00,-0.001
282.00,0.001
283.00,0.001
284.00,-0.002
285.00,0.000
286.00,0.002
287.00,0.002
288.00,-0.001
289.00,0.001
290.00,-0.000
291.00,0.000
292.00,0.001
293.00,0.002
294.00,0.001
295.00,-0.001
296.00,0.002
297.00,-0.000
298.00,0.002
299.00,0.001
300.00,0.001
301.00,0.001
302.00,0.002
303.00,-0.000
304.00,0.000
305.00,0.001
306.00,0.003
307.00,0.004
308.00,0.008
309.00,0.012
310.00,0.020
311.00,0.035
312.00,0.050
313.00,0.085
314.00,0.123
315.00,0.177
316.00,0.254
317.00,0.353
318.00,0.494
319.00,0.680
320.00,0.897
321.00,1.166
322.00,1.483
323.00,1.908
324.00,2.336
325.00,2.860
326.00,3.363
327.00,4.002
328.00,4.689
329.00,5.408
330.00,6.224
331.00,7.007
332.00,7.864
333.00,8.835
334.00,9.683
335.00,10.603
336.00,11.568
337.00,12.661
338.00,13.654
339.00,14.542
340.00,15.443
341.00,16.432
342.00,17.351
343.00,18.249
344.00,19.097
345.00,19.904
346.00,20.663
347.00,21.395
348.00,22.121
349.00,22.847
350.00,23.427
351.00,24.096
352.00,24.616
353.00,25.229
354.00,25.788
355.00,26.212
356.00,26.681
357.00,27.009
358.00,27.492
359.00,27.833
360.00,28.249
361.00,28.449
362.00,28.765
363.00,29.018
364.00,29.241
365.00,29.413
366.00,29.654
367.00,29.786
368.00,29.950
369.00,30.076
370.00,30.113
371.00,30.289
372.00,30.223
373.00,30.277
374.00,30.294
375.00,30.191
376.00,30.143
377.00,30.134
378.00,30.129
379.00,29.960
380.00,29.910
381.00,29.926
382.00,29.921
383.00,30.037
384.00,30.186
385.00,30.234
386.00,30.397
387.00,30.504
388.00,30.645
389.00,30.766
390.00,30.877
391.00,30.987
392.00,31.041
393.00,31.109
394.00,31.263
395.00,31.197
396.00,31.330
397.00,31.327
398.00,31.389
399.00,31.448
400.00,31.468
401.00,31.510
402.00,31.634
403.00,31.604
404.00,31.574
405.00,31.561
406.00,31.509
407.00,31.464
408.00,31.492
409.00,31.529
410.00,31.478
411.00,31.401
412.00,31.298
413.00,31.399
414.00,31.437
415.00,31.407
416.00,31.536
417.00,31.482
418.00,31.518
419.00,31.654
420.00,31.716
421.00,31.584
422.00,31.614
423.00,31.635
424.00,31.689
425.00,31.770
426.00,31.776
427.00,31.843
428.00,31.784
429.00,31.857
430.00,31.924
431.00,31.990
432.00,31.995
433.00,32.003
434.00,32.069
435.00,32.098
436.00,32.219
437.00,32.370
438.00,32.358
439.00,32.432
440.00,32.540
441.00,32.687
442.00,32.657
443.00,32.826
444.00,32.828
445.00,32.961
446.00,33.037
447.00,33.175
448.00,33.149
449.00,33.219
450.00,33.386
451.00,33.461
452.00,33.555
453.00,33.736
454.00,33.802
455.00,33.937
456.00,33.992
457.00,34.112
458.00,34.249
459.00,34.332
460.00,34.565
461.00,34.610
462.00,34.757
463.00,34.865
464.00,34.871
465.00,35.117
466.00,35.296
467.00,35.295
468.00,35.390
469.00,35.473
470.00,35.544
471.00,35.589
472.00,35.660
473.00,35.742
474.00,35.865
475.00,35.943
476.00,35.973
477.00,36.103
478.00,36.266
479.00,36.313
480.00,36.489
481.00,36.613
482.00,36.722
483.00,36.873
484.00,37.086
485.00,37.209
486.00,37.338
487.00,37.416
488.00,37.610
489.00,37.853
490.00,37.978
491.00,37.816
492.00,37.969
493.00,38.028
494.00,38.164
495.00,38.267
496.00,38.427
497.00,38.483
498.00,38.569
499.00,38.680
500.00,38.761
501.00,38.912
502.00,39.044
503.00,39.019
504.00,39.126
505.00,39.277
506.00,39.230
507.00,39.396
508.00,39.504
509.00,39.657
510.00,39.681
511.00,39.802
512.00,39.923
513.00,40.048
514.00,40.084
515.00,40.255
516.00,40.225
517.00,40.332
518.00,40.442
519.00,40.480
520.00,40.481
521.00,40.515
522.00,40.598
523.00,40.775
524.00,40.877
525.00,40.983
526.00,41.094
527.00,41.147
528.00,41.244
529.00,41.405
530.00,41.574
531.00,41.574
532.00,41.600
533.00,41.716
534.00,41.695
535.00,41.814
536.00,41.876
537.00,41.845
538.00,41.966
539.00,41.919
540.00,41.928
541.00,42.013
542.00,42.021
543.00,42.148
544.00,42.228
545.00,42.326
546.00,42.397
547.00,42.392
548.00,42.402
549.00,42.587
550.00,42.630
551.00,42.617
552.00,42.616
553.00,42.635
554.00,42.731
555.00,42.768
556.00,42.846
557.00,42.797
558.00,42.853
559.00,42.909
560.00,43.085
561.00,43.049
562.00,43.132
563.00,43.187
564.00,43.082
565.00,43.049
566.00,43.279
567.00,43.162
568.00,43.268
569.00,43.309
570.00,43.354
571.00,43.298
572.00,43.303
573.00,43.322
574.00,43.283
575.00,43.256
576.00,43.365
577.00,43.423
578.00,43.445
579.00,43.477
580.00,43.665
581.00,43.674
582.00,43.733
583.00,43.861
584.00,43.853
585.00,43.830
586.00,43.939
587.00,44.004
588.00,43.911
589.00,43.950
590.00,44.005
591.00,43.885
592.00,44.100
593.00,44.227
594.00,44.168
595.00,44.252
596.00,44.204
597.00,44.223
598.00,44.511
599.00,44.522
600.00,44.313
601.00,44.254
602.00,44.282
603.00,44.337
604.00,44.503
605.00,44.376
606.00,44.324
607.00,44.526
608.00,44.688
609.00,44.824
610.00,44.763
611.00,44.602
612.00,44.664
613.00,44.694
614.00,44.829
615.00,44.805
616.00,44.760
617.00,44.810
618.00,44.878
619.00,44.883
620.00,44.883
621.00,44.970
622.00,45.037
623.00,45.094
624.00,45.161
625.00,45.112
626.00,45.319
627.00,45.173
628.00,45.215
629.00,45.233
630.00,45.168
631.00,45.291
632.00,45.427
633.00,45.502
634.00,45.593
635.00,45.587
636.00,45.445
637.00,45.441
638.00,45.536
639.00,45.828
640.00,45.748
641.00,45.735
642.00,45.913
643.00,45.934
644.00,45.952
645.00,46.117
646.00,46.161
647.00,46.143
648.00,46.110
649.00,46.298
650.00,46.301
651.00,46.318
652.00,46.242
653.00,46.297
654.00,46.339
655.00,46.678
656.00,46.893
657.00,46.831
658.00,46.708
659.00,46.759
660.00,46.859
661.00,46.725
662.00,46.873
663.00,46.994
664.00,47.261
665.00,46.901
666.00,46.983
667.00,47.183
668.00,47.624
669.00,47.229
670.00,47.243
671.00,47.516
672.00,47.643
673.00,47.332
674.00,47.640
675.00,47.535
676.00,47.520
677.00,47.561
678.00,47.722
679.00,48.097
680.00,47.716
681.00,47.827
682.00,48.002
683.00,47.832
684.00,47.713
685.00,47.972
686.00,48.098
687.00,47.966
688.00,48.177
689.00,48.305
690.00,48.301
691.00,48.622
692.00,48.116
693.00,48.133
694.00,48.294
695.00,48.517
696.00,48.444
697.00,48.336
698.00,48.467
699.00,48.410
700.00,48.495
701.00,48.647
702.00,48.779
703.00,48.748
704.00,48.780
705.00,49.310
706.00,48.607
707.00,48.943
708.00,48.646
709.00,48.781
710.00,48.721
711.00,48.740
712.00,49.161
713.00,49.012
714.00,48.884
715.00,49.001
716.00,48.908
717.00,49.247
718.00,49.166
719.00,49.250
720.00,49.226
721.00,54.088
722.00,53.940
723.00,54.130
724.00,54.084
725.00,53.989
726.00,54.001
727.00,54.024
728.00,53.970
729.00,53.902
730.00,53.955
731.00,53.966
732.00,53.895
733.00,53.862
734.00,53.778
735.00,53.799
736.00,53.801
737.00,54.000
738.00,53.867
739.00,53.905
740.00,54.055
741.00,53.838
742.00,53.980
743.00,53.825
744.00,53.883
745.00,53.929
746.00,53.836
747.00,53.705
748.00,53.793
749.00,53.791
750.00,53.768
751.00,53.758
752.00,53.642
753.00,53.560
754.00,53.613
755.00,53.697
756.00,53.443
757.00,53.551
758.00,53.513
759.00,53.728
760.00,53.435
761.00,53.574
762.00,53.341
763.00,53.350
764.00,53.445
765.00,53.355
766.00,53.415
767.00,53.361
768.00,53.361
769.00,53.260
770.00,53.348
771.00,53.301
772.00,53.387
773.00,53.336
774.00,53.310
775.00,53.362
776.00,53.200
777.00,53.319
778.00,53.217
779.00,53.222
780.00,53.314
781.00,53.215
782.00,53.259
783.00,53.107
784.00,53.052
785.00,53.101
786.00,52.996
787.00,53.102
788.00,52.969
789.00,53.004
790.00,52.816
791.00,53.009
792.00,52.953
793.00,53.022
794.00,52.934
795.00,52.757
796.00,52.882
797.00,52.669
798.00,52.788
799.00,52.631
800.00,52.591
801.00,52.604
802.00,52.602
803.00,52.691
804.00,52.665
805.00,52.502
806.00,52.555
807.00,52.529
808.00,52.505
809.00,52.211
810.00,52.448
811.00,52.336
812.00,52.339
813.00,52.363
814.00,52.250
815.00,52.371
816.00,52.284
817.00,52.271
818.00,52.252
819.00,52.187
820.00,52.182
821.00,51.993
822.00,52.182
823.00,52.080
824.00,52.226
825.00,52.015
826.00,52.157
827.00,52.030
828.00,52.127
829.00,52.111
830.00,51.780
831.00,54.152
832.00,54.153
833.00,54.150
834.00,54.217
835.00,54.181
836.00,54.207
837.00,54.255
838.00,54.162
839.00,54.014
840.00,53.987
841.00,53.942
842.00,53.964
843.00,53.904
844.00,53.802
845.00,53.853
846.00,53.738
847.00,53.673
848.00,53.954
849.00,53.753
850.00,53.654
851.00,53.669
852.00,53.646
853.00,53.616
854.00,53.476
855.00,53.551
856.00,53.468
857.00,53.507
858.00,53.440
859.00,53.483
860.00,53.387
861.00,53.426
862.00,53.410
863.00,53.297
864.00,53.309
865.00,53.276
866.00,53.286
867.00,53.314
868.00,53.239
869.00,53.165
870.00,53.265
871.00,53.215
872.00,53.256
873.00,53.158
874.00,53.179
875.00,53.366
876.00,53.170
877.00,53.160
878.00,53.128
879.00,53.101
880.00,53.039
881.00,53.035
882.00,53.048
883.00,53.016
884.00,53.000
885.00,52.963
886.00,52.958
887.00,52.903
888.00,52.887
889.00,52.893
890.00,52.886
891.00,52.820
892.00,52.846
893.00,52.783
894.00,52.816
895.00,52.742
896.00,52.753
897.00,52.708
898.00,52.616
899.00,52.709
900.00,52.632
901.00,52.682
902.00,52.627
903.00,52.661
904.00,52.547
905.00,52.595
906.00,52.563
907.00,52.552
908.00,52.502
909.00,52.507
910.00,52.448
911.00,52.472
912.00,52.430
913.00,52.415
914.00,52.408
915.00,52.356
916.00,52.323
917.00,52.327
918.00,52.295
919.00,52.280
920.00,52.216
921.00,52.234
922.00,52.203
923.00,52.222
924.00,52.190
925.00,52.170
926.00,52.172
927.00,52.179
928.00,52.118
929.00,52.081
930.00,52.226
931.00,52.057
932.00,52.041
933.00,52.023
934.00,51.995
935.00,51.962
936.00,52.008
937.00,51.983
938.00,51.965
939.00,51.957
940.00,51.914
941.00,51.902
942.00,51.915
943.00,51.814
944.00,51.795
945.00,51.791
946.00,51.790
947.00,51.763
948.00,51.727
949.00,51.734
950.00,51.711
951.00,51.668
952.00,51.662
953.00,51.665
954.00,51.596
955.00,51.640
956.00,51.556
957.00,51.542
958.00,51.541
959.00,51.495
960.00,51.426
961.00,51.467
962.00,51.468
963.00,51.420
964.00,51.411
965.00,51.448
966.00,51.383
967.00,51.387
968.00,51.346
969.00,51.389
970.00,51.356
971.00,51.358
972.00,51.357
973.00,51.323
974.00,51.359
975.00,51.410
976.00,51.348
977.00,51.329
978.00,51.367
979.00,51.356
980.00,51.321
981.00,51.325
982.00,51.279
983.00,51.317
984.00,51.289
985.00,51.300
986.00,51.283
987.00,51.285
988.00,51.268
989.00,51.235
990.00,51.274
991.00,51.329
992.00,51.242
993.00,51.214
994.00,51.215
995.00,51.218
996.00,51.167
997.00,51.188
998.00,51.179
999.00,51.147
1000.00,51.127
1001.00,51.139
1002.00,51.110
1003.00,51.050
1004.00,51.123
1005.00,51.064
1006.00,51.069
1007.00,51.063
1008.00,51.046
1009.00,51.045
1010.00,50.986
1011.00,51.016
1012.00,50.978
1013.00,50.969
1014.00,50.947
1015.00,50.945
1016.00,50.955
1017.00,50.917
1018.00,50.921
1019.00,50.900
1020.00,50.901
1021.00,50.835
1022.00,50.833
1023.00,50.812
1024.00,50.796
1025.00,50.782
1026.00,50.760
1027.00,50.747
1028.00,50.727
1029.00,50.736
1030.00,50.700
1031.00,50.695
1032.00,50.674
1033.00,50.644
1034.00,50.635
1035.00,50.600
1036.00,50.620
1037.00,50.589
1038.00,50.579
1039.00,50.541
1040.00,50.521
1041.00,50.517
1042.00,50.509
1043.00,50.479
1044.00,50.523
1045.00,50.484
1046.00,50.497
1047.00,50.536
1048.00,50.525
1049.00,50.544
1050.00,50.520
1051.00,50.544
1052.00,50.563
1053.00,50.567
1054.00,50.555
1055.00,50.560
1056.00,50.584
1057.00,50.565
1058.00,50.557
1059.00,50.543
1060.00,50.575
1061.00,50.575
1062.00,50.552
1063.00,50.560
1064.00,50.559
1065.00,50.542
1066.00,50.540
1067.00,50.525
1068.00,50.541
1069.00,50.513
1070.00,50.504
1071.00,50.494
1072.00,50.466
1073.00,50.471
1074.00,50.452
1075.00,50.457
1076.00,50.438
1077.00,50.446
1078.00,50.431
1079.00,50.439
1080.00,50.435
1081.00,50.423
1082.00,50.447
1083.00,50.414
1084.00,50.387
1085.00,50.415
1086.00,50.393
1087.00,50.386
1088.00,50.370
1089.00,50.378
1090.00,50.380
1091.00,50.374
1092.00,50.344
1093.00,50.339
1094.00,50.310
1095.00,50.289
1096.00,50.276
1097.00,50.273
1098.00,50.252
1099.00,50.260
1100.00,50.247
1101.00,50.236
1102.00,50.227
1103.00,50.234
1104.00,50.223
1105.00,50.225
1106.00,50.206
1107.00,50.205
1108.00,50.194
1109.00,50.159
1110.00,50.183
1111.00,50.173
1112.00,50.176
1113.00,50.178
1114.00,50.149
1115.00,50.179
1116.00,50.147
1117.00,50.137
1118.00,50.124
1119.00,50.171
1120.00,50.119
1121.00,50.116
1122.00,50.126
1123.00,50.074
1124.00,50.115
1125.00,50.077
1126.00,50.105
1127.00,50.081
1128.00,50.065
1129.00,50.060
1130.00,50.043
1131.00,50.036
1132.00,50.033
1133.00,50.020
1134.00,50.012
1135.00,50.019
1136.00,50.013
1137.00,50.059
1138.00,50.038
1139.00,50.018
1140.00,50.022
1141.00,50.000
1142.00,49.974
1143.00,50.061
1144.00,49.976
1145.00,49.966
1146.00,49.966
1147.00,49.943
1148.00,49.974
1149.00,49.963
1150.00,49.985
1151.00,49.976
1152.00,49.956
1153.00,49.983
1154.00,49.962
1155.00,49.970
1156.00,49.957
1157.00,49.953
1158.00,49.953
1159.00,49.959
1160.00,49.955
1161.00,49.963
1162.00,49.999
1163.00,49.974
1164.00,49.976
1165.00,49.973
1166.00,49.960
1167.00,49.950
1168.00,49.963
1169.00,49.947
1170.00,49.967
1171.00,49.961
1172.00,49.933
1173.00,49.956
1174.00,49.937
1175.00,49.925
1176.00,49.942
1177.00,49.935
1178.00,49.925
1179.00,49.935
1180.00,49.909
1181.00,49.952
1182.00,49.925
1183.00,49.930
1184.00,49.934
1185.00,49.937
1186.00,49.892
1187.00,49.930
1188.00,49.954
1189.00,49.918
1190.00,49.928
1191.00,49.890
1192.00,49.943
1193.00,49.930
1194.00,49.928
1195.00,49.938
1196.00,49.924
1197.00,49.944
1198.00,49.941
1199.00,49.946
1200.00,49.913
1201.00,49.947
1202.00,49.911
1203.00,49.954
1204.00,49.939
1205.00,49.915
1206.00,49.930
1207.00,49.936
1208.00,49.929
1209.00,49.935
1210.00,49.960
1211.00,49.924
1212.00,49.948
1213.00,49.927
1214.00,49.931
1215.00,49.918
1216.00,49.892
1217.00,49.922
1218.00,49.920
1219.00,49.934
1220.00,49.941
1221.00,49.949
1222.00,49.965
1223.00,49.970
1224.00,49.969
1225.00,49.964
1226.00,49.986
1227.00,49.933
1228.00,49.958
1229.00,49.962
1230.00,50.004
1231.00,49.991
1232.00,49.965
1233.00,50.002
1234.00,50.020
1235.00,50.024
1236.00,50.018
1237.00,50.053
1238.00,50.016
1239.00,50.033
1240.00,50.016
1241.00,50.027
1242.00,50.031
1243.00,50.025
1244.00,50.019
1245.00,50.038
1246.00,50.058
1247.00,50.054
1248.00,50.067
1249.00,50.060
1250.00,50.079
1251.00,50.070
1252.00,50.064
1253.00,50.068
1254.00,50.084
1255.00,50.087
1256.00,50.085
1257.00,50.044
1258.00,50.101
1259.00,50.094
1260.00,50.097
1261.00,50.107
1262.00,50.131
1263.00,50.107
1264.00,50.113
1265.00,50.138
1266.00,50.117
1267.00,50.148
1268.00,50.124
1269.00,50.147
1270.00,50.163
1271.00,50.153
1272.00,50.170
1273.00,50.171
1274.00,50.159
1275.00,50.175
1276.00,50.175
1277.00,50.187
1278.00,50.210
1279.00,50.205
1280.00,50.218
1281.00,50.236
1282.00,50.228
1283.00,50.253
1284.00,50.252
1285.00,50.236
1286.00,50.236
1287.00,50.235
1288.00,50.229
1289.00,50.244
1290.00,50.257
1291.00,50.268
1292.00,50.272
1293.00,50.261
1294.00,50.299
1295.00,50.310
1296.00,50.293
1297.00,50.287
1298.00,50.296
1299.00,50.320
1300.00,50.324
1301.00,50.309
1302.00,50.378
1303.00,50.360
1304.00,50.381
1305.00,50.364
1306.00,50.429
1307.00,50.375
1308.00,50.347
1309.00,50.390
1310.00,50.415
1311.00,50.420
1312.00,50.394
1313.00,50.436
1314.00,50.438
1315.00,50.448
1316.00,50.438
1317.00,50.448
1318.00,50.451
1319.00,50.466
1320.00,50.472
1321.00,50.661
1322.00,50.646
1323.00,50.598
1324.00,50.638
1325.00,50.631
1326.00,50.606
1327.00,50.644
1328.00,50.613
1329.00,50.656
1330.00,50.650
1331.00,50.651
1332.00,50.658
1333.00,50.671
1334.00,50.611
1335.00,50.699
1336.00,50.745
1337.00,50.750
1338.00,50.832
1339.00,50.841
1340.00,50.920
1341.00,51.001
1342.00,51.057
1343.00,51.096
1344.00,51.116
1345.00,51.178
1346.00,51.265
1347.00,51.247
1348.00,51.227
1349.00,51.341
1350.00,51.310
1351.00,51.323
1352.00,51.294
1353.00,51.469
1354.00,51.345
1355.00,51.127
1356.00,51.576
1357.00,51.378
1358.00,51.683
1359.00,51.230
1360.00,51.530
1361.00,51.814
1362.00,51.098
1363.00,51.689
1364.00,51.400
1365.00,51.301
1366.00,51.624
1367.00,51.582
1368.00,51.349
1369.00,51.568
1370.00,51.273
1371.00,51.406
1372.00,51.427
1373.00,51.605
1374.00,51.454
1375.00,51.625
1376.00,51.302
1377.00,51.558
1378.00,51.496
1379.00,51.546
1380.00,51.789
1381.00,51.437
1382.00,51.358
1383.00,51.567
1384.00,51.349
1385.00,51.145
1386.00,51.347
1387.00,51.263
1388.00,51.401
1389.00,51.317
1390.00,51.495
1391.00,51.029
1392.00,51.326
1393.00,51.655
1394.00,51.472
1395.00,51.197
1396.00,51.428
1397.00,51.436
1398.00,51.449
1399.00,51.334
1400.00,51.369
1401.00,51.416
1402.00,51.599
1403.00,51.525
1404.00,51.554
1405.00,51.432
1406.00,51.469
1407.00,51.415
1408.00,51.444
1409.00,51.444
1410.00,51.524
1411.00,51.414
1412.00,51.632
1413.00,51.616
1414.00,51.498
1415.00,51.530
1416.00,51.554
1417.00,51.607
1418.00,51.543
1419.00,51.596
1420.00,51.609
1421.00,51.654
1422.00,51.588
1423.00,51.686
1424.00,51.633
1425.00,51.664
1426.00,51.684
1427.00,51.684
1428.00,51.718
1429.00,51.781
1430.00,51.769
1431.00,51.698
1432.00,51.868
1433.00,51.770
1434.00,51.826
1435.00,51.869
1436.00,51.805
1437.00,51.904
1438.00,51.867
1439.00,51.951
1440.00,51.904
1441.00,51.959
1442.00,51.961
1443.00,51.971
1444.00,52.251
1445.00,51.971
1446.00,52.053
1447.00,52.062
1448.00,52.075
1449.00,52.079
1450.00,52.106
1451.00,52.157
1452.00,52.144
1453.00,52.163
1454.00,52.162
1455.00,52.183
1456.00,52.193
1457.00,52.211
1458.00,52.228
1459.00,52.256
1460.00,52.276
1461.00,52.289
1462.00,52.304
1463.00,52.333
1464.00,52.331
1465.00,52.354
1466.00,52.358
1467.00,52.364
1468.00,52.415
1469.00,52.439
1470.00,52.455
1471.00,52.455
1472.00,52.472
1473.00,52.487
1474.00,52.506
1475.00,52.522
1476.00,52.530
1477.00,52.504
1478.00,52.540
1479.00,52.560
1480.00,52.569
1481.00,52.592
1482.00,52.616
1483.00,52.617
1484.00,52.657
1485.00,52.649
1486.00,52.678
1487.00,52.705
1488.00,52.688
1489.00,52.719
1490.00,52.718
1491.00,52.716
1492.00,52.775
1493.00,52.752
1494.00,52.799
1495.00,52.800
1496.00,52.824
1497.00,52.798
1498.00,52.827
1499.00,52.827
1500.00,52.856
1501.00, 
1502.00, 
1503.00, 
1504.00, 
1505.00, 
1506.00, 
1507.00, 
1508.00, 
1509.00, 
1510.00, 
1511.00, 
1512.00, 
1513.00, 
1514.00, 
1515.00, 
1516.00, 
1517.00, 
1518.00, 
1519.00, 
1520.00, 
1521.00, 
1522.00, 
1523.00, 
1524.00, 
1525.00, 
1526.00, 
1527.00, 
1528.00, 
1529.00, 
1530.00, 
1531.00, 
1532.00, 
1533.00, 
1534.00, 
1535.00, 
1536.00, 
1537.00, 
1538.00, 
1539.00, 
1540.00, 
1541.00, 
1542.00, 
1543.00, 
1544.00, 
1545.00, 
1546.00, 
1547.00, 
1548.00, 
1549.00, 
1550.00, 
1551.00, 
1552.00, 
1553.00, 
1554.00, 
1555.00, 
1556.00, 
1557.00, 
1558.00, 
1559.00, 
1560.00, 
1561.00, 
1562.00, 
1563.00, 
1564.00, 
1565.00, 
1566.00, 
1567.00, 
1568.00, 
1569.00, 
1570.00, 
1571.00, 
1572.00, 
1573.00, 
1574.00, 
1575.00, 
1576.00, 
1577.00, 
1578.00, 
1579.00, 
1580.00, 
1581.00, 
1582.00, 
1583.00, 
1584.00, 
1585.00, 
1586.00, 
1587.00, 
1588.00, 
1589.00, 
1590.00, 
1591.00, 
1592.00, 
1593.00, 
1594.00, 
1595.00, 
1596.00, 
1597.00, 
1598.00, 
1599.00, 
1600.00, 
1601.00, 
1602.00, 
1603.00, 
1604.00, 
1605.00, 
1606.00, 
1607.00, 
1608.00, 
1609.00, 
1610.00, 
1611.00, 
1612.00, 
1613.00, 
1614.00, 
1615.00, 
1616.00, 
1617.00, 
1618.00, 
1619.00, 
1620.00, 
1621.00, 
1622.00, 
1623.00, 
1624.00, 
1625.00, 
1626.00, 
1627.00, 
1628.00, 
1629.00, 
1630.00, 
1631.00, 
1632.00, 
1633.00, 
1634.00, 
1635.00, 
1636.00, 
1637.00, 
1638.00, 
1639.00, 
1640.00, 
1641.00, 
1642.00, 
1643.00, 
1644.00, 
1645.00, 
1646.00, 
1647.00, 
1648.00, 
1649.00, 
1650.00, 
1651.00, 
1652.00, 
1653.00, 
1654.00, 
1655.00, 
1656.00, 
1657.00, 
1658.00, 
1659.00, 
1660.00, 
1661.00, 
1662.00, 
1663.00, 
1664.00, 
1665.00, 
1666.00, 
1667.00, 
1668.00, 
1669.00, 
1670.00, 
1671.00, 
1672.00, 
1673.00, 
1674.00, 
1675.00, 
1676.00, 
1677.00, 
1678.00, 
1679.00, 
1680.00, 
1681.00, 
1682.00, 
1683.00, 
1684.00, 
1685.00, 
1686.00, 
1687.00, 
1688.00, 
1689.00, 
1690.00, 
1691.00, 
1692.00, 
1693.00, 
1694.00, 
1695.00, 
1696.00, 
1697.00, 
1698.00, 
1699.00, 
1700.00, 
1701.00, 
1702.00, 
1703.00, 
1704.00, 
1705.00, 
1706.00, 
1707.00, 
1708.00, 
1709.00, 
1710.00, 
1711.00, 
1712.00, 
1713.00, 
1714.00, 
1715.00, 
1716.00, 
1717.00, 
1718.00, 
1719.00, 
1720.00, 
1721.00, 
1722.00, 
1723.00, 
1724.00, 
1725.00, 
1726.00, 
1727.00, 
1728.00, 
1729.00, 
1730.00, 
1731.00, 
1732.00, 
1733.00, 
1734.00, 
1735.00, 
1736.00, 
1737.00, 
1738.00, 
1739.00, 
1740.00, 
1741.00, 
1742.00, 
1743.00, 
1744.00, 
1745.00, 
1746.00, 
1747.00, 
1748.00, 
1749.00, 
1750.00, 
1751.00, 
1752.00, 
1753.00, 
1754.00, 
1755.00, 
1756.00, 
1757.00, 
1758.00, 
1759.00, 
1760.00, 
1761.00, 
1762.00, 
1763.00, 
1764.00, 
1765.00, 
1766.00, 
1767.00, 
1768.00, 
1769.00, 
1770.00, 
1771.00, 
1772.00, 
1773.00, 
1774.00, 
1775.00, 
1776.00, 
1777.00, 
1778.00, 
1779.00, 
1780.00, 
1781.00, 
1782.00, 
1783.00, 
1784.00, 
1785.00, 
1786.00, 
1787.00, 
1788.00, 
1789.00, 
1790.00, 
1791.00, 
1792.00, 
1793.00, 
1794.00, 
1795.00, 
1796.00, 
1797.00, 
1798.00, 
1799.00, 
1800.00, 
1801.00, 
1802.00, 
1803.00, 
1804.00, 
1805.00, 
1806.00, 
1807.00, 
1808.00, 
1809.00, 
1810.00, 
1811.00, 
1812.00, 
1813.00, 
1814.00, 
1815.00, 
1816.00, 
1817.00, 
1818.00, 
1819.00, 
1820.00, 
1821.00, 
1822.00, 
1823.00, 
1824.00, 
1825.00, 
1826.00, 
1827.00, 
1828.00, 
1829.00, 
1830.00, 
1831.00, 
1832.00, 
1833.00, 
1834.00, 
1835.00, 
1836.00, 
1837.00, 
1838.00, 
1839.00, 
1840.00, 
1841.00, 
1842.00, 
1843.00, 
1844.00, 
1845.00, 
1846.00, 
1847.00, 
1848.00, 
1849.00, 
1850.00, 
1851.00, 
1852.00, 
1853.00, 
1854.00, 
1855.00, 
1856.00, 
1857.00, 
1858.00, 
1859.00, 
1860.00, 
1861.00, 
1862.00, 
1863.00, 
1864.00, 
1865.00, 
1866.00, 
1867.00, 
1868.00, 
1869.00, 
1870.00, 
1871.00, 
1872.00, 
1873.00, 
1874.00, 
1875.00, 
1876.00, 
1877.00, 
1878.00, 
1879.00, 
1880.00, 
1881.00, 
1882.00, 
1883.00, 
1884.00, 
1885.00, 
1886.00, 
1887.00, 
1888.00, 
1889.00, 
1890.00, 
1891.00, 
1892.00, 
1893.00, 
1894.00, 
1895.00, 
1896.00, 
1897.00, 
1898.00, 
1899.00, 
1900.00, 
1901.00, 
1902.00, 
1903.00, 
1904.00, 
1905.00, 
1906.00, 
1907.00, 
1908.00, 
1909.00, 
1910.00, 
1911.00, 
1912.00, 
1913.00, 
1914.00, 
1915.00, 
1916.00, 
1917.00, 
1918.00, 
1919.00, 
1920.00, 
1921.00, 
1922.00, 
1923.00, 
1924.00, 
1925.00, 
1926.00, 
1927.00, 
1928.00, 
1929.00, 
1930.00, 
1931.00, 
1932.00, 
1933.00, 
1934.00, 
1935.00, 
1936.00, 
1937.00, 
1938.00, 
1939.00, 
1940.00, 
1941.00, 
1942.00, 
1943.00, 
1944.00, 
1945.00, 
1946.00, 
1947.00, 
1948.00, 
1949.00, 
1950.00, 
1951.00, 
1952.00, 
1953.00, 
1954.00, 
1955.00, 
1956.00, 
1957.00, 
1958.00, 
1959.00, 
1960.00, 
1961.00, 
1962.00, 
1963.00, 
1964.00, 
1965.00, 
1966.00, 
1967.00, 
1968.00, 
1969.00, 
1970.00, 
1971.00, 
1972.00, 
1973.00, 
1974.00, 
1975.00, 
1976.00, 
1977.00, 
1978.00, 
1979.00, 
1980.00, 
1981.00, 
1982.00, 
1983.00, 
1984.00, 
1985.00, 
1986.00, 
1987.00, 
1988.00, 
1989.00, 
1990.00, 
1991.00, 
1992.00, 
1993.00, 
1994.00, 
1995.00, 
1996.00, 
1997.00, 
1998.00, 
1999.00, 
2000.00, 
2001.00, 
2002.00, 
2003.00, 
2004.00, 
2005.00, 
2006.00, 
2007.00, 
2008.00, 
2009.00, 
2010.00, 
2011.00, 
2012.00, 
2013.00, 
2014.00, 
2015.00, 
2016.00, 
2017.00, 
2018.00, 
2019.00, 
2020.00, 
2021.00, 
2022.00, 
2023.00, 
2024.00, 
2025.00, 
2026.00, 
2027.00, 
2028.00, 
2029.00, 
2030.00, 
2031.00, 
2032.00, 
2033.00, 
2034.00, 
2035.00, 
2036.00, 
2037.00, 
2038.00, 
2039.00, 
2040.00, 
2041.00, 
2042.00, 
2043.00, 
2044.00, 
2045.00, 
2046.00, 
2047.00, 
2048.00, 
2049.00, 
2050.00, 
2051.00, 
2052.00, 
2053.00, 
2054.00, 
2055.00, 
2056.00, 
2057.00, 
2058.00, 
2059.00, 
2060.00, 
2061.00, 
2062.00, 
2063.00, 
2064.00, 
2065.00, 
2066.00, 
2067.00, 
2068.00, 
2069.00, 
2070.00, 
2071.00, 
2072.00, 
2073.00, 
2074.00, 
2075.00, 
2076.00, 
2077.00, 
2078.00, 
2079.00, 
2080.00, 
2081.00, 
2082.00, 
2083.00, 
2084.00, 
2085.00, 
2086.00, 
2087.00, 
2088.00, 
2089.00, 
2090.00, 
2091.00, 
2092.00, 
2093.00, 
2094.00, 
2095.00, 
2096.00, 
2097.00, 
2098.00, 
2099.00, 
2100.00, 
2101.00, 
2102.00, 
2103.00, 
2104.00, 
2105.00, 
2106.00, 
2107.00, 
2108.00, 
2109.00, 
2110.00, 
2111.00, 
2112.00, 
2113.00, 
2114.00, 
2115.00, 
2116.00, 
2117.00, 
2118.00, 
2119.00, 
2120.00, 
2121.00, 
2122.00, 
2123.00, 
2124.00, 
2125.00, 
2126.00, 
2127.00, 
2128.00, 
2129.00, 
2130.00, 
2131.00, 
2132.00, 
2133.00, 
2134.00, 
2135.00, 
2136.00, 
2137.00, 
2138.00, 
2139.00, 
2140.00, 
2141.00, 
2142.00, 
2143.00, 
2144.00, 
2145.00, 
2146.00, 
2147.00, 
2148.00, 
2149.00, 
2150.00, 
2151.00, 
2152.00, 
2153.00, 
2154.00, 
2155.00, 
2156.00, 
2157.00, 
2158.00, 
2159.00, 
2160.00, 
2161.00, 
2162.00, 
2163.00, 
2164.00, 
2165.00, 
2166.00, 
2167.00, 
2168.00, 
2169.00, 
2170.00, 
2171.00, 
2172.00, 
2173.00, 
2174.00, 
2175.00, 
2176.00, 
2177.00, 
2178.00, 
2179.00, 
2180.00, 
2181.00, 
2182.00, 
2183.00, 
2184.00, 
2185.00, 
2186.00, 
2187.00, 
2188.00, 
2189.00, 
2190.00, 
2191.00, 
2192.00, 
2193.00, 
2194.00, 
2195.00, 
2196.00, 
2197.00, 
2198.00, 
2199.00, 
2200.00, 
2201.00, 
2202.00, 
2203.00, 
2204.00, 
2205.00, 
2206.00, 
2207.00, 
2208.00, 
2209.00, 
2210.00, 
2211.00, 
2212.00, 
2213.00, 
2214.00, 
2215.00, 
2216.00, 
2217.00, 
2218.00, 
2219.00, 
2220.00, 
2221.00, 
2222.00, 
2223.00, 
2224.00, 
2225.00, 
2226.00, 
2227.00, 
2228.00, 
2229.00, 
2230.00, 
2231.00, 
2232.00, 
2233.00, 
2234.00, 
2235.00, 
2236.00, 
2237.00, 
2238.00, 
2239.00, 
2240.00, 
2241.00, 
2242.00, 
2243.00, 
2244.00, 
2245.00, 
2246.00, 
2247.00, 
2248.00, 
2249.00, 
2250.00, 
2251.00, 
2252.00, 
2253.00, 
2254.00, 
2255.00, 
2256.00, 
2257.00, 
2258.00, 
2259.00, 
2260.00, 
2261.00, 
2262.00, 
2263.00, 
2264.00, 
2265.00, 
2266.00, 
2267.00, 
2268.00, 
2269.00, 
2270.00, 
2271.00, 
2272.00, 
2273.00, 
2274.00, 
2275.00, 
2276.00, 
2277.00, 
2278.00, 
2279.00, 
2280.00, 
2281.00, 
2282.00, 
2283.00, 
2284.00, 
2285.00, 
2286.00, 
2287.00, 
2288.00, 
2289.00, 
2290.00, 
2291.00, 
2292.00, 
2293.00, 
2294.00, 
2295.00, 
2296.00, 
2297.00, 
2298.00, 
2299.00, 
2300.00, 
2301.00, 
2302.00, 
2303.00, 
2304.00, 
2305.00, 
2306.00, 
2307.00, 
2308.00, 
2309.00, 
2310.00, 
2311.00, 
2312.00, 
2313.00, 
2314.00, 
2315.00, 
2316.00, 
2317.00, 
2318.00, 
2319.00, 
2320.00, 
2321.00, 
2322.00, 
2323.00, 
2324.00, 
2325.00, 
2326.00, 
2327.00, 
2328.00, 
2329.00, 
2330.00, 
2331.00, 
2332.00, 
2333.00, 
2334.00, 
2335.00, 
2336.00, 
2337.00, 
2338.00, 
2339.00, 
2340.00, 
2341.00, 
2342.00, 
2343.00, 
2344.00, 
2345.00, 
2346.00, 
2347.00, 
2348.00, 
2349.00, 
2350.00, 
2351.00, 
2352.00, 
2353.00, 
2354.00, 
2355.00, 
2356.00, 
2357.00, 
2358.00, 
2359.00, 
2360.00, 
2361.00, 
2362.00, 
2363.00, 
2364.00, 
2365.00, 
2366.00, 
2367.00, 
2368.00, 
2369.00, 
2370.00, 
2371.00, 
2372.00, 
2373.00, 
2374.00, 
2375.00, 
2376.00, 
2377.00, 
2378.00, 
2379.00, 
2380.00, 
2381.00, 
2382.00, 
2383.00, 
2384.00, 
2385.00, 
2386.00, 
2387.00, 
2388.00, 
2389.00, 
2390.00, 
2391.00, 
2392.00, 
2393.00, 
2394.00, 
2395.00, 
2396.00, 
2397.00, 
2398.00, 
2399.00, 
2400.00, 
2401.00, 
2402.00, 
2403.00, 
2404.00, 
2405.00, 
2406.00, 
2407.00, 
2408.00, 
2409.00, 
2410.00, 
2411.00, 
2412.00, 
2413.00, 
2414.00, 
2415.00, 
2416.00, 
2417.00, 
2418.00, 
2419.00, 
2420.00, 
2421.00, 
2422.00, 
2423.00, 
2424.00, 
2425.00, 
2426.00, 
2427.00, 
2428.00, 
2429.00, 
2430.00, 
2431.00, 
2432.00, 
2433.00, 
2434.00, 
2435.00, 
2436.00, 
2437.00, 
2438.00, 
2439.00, 
2440.00, 
2441.00, 
2442.00, 
2443.00, 
2444.00, 
2445.00, 
2446.00, 
2447.00, 
2448.00, 
2449.00, 
2450.00, 
2451.00, 
2452.00, 
2453.00, 
2454.00, 
2455.00, 
2456.00, 
2457.00, 
2458.00, 
2459.00, 
2460.00, 
2461.00, 
2462.00, 
2463.00, 
2464.00, 
2465.00, 
2466.00, 
2467.00, 
2468.00, 
2469.00, 
2470.00, 
2471.00, 
2472.00, 
2473.00, 
2474.00, 
2475.00, 
2476.00, 
2477.00, 
2478.00, 
2479.00, 
2480.00, 
2481.00, 
2482.00, 
2483.00, 
2484.00, 
2485.00, 
2486.00, 
2487.00, 
2488.00, 
2489.00, 
2490.00, 
2491.00, 
2492.00, 
2493.00, 
2494.00, 
2495.00, 
2496.00, 
2497.00, 
2498.00, 
2499.00, 
2500.00, 
2501.00, 
2502.00, 
2503.00, 
2504.00, 
2505.00, 
2506.00, 
2507.00, 
2508.00, 
2509.00, 
2510.00, 
2511.00, 
2512.00, 
2513.00, 
2514.00, 
2515.00, 
2516.00, 
2517.00, 
2518.00, 
2519.00, 
2520.00, 
2521.00, 
2522.00, 
2523.00, 
2524.00, 
2525.00, 
2526.00, 
2527.00, 
2528.00, 
2529.00, 
2530.00, 
2531.00, 
2532.00, 
2533.00, 
2534.00, 
2535.00, 
2536.00, 
2537.00, 
2538.00, 
2539.00, 
2540.00, 
2541.00, 
2542.00, 
2543.00, 
2544.00, 
2545.00, 
2546.00, 
2547.00, 
2548.00, 
2549.00, 
2550.00, 
2551.00, 
2552.00, 
2553.00, 
2554.00, 
2555.00, 
2556.00, 
2557.00, 
2558.00, 
2559.00, 
2560.00, 
2561.00, 
2562.00, 
2563.00, 
2564.00, 
2565.00, 
2566.00, 
2567.00, 
2568.00, 
2569.00, 
2570.00, 
2571.00, 
2572.00, 
2573.00, 
2574.00, 
2575.00, 
2576.00, 
2577.00, 
2578.00, 
2579.00, 
2580.00, 
2581.00, 
2582.00, 
2583.00, 
2584.00, 
2585.00, 
2586.00, 
2587.00, 
2588.00, 
2589.00, 
2590.00, 
2591.00, 
2592.00, 
2593.00, 
2594.00, 
2595.00, 
2596.00, 
2597.00, 
2598.00, 
2599.00, 
2600.00, 
