"2cP5 - RawData"
"Wavelength nm.","T%"
200.00,0.004
201.00,0.001
202.00,0.001
203.00,0.004
204.00,0.003
205.00,-0.001
206.00,0.002
207.00,0.005
208.00,0.004
209.00,0.006
210.00,-0.002
211.00,0.001
212.00,0.003
213.00,0.000
214.00,-0.001
215.00,0.002
216.00,-0.000
217.00,0.000
218.00,0.003
219.00,-0.001
220.00,0.002
221.00,0.001
222.00,-0.000
223.00,-0.001
224.00,0.000
225.00,0.002
226.00,-0.000
227.00,-0.000
228.00,-0.002
229.00,0.001
230.00,0.001
231.00,0.001
232.00,0.001
233.00,0.000
234.00,0.001
235.00,0.001
236.00,0.001
237.00,-0.000
238.00,0.003
239.00,0.000
240.00,0.002
241.00,-0.001
242.00,-0.001
243.00,0.000
244.00,-0.000
245.00,-0.000
246.00,-0.000
247.00,0.001
248.00,0.002
249.00,0.001
250.00,0.001
251.00,0.000
252.00,0.001
253.00,0.000
254.00,0.001
255.00,0.001
256.00,0.001
257.00,0.001
258.00,-0.000
259.00,-0.001
260.00,0.000
261.00,-0.001
262.00,0.002
263.00,0.000
264.00,0.001
265.00,0.000
266.00,-0.000
267.00,0.001
268.00,-0.000
269.00,-0.000
270.00,0.001
271.00,0.001
272.00,-0.000
273.00,0.001
274.00,-0.000
275.00,0.000
276.00,-0.001
277.00,0.000
278.00,-0.002
279.00,0.002
280.00,0.002
281.00,0.000
282.00,-0.001
283.00,0.000
284.00,0.001
285.00,-0.000
286.00,-0.001
287.00,0.001
288.00,0.001
289.00,0.002
290.00,0.002
291.00,-0.000
292.00,-0.001
293.00,0.000
294.00,-0.000
295.00,-0.001
296.00,0.001
297.00,-0.001
298.00,-0.001
299.00,0.002
300.00,0.001
301.00,0.003
302.00,0.005
303.00,0.007
304.00,0.014
305.00,0.021
306.00,0.029
307.00,0.043
308.00,0.074
309.00,0.116
310.00,0.159
311.00,0.223
312.00,0.313
313.00,0.408
314.00,0.540
315.00,0.715
316.00,0.862
317.00,1.137
318.00,1.410
319.00,1.753
320.00,2.120
321.00,2.531
322.00,3.044
323.00,3.602
324.00,4.140
325.00,4.723
326.00,5.327
327.00,6.008
328.00,6.786
329.00,7.499
330.00,8.215
331.00,8.957
332.00,9.739
333.00,10.600
334.00,11.362
335.00,12.167
336.00,12.906
337.00,13.784
338.00,14.458
339.00,15.255
340.00,15.976
341.00,16.702
342.00,17.411
343.00,18.073
344.00,18.657
345.00,19.247
346.00,19.821
347.00,20.395
348.00,21.005
349.00,21.405
350.00,21.864
351.00,22.304
352.00,22.623
353.00,23.113
354.00,23.539
355.00,23.750
356.00,24.121
357.00,24.397
358.00,24.723
359.00,24.951
360.00,25.307
361.00,25.418
362.00,25.676
363.00,25.866
364.00,25.972
365.00,26.051
366.00,26.254
367.00,26.360
368.00,26.499
369.00,26.510
370.00,26.616
371.00,26.798
372.00,26.696
373.00,26.784
374.00,26.770
375.00,26.771
376.00,26.721
377.00,26.717
378.00,26.788
379.00,26.590
380.00,26.595
381.00,26.617
382.00,26.619
383.00,26.622
384.00,26.717
385.00,26.765
386.00,26.829
387.00,26.862
388.00,26.960
389.00,27.059
390.00,27.077
391.00,27.164
392.00,27.171
393.00,27.197
394.00,27.221
395.00,27.321
396.00,27.330
397.00,27.273
398.00,27.307
399.00,27.378
400.00,27.370
401.00,27.427
402.00,27.545
403.00,27.537
404.00,27.527
405.00,27.371
406.00,27.451
407.00,27.407
408.00,27.374
409.00,27.441
410.00,27.422
411.00,27.364
412.00,27.230
413.00,27.323
414.00,27.343
415.00,27.417
416.00,27.506
417.00,27.503
418.00,27.512
419.00,27.567
420.00,27.664
421.00,27.565
422.00,27.651
423.00,27.642
424.00,27.687
425.00,27.743
426.00,27.760
427.00,27.846
428.00,27.804
429.00,27.921
430.00,27.965
431.00,28.054
432.00,28.098
433.00,28.139
434.00,28.173
435.00,28.242
436.00,28.307
437.00,28.372
438.00,28.468
439.00,28.517
440.00,28.573
441.00,28.760
442.00,28.818
443.00,28.885
444.00,29.008
445.00,29.190
446.00,29.197
447.00,29.289
448.00,29.330
449.00,29.370
450.00,29.609
451.00,29.641
452.00,29.761
453.00,29.903
454.00,30.013
455.00,30.152
456.00,30.194
457.00,30.294
458.00,30.446
459.00,30.587
460.00,30.745
461.00,30.843
462.00,30.959
463.00,31.099
464.00,31.156
465.00,31.303
466.00,31.445
467.00,31.505
468.00,31.627
469.00,31.747
470.00,31.791
471.00,31.915
472.00,31.963
473.00,32.048
474.00,32.158
475.00,32.298
476.00,32.338
477.00,32.497
478.00,32.594
479.00,32.750
480.00,32.924
481.00,33.022
482.00,33.181
483.00,33.271
484.00,33.490
485.00,33.679
486.00,33.813
487.00,33.910
488.00,34.091
489.00,34.322
490.00,34.463
491.00,34.362
492.00,34.504
493.00,34.687
494.00,34.732
495.00,34.804
496.00,34.998
497.00,35.036
498.00,35.217
499.00,35.353
500.00,35.452
501.00,35.610
502.00,35.762
503.00,35.681
504.00,35.758
505.00,35.977
506.00,35.973
507.00,36.146
508.00,36.327
509.00,36.447
510.00,36.462
511.00,36.616
512.00,36.732
513.00,36.841
514.00,36.901
515.00,37.068
516.00,37.154
517.00,37.217
518.00,37.254
519.00,37.336
520.00,37.465
521.00,37.522
522.00,37.599
523.00,37.632
524.00,37.770
525.00,37.930
526.00,38.062
527.00,38.117
528.00,38.182
529.00,38.373
530.00,38.511
531.00,38.513
532.00,38.536
533.00,38.672
534.00,38.643
535.00,38.794
536.00,38.901
537.00,38.870
538.00,38.995
539.00,38.981
540.00,38.996
541.00,39.174
542.00,39.124
543.00,39.197
544.00,39.335
545.00,39.466
546.00,39.465
547.00,39.440
548.00,39.496
549.00,39.568
550.00,39.718
551.00,39.828
552.00,39.804
553.00,39.783
554.00,39.822
555.00,40.005
556.00,40.040
557.00,40.017
558.00,40.180
559.00,40.103
560.00,40.252
561.00,40.310
562.00,40.213
563.00,40.286
564.00,40.455
565.00,40.349
566.00,40.475
567.00,40.515
568.00,40.553
569.00,40.539
570.00,40.575
571.00,40.619
572.00,40.590
573.00,40.683
574.00,40.593
575.00,40.623
576.00,40.671
577.00,40.769
578.00,40.806
579.00,40.858
580.00,40.952
581.00,40.951
582.00,41.095
583.00,41.188
584.00,41.176
585.00,41.261
586.00,41.327
587.00,41.387
588.00,41.356
589.00,41.406
590.00,41.484
591.00,41.347
592.00,41.530
593.00,41.514
594.00,41.634
595.00,41.673
596.00,41.678
597.00,41.687
598.00,41.933
599.00,41.960
600.00,41.882
601.00,41.862
602.00,41.777
603.00,41.852
604.00,41.872
605.00,41.868
606.00,41.955
607.00,42.110
608.00,42.159
609.00,42.194
610.00,42.215
611.00,42.119
612.00,42.170
613.00,42.188
614.00,42.363
615.00,42.301
616.00,42.302
617.00,42.368
618.00,42.403
619.00,42.379
620.00,42.456
621.00,42.447
622.00,42.575
623.00,42.677
624.00,42.727
625.00,42.778
626.00,42.849
627.00,42.768
628.00,42.798
629.00,42.885
630.00,42.822
631.00,42.838
632.00,43.155
633.00,43.283
634.00,43.058
635.00,43.157
636.00,43.326
637.00,43.385
638.00,43.325
639.00,43.529
640.00,43.488
641.00,43.592
642.00,43.652
643.00,43.685
644.00,43.722
645.00,43.948
646.00,44.030
647.00,44.044
648.00,44.007
649.00,44.162
650.00,44.137
651.00,44.258
652.00,44.249
653.00,44.361
654.00,44.344
655.00,44.610
656.00,44.830
657.00,44.737
658.00,44.667
659.00,44.667
660.00,44.823
661.00,44.753
662.00,44.910
663.00,45.020
664.00,45.321
665.00,45.044
666.00,45.016
667.00,45.384
668.00,45.728
669.00,45.605
670.00,45.413
671.00,45.693
672.00,45.879
673.00,45.627
674.00,45.778
675.00,45.792
676.00,45.821
677.00,45.980
678.00,46.189
679.00,46.394
680.00,45.966
681.00,46.177
682.00,46.257
683.00,46.178
684.00,46.250
685.00,46.319
686.00,46.282
687.00,46.478
688.00,46.747
689.00,46.796
690.00,46.748
691.00,47.002
692.00,46.742
693.00,46.597
694.00,46.842
695.00,47.058
696.00,46.927
697.00,46.974
698.00,47.291
699.00,47.069
700.00,47.126
701.00,47.405
702.00,47.444
703.00,47.580
704.00,47.624
705.00,47.944
706.00,47.477
707.00,47.733
708.00,47.622
709.00,47.679
710.00,47.772
711.00,47.740
712.00,48.041
713.00,48.034
714.00,48.109
715.00,48.078
716.00,47.944
717.00,48.186
718.00,48.351
719.00,48.430
720.00,48.503
721.00,53.361
722.00,53.299
723.00,53.462
724.00,53.338
725.00,53.365
726.00,53.266
727.00,53.321
728.00,53.266
729.00,53.385
730.00,53.502
731.00,53.385
732.00,53.338
733.00,53.440
734.00,53.333
735.00,53.374
736.00,53.418
737.00,53.552
738.00,53.435
739.00,53.470
740.00,53.515
741.00,53.422
742.00,53.622
743.00,53.662
744.00,53.551
745.00,53.560
746.00,53.486
747.00,53.530
748.00,53.649
749.00,53.589
750.00,53.451
751.00,53.548
752.00,53.438
753.00,53.405
754.00,53.368
755.00,53.399
756.00,53.373
757.00,53.419
758.00,53.471
759.00,53.432
760.00,53.363
761.00,53.440
762.00,53.388
763.00,53.402
764.00,53.448
765.00,53.374
766.00,53.458
767.00,53.467
768.00,53.497
769.00,53.312
770.00,53.477
771.00,53.334
772.00,53.470
773.00,53.547
774.00,53.337
775.00,53.530
776.00,53.488
777.00,53.518
778.00,53.444
779.00,53.465
780.00,53.497
781.00,53.367
782.00,53.526
783.00,53.331
784.00,53.380
785.00,53.380
786.00,53.273
787.00,53.397
788.00,53.244
789.00,53.387
790.00,53.284
791.00,53.416
792.00,53.407
793.00,53.301
794.00,53.235
795.00,53.064
796.00,53.177
797.00,53.180
798.00,53.178
799.00,53.108
800.00,53.061
801.00,53.118
802.00,53.054
803.00,53.023
804.00,53.129
805.00,52.977
806.00,53.028
807.00,53.038
808.00,53.003
809.00,52.779
810.00,52.993
811.00,52.913
812.00,52.839
813.00,52.940
814.00,52.707
815.00,52.952
816.00,52.822
817.00,52.735
818.00,52.784
819.00,52.884
820.00,52.691
821.00,52.692
822.00,52.804
823.00,52.652
824.00,52.672
825.00,52.629
826.00,52.753
827.00,52.726
828.00,52.529
829.00,52.593
830.00,52.490
831.00,54.743
832.00,54.669
833.00,54.692
834.00,54.705
835.00,54.580
836.00,54.667
837.00,54.621
838.00,54.596
839.00,54.613
840.00,54.514
841.00,54.425
842.00,54.660
843.00,54.403
844.00,54.408
845.00,54.332
846.00,54.287
847.00,54.288
848.00,54.344
849.00,54.279
850.00,54.281
851.00,54.226
852.00,54.203
853.00,54.145
854.00,54.107
855.00,54.127
856.00,54.038
857.00,54.031
858.00,54.076
859.00,54.011
860.00,53.921
861.00,53.951
862.00,53.977
863.00,53.895
864.00,53.915
865.00,53.911
866.00,53.873
867.00,53.914
868.00,53.887
869.00,53.856
870.00,53.850
871.00,53.799
872.00,53.874
873.00,53.784
874.00,53.769
875.00,53.776
876.00,53.751
877.00,53.782
878.00,53.792
879.00,53.764
880.00,53.695
881.00,53.726
882.00,53.684
883.00,53.585
884.00,53.582
885.00,53.565
886.00,53.583
887.00,53.571
888.00,53.493
889.00,53.537
890.00,53.512
891.00,53.441
892.00,53.507
893.00,53.470
894.00,53.469
895.00,53.409
896.00,53.394
897.00,53.393
898.00,53.299
899.00,53.302
900.00,53.316
901.00,53.364
902.00,53.301
903.00,53.274
904.00,53.244
905.00,53.256
906.00,53.236
907.00,53.218
908.00,53.178
909.00,53.174
910.00,53.104
911.00,53.139
912.00,53.093
913.00,53.077
914.00,53.116
915.00,53.022
916.00,53.012
917.00,53.016
918.00,53.179
919.00,52.950
920.00,52.932
921.00,52.943
922.00,52.869
923.00,52.878
924.00,52.907
925.00,52.853
926.00,52.842
927.00,52.816
928.00,52.777
929.00,52.777
930.00,52.777
931.00,52.740
932.00,52.727
933.00,52.705
934.00,52.720
935.00,52.661
936.00,52.673
937.00,52.643
938.00,52.566
939.00,52.610
940.00,52.563
941.00,52.589
942.00,52.585
943.00,52.473
944.00,52.495
945.00,52.469
946.00,52.486
947.00,52.420
948.00,52.428
949.00,52.385
950.00,52.401
951.00,52.349
952.00,52.342
953.00,52.341
954.00,52.288
955.00,52.231
956.00,52.230
957.00,52.214
958.00,52.202
959.00,52.169
960.00,52.115
961.00,52.146
962.00,52.151
963.00,52.119
964.00,52.098
965.00,52.139
966.00,52.077
967.00,52.066
968.00,52.045
969.00,52.076
970.00,52.069
971.00,52.050
972.00,52.051
973.00,52.023
974.00,52.074
975.00,52.061
976.00,52.056
977.00,52.043
978.00,52.070
979.00,52.075
980.00,52.034
981.00,52.040
982.00,52.030
983.00,52.056
984.00,51.987
985.00,52.044
986.00,52.016
987.00,52.019
988.00,51.987
989.00,51.939
990.00,51.988
991.00,51.962
992.00,51.961
993.00,51.932
994.00,51.921
995.00,51.901
996.00,51.871
997.00,51.910
998.00,51.864
999.00,51.855
1000.00,51.826
1001.00,51.836
1002.00,51.845
1003.00,51.782
1004.00,51.817
1005.00,51.778
1006.00,51.790
1007.00,51.771
1008.00,51.748
1009.00,51.757
1010.00,51.690
1011.00,51.742
1012.00,51.677
1013.00,51.667
1014.00,51.650
1015.00,51.653
1016.00,51.648
1017.00,51.601
1018.00,51.605
1019.00,51.589
1020.00,51.596
1021.00,51.560
1022.00,51.531
1023.00,51.524
1024.00,51.499
1025.00,51.496
1026.00,51.450
1027.00,51.454
1028.00,51.434
1029.00,51.442
1030.00,51.417
1031.00,51.403
1032.00,51.391
1033.00,51.351
1034.00,51.351
1035.00,51.309
1036.00,51.297
1037.00,51.262
1038.00,51.243
1039.00,51.212
1040.00,51.204
1041.00,51.203
1042.00,51.191
1043.00,51.161
1044.00,51.191
1045.00,51.178
1046.00,51.184
1047.00,51.218
1048.00,51.197
1049.00,51.216
1050.00,51.210
1051.00,51.227
1052.00,51.251
1053.00,51.259
1054.00,51.251
1055.00,51.247
1056.00,51.275
1057.00,51.277
1058.00,51.276
1059.00,51.265
1060.00,51.287
1061.00,51.283
1062.00,51.258
1063.00,51.255
1064.00,51.232
1065.00,51.195
1066.00,51.179
1067.00,51.187
1068.00,51.215
1069.00,51.172
1070.00,51.167
1071.00,51.161
1072.00,51.134
1073.00,51.119
1074.00,51.138
1075.00,51.136
1076.00,51.089
1077.00,51.096
1078.00,51.106
1079.00,51.109
1080.00,51.076
1081.00,51.074
1082.00,51.068
1083.00,51.069
1084.00,51.049
1085.00,51.076
1086.00,51.072
1087.00,51.043
1088.00,51.018
1089.00,51.025
1090.00,51.022
1091.00,51.022
1092.00,50.994
1093.00,51.003
1094.00,50.964
1095.00,50.934
1096.00,50.910
1097.00,50.916
1098.00,50.889
1099.00,50.876
1100.00,50.879
1101.00,50.881
1102.00,50.882
1103.00,50.885
1104.00,50.862
1105.00,50.880
1106.00,50.857
1107.00,50.848
1108.00,50.846
1109.00,50.804
1110.00,50.800
1111.00,50.822
1112.00,50.790
1113.00,50.804
1114.00,50.769
1115.00,50.805
1116.00,50.776
1117.00,50.768
1118.00,50.758
1119.00,50.794
1120.00,50.733
1121.00,50.721
1122.00,50.727
1123.00,50.697
1124.00,50.727
1125.00,50.683
1126.00,50.728
1127.00,50.693
1128.00,50.681
1129.00,50.675
1130.00,50.689
1131.00,50.657
1132.00,50.633
1133.00,50.640
1134.00,50.599
1135.00,50.581
1136.00,50.590
1137.00,50.605
1138.00,50.610
1139.00,50.591
1140.00,50.582
1141.00,50.600
1142.00,50.591
1143.00,50.605
1144.00,50.594
1145.00,50.616
1146.00,50.575
1147.00,50.575
1148.00,50.577
1149.00,50.561
1150.00,50.574
1151.00,50.553
1152.00,50.557
1153.00,50.552
1154.00,50.538
1155.00,50.553
1156.00,50.550
1157.00,50.533
1158.00,50.543
1159.00,50.544
1160.00,50.549
1161.00,50.536
1162.00,50.552
1163.00,50.535
1164.00,50.527
1165.00,50.501
1166.00,50.523
1167.00,50.509
1168.00,50.517
1169.00,50.504
1170.00,50.527
1171.00,50.511
1172.00,50.494
1173.00,50.526
1174.00,50.487
1175.00,50.496
1176.00,50.486
1177.00,50.498
1178.00,50.470
1179.00,50.485
1180.00,50.460
1181.00,50.477
1182.00,50.471
1183.00,50.476
1184.00,50.479
1185.00,50.490
1186.00,50.470
1187.00,50.478
1188.00,50.509
1189.00,50.480
1190.00,50.483
1191.00,50.438
1192.00,50.474
1193.00,50.475
1194.00,50.465
1195.00,50.464
1196.00,50.461
1197.00,50.491
1198.00,50.462
1199.00,50.474
1200.00,50.454
1201.00,50.469
1202.00,50.432
1203.00,50.455
1204.00,50.454
1205.00,50.433
1206.00,50.442
1207.00,50.455
1208.00,50.442
1209.00,50.406
1210.00,50.452
1211.00,50.428
1212.00,50.439
1213.00,50.427
1214.00,50.439
1215.00,50.438
1216.00,50.397
1217.00,50.433
1218.00,50.453
1219.00,50.428
1220.00,50.417
1221.00,50.448
1222.00,50.455
1223.00,50.429
1224.00,50.435
1225.00,50.424
1226.00,50.461
1227.00,50.413
1228.00,50.431
1229.00,50.445
1230.00,50.491
1231.00,50.476
1232.00,50.478
1233.00,50.499
1234.00,50.486
1235.00,50.499
1236.00,50.496
1237.00,50.505
1238.00,50.471
1239.00,50.489
1240.00,50.468
1241.00,50.498
1242.00,50.491
1243.00,50.483
1244.00,50.487
1245.00,50.498
1246.00,50.519
1247.00,50.490
1248.00,50.503
1249.00,50.494
1250.00,50.511
1251.00,50.496
1252.00,50.504
1253.00,50.504
1254.00,50.536
1255.00,50.530
1256.00,50.555
1257.00,50.487
1258.00,50.549
1259.00,50.561
1260.00,50.553
1261.00,50.541
1262.00,50.551
1263.00,50.544
1264.00,50.528
1265.00,50.552
1266.00,50.551
1267.00,50.584
1268.00,50.558
1269.00,50.580
1270.00,50.589
1271.00,50.578
1272.00,50.580
1273.00,50.593
1274.00,50.600
1275.00,50.585
1276.00,50.596
1277.00,50.616
1278.00,50.608
1279.00,50.597
1280.00,50.611
1281.00,50.640
1282.00,50.618
1283.00,50.670
1284.00,50.630
1285.00,50.623
1286.00,50.609
1287.00,50.629
1288.00,50.635
1289.00,50.635
1290.00,50.653
1291.00,50.657
1292.00,50.665
1293.00,50.643
1294.00,50.666
1295.00,50.685
1296.00,50.675
1297.00,50.656
1298.00,50.685
1299.00,50.691
1300.00,50.699
1301.00,50.684
1302.00,50.742
1303.00,50.720
1304.00,50.727
1305.00,50.739
1306.00,50.793
1307.00,50.740
1308.00,50.703
1309.00,50.755
1310.00,50.770
1311.00,50.761
1312.00,50.733
1313.00,50.766
1314.00,50.776
1315.00,50.778
1316.00,50.779
1317.00,50.799
1318.00,50.798
1319.00,50.794
1320.00,50.823
1321.00,50.965
1322.00,50.960
1323.00,50.957
1324.00,50.966
1325.00,50.957
1326.00,50.951
1327.00,50.958
1328.00,50.925
1329.00,50.953
1330.00,50.950
1331.00,50.952
1332.00,50.933
1333.00,50.936
1334.00,50.986
1335.00,50.988
1336.00,51.033
1337.00,51.048
1338.00,51.125
1339.00,51.152
1340.00,51.204
1341.00,51.291
1342.00,51.351
1343.00,51.413
1344.00,51.427
1345.00,51.480
1346.00,51.581
1347.00,51.534
1348.00,51.566
1349.00,51.558
1350.00,51.636
1351.00,51.595
1352.00,51.572
1353.00,51.685
1354.00,51.641
1355.00,51.513
1356.00,51.580
1357.00,51.587
1358.00,51.703
1359.00,51.691
1360.00,51.840
1361.00,51.849
1362.00,51.774
1363.00,51.911
1364.00,51.042
1365.00,51.121
1366.00,51.848
1367.00,51.739
1368.00,51.655
1369.00,51.734
1370.00,51.500
1371.00,51.581
1372.00,51.607
1373.00,51.761
1374.00,51.631
1375.00,51.795
1376.00,51.468
1377.00,51.761
1378.00,52.002
1379.00,52.010
1380.00,51.081
1381.00,51.816
1382.00,51.498
1383.00,51.851
1384.00,51.538
1385.00,51.321
1386.00,51.712
1387.00,51.413
1388.00,51.568
1389.00,51.548
1390.00,51.768
1391.00,51.844
1392.00,51.816
1393.00,52.163
1394.00,51.195
1395.00,51.426
1396.00,51.639
1397.00,51.798
1398.00,51.715
1399.00,51.534
1400.00,51.599
1401.00,51.637
1402.00,51.981
1403.00,51.549
1404.00,51.815
1405.00,51.538
1406.00,51.811
1407.00,51.487
1408.00,51.607
1409.00,51.674
1410.00,51.749
1411.00,51.668
1412.00,51.845
1413.00,51.748
1414.00,51.681
1415.00,51.725
1416.00,51.720
1417.00,51.821
1418.00,51.727
1419.00,51.746
1420.00,51.779
1421.00,51.857
1422.00,51.762
1423.00,51.893
1424.00,51.762
1425.00,51.889
1426.00,51.828
1427.00,51.833
1428.00,51.853
1429.00,51.939
1430.00,51.915
1431.00,51.871
1432.00,51.956
1433.00,51.927
1434.00,51.936
1435.00,52.058
1436.00,51.906
1437.00,52.010
1438.00,51.985
1439.00,52.073
1440.00,52.011
1441.00,52.064
1442.00,52.079
1443.00,52.095
1444.00,52.268
1445.00,52.054
1446.00,52.140
1447.00,52.144
1448.00,52.193
1449.00,52.089
1450.00,52.202
1451.00,52.209
1452.00,52.208
1453.00,52.218
1454.00,52.213
1455.00,52.246
1456.00,52.228
1457.00,52.271
1458.00,52.294
1459.00,52.296
1460.00,52.313
1461.00,52.342
1462.00,52.341
1463.00,52.369
1464.00,52.369
1465.00,52.368
1466.00,52.395
1467.00,52.403
1468.00,52.442
1469.00,52.441
1470.00,52.509
1471.00,52.506
1472.00,52.464
1473.00,52.516
1474.00,52.520
1475.00,52.527
1476.00,52.523
1477.00,52.548
1478.00,52.575
1479.00,52.612
1480.00,52.579
1481.00,52.600
1482.00,52.632
1483.00,52.636
1484.00,52.664
1485.00,52.630
1486.00,52.648
1487.00,52.699
1488.00,52.701
1489.00,52.700
1490.00,52.719
1491.00,52.711
1492.00,52.749
1493.00,52.716
1494.00,52.763
1495.00,52.763
1496.00,52.779
1497.00,52.761
1498.00,52.760
1499.00,52.782
1500.00,52.805
1501.00, 
1502.00, 
1503.00, 
1504.00, 
1505.00, 
1506.00, 
1507.00, 
1508.00, 
1509.00, 
1510.00, 
1511.00, 
1512.00, 
1513.00, 
1514.00, 
1515.00, 
1516.00, 
1517.00, 
1518.00, 
1519.00, 
1520.00, 
1521.00, 
1522.00, 
1523.00, 
1524.00, 
1525.00, 
1526.00, 
1527.00, 
1528.00, 
1529.00, 
1530.00, 
1531.00, 
1532.00, 
1533.00, 
1534.00, 
1535.00, 
1536.00, 
1537.00, 
1538.00, 
1539.00, 
1540.00, 
1541.00, 
1542.00, 
1543.00, 
1544.00, 
1545.00, 
1546.00, 
1547.00, 
1548.00, 
1549.00, 
1550.00, 
1551.00, 
1552.00, 
1553.00, 
1554.00, 
1555.00, 
1556.00, 
1557.00, 
1558.00, 
1559.00, 
1560.00, 
1561.00, 
1562.00, 
1563.00, 
1564.00, 
1565.00, 
1566.00, 
1567.00, 
1568.00, 
1569.00, 
1570.00, 
1571.00, 
1572.00, 
1573.00, 
1574.00, 
1575.00, 
1576.00, 
1577.00, 
1578.00, 
1579.00, 
1580.00, 
1581.00, 
1582.00, 
1583.00, 
1584.00, 
1585.00, 
1586.00, 
1587.00, 
1588.00, 
1589.00, 
1590.00, 
1591.00, 
1592.00, 
1593.00, 
1594.00, 
1595.00, 
1596.00, 
1597.00, 
1598.00, 
1599.00, 
1600.00, 
1601.00, 
1602.00, 
1603.00, 
1604.00, 
1605.00, 
1606.00, 
1607.00, 
1608.00, 
1609.00, 
1610.00, 
1611.00, 
1612.00, 
1613.00, 
1614.00, 
1615.00, 
1616.00, 
1617.00, 
1618.00, 
1619.00, 
1620.00, 
1621.00, 
1622.00, 
1623.00, 
1624.00, 
1625.00, 
1626.00, 
1627.00, 
1628.00, 
1629.00, 
1630.00, 
1631.00, 
1632.00, 
1633.00, 
1634.00, 
1635.00, 
1636.00, 
1637.00, 
1638.00, 
1639.00, 
1640.00, 
1641.00, 
1642.00, 
1643.00, 
1644.00, 
1645.00, 
1646.00, 
1647.00, 
1648.00, 
1649.00, 
1650.00, 
1651.00, 
1652.00, 
1653.00, 
1654.00, 
1655.00, 
1656.00, 
1657.00, 
1658.00, 
1659.00, 
1660.00, 
1661.00, 
1662.00, 
1663.00, 
1664.00, 
1665.00, 
1666.00, 
1667.00, 
1668.00, 
1669.00, 
1670.00, 
1671.00, 
1672.00, 
1673.00, 
1674.00, 
1675.00, 
1676.00, 
1677.00, 
1678.00, 
1679.00, 
1680.00, 
1681.00, 
1682.00, 
1683.00, 
1684.00, 
1685.00, 
1686.00, 
1687.00, 
1688.00, 
1689.00, 
1690.00, 
1691.00, 
1692.00, 
1693.00, 
1694.00, 
1695.00, 
1696.00, 
1697.00, 
1698.00, 
1699.00, 
1700.00, 
1701.00, 
1702.00, 
1703.00, 
1704.00, 
1705.00, 
1706.00, 
1707.00, 
1708.00, 
1709.00, 
1710.00, 
1711.00, 
1712.00, 
1713.00, 
1714.00, 
1715.00, 
1716.00, 
1717.00, 
1718.00, 
1719.00, 
1720.00, 
1721.00, 
1722.00, 
1723.00, 
1724.00, 
1725.00, 
1726.00, 
1727.00, 
1728.00, 
1729.00, 
1730.00, 
1731.00, 
1732.00, 
1733.00, 
1734.00, 
1735.00, 
1736.00, 
1737.00, 
1738.00, 
1739.00, 
1740.00, 
1741.00, 
1742.00, 
1743.00, 
1744.00, 
1745.00, 
1746.00, 
1747.00, 
1748.00, 
1749.00, 
1750.00, 
1751.00, 
1752.00, 
1753.00, 
1754.00, 
1755.00, 
1756.00, 
1757.00, 
1758.00, 
1759.00, 
1760.00, 
1761.00, 
1762.00, 
1763.00, 
1764.00, 
1765.00, 
1766.00, 
1767.00, 
1768.00, 
1769.00, 
1770.00, 
1771.00, 
1772.00, 
1773.00, 
1774.00, 
1775.00, 
1776.00, 
1777.00, 
1778.00, 
1779.00, 
1780.00, 
1781.00, 
1782.00, 
1783.00, 
1784.00, 
1785.00, 
1786.00, 
1787.00, 
1788.00, 
1789.00, 
1790.00, 
1791.00, 
1792.00, 
1793.00, 
1794.00, 
1795.00, 
1796.00, 
1797.00, 
1798.00, 
1799.00, 
1800.00, 
1801.00, 
1802.00, 
1803.00, 
1804.00, 
1805.00, 
1806.00, 
1807.00, 
1808.00, 
1809.00, 
1810.00, 
1811.00, 
1812.00, 
1813.00, 
1814.00, 
1815.00, 
1816.00, 
1817.00, 
1818.00, 
1819.00, 
1820.00, 
1821.00, 
1822.00, 
1823.00, 
1824.00, 
1825.00, 
1826.00, 
1827.00, 
1828.00, 
1829.00, 
1830.00, 
1831.00, 
1832.00, 
1833.00, 
1834.00, 
1835.00, 
1836.00, 
1837.00, 
1838.00, 
1839.00, 
1840.00, 
1841.00, 
1842.00, 
1843.00, 
1844.00, 
1845.00, 
1846.00, 
1847.00, 
1848.00, 
1849.00, 
1850.00, 
1851.00, 
1852.00, 
1853.00, 
1854.00, 
1855.00, 
1856.00, 
1857.00, 
1858.00, 
1859.00, 
1860.00, 
1861.00, 
1862.00, 
1863.00, 
1864.00, 
1865.00, 
1866.00, 
1867.00, 
1868.00, 
1869.00, 
1870.00, 
1871.00, 
1872.00, 
1873.00, 
1874.00, 
1875.00, 
1876.00, 
1877.00, 
1878.00, 
1879.00, 
1880.00, 
1881.00, 
1882.00, 
1883.00, 
1884.00, 
1885.00, 
1886.00, 
1887.00, 
1888.00, 
1889.00, 
1890.00, 
1891.00, 
1892.00, 
1893.00, 
1894.00, 
1895.00, 
1896.00, 
1897.00, 
1898.00, 
1899.00, 
1900.00, 
1901.00, 
1902.00, 
1903.00, 
1904.00, 
1905.00, 
1906.00, 
1907.00, 
1908.00, 
1909.00, 
1910.00, 
1911.00, 
1912.00, 
1913.00, 
1914.00, 
1915.00, 
1916.00, 
1917.00, 
1918.00, 
1919.00, 
1920.00, 
1921.00, 
1922.00, 
1923.00, 
1924.00, 
1925.00, 
1926.00, 
1927.00, 
1928.00, 
1929.00, 
1930.00, 
1931.00, 
1932.00, 
1933.00, 
1934.00, 
1935.00, 
1936.00, 
1937.00, 
1938.00, 
1939.00, 
1940.00, 
1941.00, 
1942.00, 
1943.00, 
1944.00, 
1945.00, 
1946.00, 
1947.00, 
1948.00, 
1949.00, 
1950.00, 
1951.00, 
1952.00, 
1953.00, 
1954.00, 
1955.00, 
1956.00, 
1957.00, 
1958.00, 
1959.00, 
1960.00, 
1961.00, 
1962.00, 
1963.00, 
1964.00, 
1965.00, 
1966.00, 
1967.00, 
1968.00, 
1969.00, 
1970.00, 
1971.00, 
1972.00, 
1973.00, 
1974.00, 
1975.00, 
1976.00, 
1977.00, 
1978.00, 
1979.00, 
1980.00, 
1981.00, 
1982.00, 
1983.00, 
1984.00, 
1985.00, 
1986.00, 
1987.00, 
1988.00, 
1989.00, 
1990.00, 
1991.00, 
1992.00, 
1993.00, 
1994.00, 
1995.00, 
1996.00, 
1997.00, 
1998.00, 
1999.00, 
2000.00, 
2001.00, 
2002.00, 
2003.00, 
2004.00, 
2005.00, 
2006.00, 
2007.00, 
2008.00, 
2009.00, 
2010.00, 
2011.00, 
2012.00, 
2013.00, 
2014.00, 
2015.00, 
2016.00, 
2017.00, 
2018.00, 
2019.00, 
2020.00, 
2021.00, 
2022.00, 
2023.00, 
2024.00, 
2025.00, 
2026.00, 
2027.00, 
2028.00, 
2029.00, 
2030.00, 
2031.00, 
2032.00, 
2033.00, 
2034.00, 
2035.00, 
2036.00, 
2037.00, 
2038.00, 
2039.00, 
2040.00, 
2041.00, 
2042.00, 
2043.00, 
2044.00, 
2045.00, 
2046.00, 
2047.00, 
2048.00, 
2049.00, 
2050.00, 
2051.00, 
2052.00, 
2053.00, 
2054.00, 
2055.00, 
2056.00, 
2057.00, 
2058.00, 
2059.00, 
2060.00, 
2061.00, 
2062.00, 
2063.00, 
2064.00, 
2065.00, 
2066.00, 
2067.00, 
2068.00, 
2069.00, 
2070.00, 
2071.00, 
2072.00, 
2073.00, 
2074.00, 
2075.00, 
2076.00, 
2077.00, 
2078.00, 
2079.00, 
2080.00, 
2081.00, 
2082.00, 
2083.00, 
2084.00, 
2085.00, 
2086.00, 
2087.00, 
2088.00, 
2089.00, 
2090.00, 
2091.00, 
2092.00, 
2093.00, 
2094.00, 
2095.00, 
2096.00, 
2097.00, 
2098.00, 
2099.00, 
2100.00, 
2101.00, 
2102.00, 
2103.00, 
2104.00, 
2105.00, 
2106.00, 
2107.00, 
2108.00, 
2109.00, 
2110.00, 
2111.00, 
2112.00, 
2113.00, 
2114.00, 
2115.00, 
2116.00, 
2117.00, 
2118.00, 
2119.00, 
2120.00, 
2121.00, 
2122.00, 
2123.00, 
2124.00, 
2125.00, 
2126.00, 
2127.00, 
2128.00, 
2129.00, 
2130.00, 
2131.00, 
2132.00, 
2133.00, 
2134.00, 
2135.00, 
2136.00, 
2137.00, 
2138.00, 
2139.00, 
2140.00, 
2141.00, 
2142.00, 
2143.00, 
2144.00, 
2145.00, 
2146.00, 
2147.00, 
2148.00, 
2149.00, 
2150.00, 
2151.00, 
2152.00, 
2153.00, 
2154.00, 
2155.00, 
2156.00, 
2157.00, 
2158.00, 
2159.00, 
2160.00, 
2161.00, 
2162.00, 
2163.00, 
2164.00, 
2165.00, 
2166.00, 
2167.00, 
2168.00, 
2169.00, 
2170.00, 
2171.00, 
2172.00, 
2173.00, 
2174.00, 
2175.00, 
2176.00, 
2177.00, 
2178.00, 
2179.00, 
2180.00, 
2181.00, 
2182.00, 
2183.00, 
2184.00, 
2185.00, 
2186.00, 
2187.00, 
2188.00, 
2189.00, 
2190.00, 
2191.00, 
2192.00, 
2193.00, 
2194.00, 
2195.00, 
2196.00, 
2197.00, 
2198.00, 
2199.00, 
2200.00, 
2201.00, 
2202.00, 
2203.00, 
2204.00, 
2205.00, 
2206.00, 
2207.00, 
2208.00, 
2209.00, 
2210.00, 
2211.00, 
2212.00, 
2213.00, 
2214.00, 
2215.00, 
2216.00, 
2217.00, 
2218.00, 
2219.00, 
2220.00, 
2221.00, 
2222.00, 
2223.00, 
2224.00, 
2225.00, 
2226.00, 
2227.00, 
2228.00, 
2229.00, 
2230.00, 
2231.00, 
2232.00, 
2233.00, 
2234.00, 
2235.00, 
2236.00, 
2237.00, 
2238.00, 
2239.00, 
2240.00, 
2241.00, 
2242.00, 
2243.00, 
2244.00, 
2245.00, 
2246.00, 
2247.00, 
2248.00, 
2249.00, 
2250.00, 
2251.00, 
2252.00, 
2253.00, 
2254.00, 
2255.00, 
2256.00, 
2257.00, 
2258.00, 
2259.00, 
2260.00, 
2261.00, 
2262.00, 
2263.00, 
2264.00, 
2265.00, 
2266.00, 
2267.00, 
2268.00, 
2269.00, 
2270.00, 
2271.00, 
2272.00, 
2273.00, 
2274.00, 
2275.00, 
2276.00, 
2277.00, 
2278.00, 
2279.00, 
2280.00, 
2281.00, 
2282.00, 
2283.00, 
2284.00, 
2285.00, 
2286.00, 
2287.00, 
2288.00, 
2289.00, 
2290.00, 
2291.00, 
2292.00, 
2293.00, 
2294.00, 
2295.00, 
2296.00, 
2297.00, 
2298.00, 
2299.00, 
2300.00, 
2301.00, 
2302.00, 
2303.00, 
2304.00, 
2305.00, 
2306.00, 
2307.00, 
2308.00, 
2309.00, 
2310.00, 
2311.00, 
2312.00, 
2313.00, 
2314.00, 
2315.00, 
2316.00, 
2317.00, 
2318.00, 
2319.00, 
2320.00, 
2321.00, 
2322.00, 
2323.00, 
2324.00, 
2325.00, 
2326.00, 
2327.00, 
2328.00, 
2329.00, 
2330.00, 
2331.00, 
2332.00, 
2333.00, 
2334.00, 
2335.00, 
2336.00, 
2337.00, 
2338.00, 
2339.00, 
2340.00, 
2341.00, 
2342.00, 
2343.00, 
2344.00, 
2345.00, 
2346.00, 
2347.00, 
2348.00, 
2349.00, 
2350.00, 
2351.00, 
2352.00, 
2353.00, 
2354.00, 
2355.00, 
2356.00, 
2357.00, 
2358.00, 
2359.00, 
2360.00, 
2361.00, 
2362.00, 
2363.00, 
2364.00, 
2365.00, 
2366.00, 
2367.00, 
2368.00, 
2369.00, 
2370.00, 
2371.00, 
2372.00, 
2373.00, 
2374.00, 
2375.00, 
2376.00, 
2377.00, 
2378.00, 
2379.00, 
2380.00, 
2381.00, 
2382.00, 
2383.00, 
2384.00, 
2385.00, 
2386.00, 
2387.00, 
2388.00, 
2389.00, 
2390.00, 
2391.00, 
2392.00, 
2393.00, 
2394.00, 
2395.00, 
2396.00, 
2397.00, 
2398.00, 
2399.00, 
2400.00, 
2401.00, 
2402.00, 
2403.00, 
2404.00, 
2405.00, 
2406.00, 
2407.00, 
2408.00, 
2409.00, 
2410.00, 
2411.00, 
2412.00, 
2413.00, 
2414.00, 
2415.00, 
2416.00, 
2417.00, 
2418.00, 
2419.00, 
2420.00, 
2421.00, 
2422.00, 
2423.00, 
2424.00, 
2425.00, 
2426.00, 
2427.00, 
2428.00, 
2429.00, 
2430.00, 
2431.00, 
2432.00, 
2433.00, 
2434.00, 
2435.00, 
2436.00, 
2437.00, 
2438.00, 
2439.00, 
2440.00, 
2441.00, 
2442.00, 
2443.00, 
2444.00, 
2445.00, 
2446.00, 
2447.00, 
2448.00, 
2449.00, 
2450.00, 
2451.00, 
2452.00, 
2453.00, 
2454.00, 
2455.00, 
2456.00, 
2457.00, 
2458.00, 
2459.00, 
2460.00, 
2461.00, 
2462.00, 
2463.00, 
2464.00, 
2465.00, 
2466.00, 
2467.00, 
2468.00, 
2469.00, 
2470.00, 
2471.00, 
2472.00, 
2473.00, 
2474.00, 
2475.00, 
2476.00, 
2477.00, 
2478.00, 
2479.00, 
2480.00, 
2481.00, 
2482.00, 
2483.00, 
2484.00, 
2485.00, 
2486.00, 
2487.00, 
2488.00, 
2489.00, 
2490.00, 
2491.00, 
2492.00, 
2493.00, 
2494.00, 
2495.00, 
2496.00, 
2497.00, 
2498.00, 
2499.00, 
2500.00, 
2501.00, 
2502.00, 
2503.00, 
2504.00, 
2505.00, 
2506.00, 
2507.00, 
2508.00, 
2509.00, 
2510.00, 
2511.00, 
2512.00, 
2513.00, 
2514.00, 
2515.00, 
2516.00, 
2517.00, 
2518.00, 
2519.00, 
2520.00, 
2521.00, 
2522.00, 
2523.00, 
2524.00, 
2525.00, 
2526.00, 
2527.00, 
2528.00, 
2529.00, 
2530.00, 
2531.00, 
2532.00, 
2533.00, 
2534.00, 
2535.00, 
2536.00, 
2537.00, 
2538.00, 
2539.00, 
2540.00, 
2541.00, 
2542.00, 
2543.00, 
2544.00, 
2545.00, 
2546.00, 
2547.00, 
2548.00, 
2549.00, 
2550.00, 
2551.00, 
2552.00, 
2553.00, 
2554.00, 
2555.00, 
2556.00, 
2557.00, 
2558.00, 
2559.00, 
2560.00, 
2561.00, 
2562.00, 
2563.00, 
2564.00, 
2565.00, 
2566.00, 
2567.00, 
2568.00, 
2569.00, 
2570.00, 
2571.00, 
2572.00, 
2573.00, 
2574.00, 
2575.00, 
2576.00, 
2577.00, 
2578.00, 
2579.00, 
2580.00, 
2581.00, 
2582.00, 
2583.00, 
2584.00, 
2585.00, 
2586.00, 
2587.00, 
2588.00, 
2589.00, 
2590.00, 
2591.00, 
2592.00, 
2593.00, 
2594.00, 
2595.00, 
2596.00, 
2597.00, 
2598.00, 
2599.00, 
2600.00, 
