"1cP2 - RawData"
"Wavelength nm.","T%"
200.00,0.004
201.00,0.001
202.00,0.003
203.00,0.003
204.00,0.001
205.00,0.005
206.00,0.003
207.00,-0.001
208.00,-0.001
209.00,0.002
210.00,-0.001
211.00,0.003
212.00,0.003
213.00,0.002
214.00,0.003
215.00,0.003
216.00,0.002
217.00,-0.001
218.00,-0.002
219.00,0.001
220.00,-0.001
221.00,0.001
222.00,0.004
223.00,0.004
224.00,0.001
225.00,-0.000
226.00,0.002
227.00,-0.000
228.00,0.001
229.00,0.001
230.00,-0.002
231.00,-0.000
232.00,0.000
233.00,-0.001
234.00,0.002
235.00,-0.001
236.00,-0.001
237.00,0.000
238.00,0.002
239.00,0.001
240.00,0.001
241.00,0.001
242.00,0.000
243.00,0.001
244.00,-0.001
245.00,0.001
246.00,0.000
247.00,-0.000
248.00,0.001
249.00,0.000
250.00,-0.000
251.00,0.003
252.00,0.002
253.00,0.001
254.00,0.001
255.00,0.002
256.00,0.000
257.00,-0.000
258.00,0.001
259.00,0.001
260.00,0.001
261.00,-0.000
262.00,0.003
263.00,0.000
264.00,-0.001
265.00,-0.001
266.00,0.001
267.00,0.000
268.00,-0.001
269.00,-0.000
270.00,-0.000
271.00,0.000
272.00,0.001
273.00,0.001
274.00,0.000
275.00,0.001
276.00,0.001
277.00,-0.001
278.00,0.000
279.00,0.000
280.00,0.001
281.00,-0.000
282.00,-0.001
283.00,0.000
284.00,0.003
285.00,-0.000
286.00,-0.000
287.00,0.002
288.00,-0.001
289.00,0.002
290.00,-0.002
291.00,-0.002
292.00,0.001
293.00,-0.002
294.00,0.001
295.00,0.002
296.00,0.001
297.00,-0.000
298.00,-0.000
299.00,0.001
300.00,0.001
301.00,0.001
302.00,0.001
303.00,0.001
304.00,0.001
305.00,0.002
306.00,0.004
307.00,0.004
308.00,0.011
309.00,0.017
310.00,0.027
311.00,0.042
312.00,0.067
313.00,0.106
314.00,0.164
315.00,0.237
316.00,0.336
317.00,0.476
318.00,0.644
319.00,0.869
320.00,1.154
321.00,1.514
322.00,1.936
323.00,2.451
324.00,3.026
325.00,3.651
326.00,4.347
327.00,5.178
328.00,6.047
329.00,6.958
330.00,8.008
331.00,9.075
332.00,10.193
333.00,11.394
334.00,12.624
335.00,13.901
336.00,15.196
337.00,16.492
338.00,17.780
339.00,19.024
340.00,20.411
341.00,21.639
342.00,22.834
343.00,24.015
344.00,25.151
345.00,26.358
346.00,27.388
347.00,28.413
348.00,29.403
349.00,30.302
350.00,31.119
351.00,31.984
352.00,32.727
353.00,33.462
354.00,34.228
355.00,34.902
356.00,35.521
357.00,36.032
358.00,36.641
359.00,37.232
360.00,37.729
361.00,38.156
362.00,38.697
363.00,39.049
364.00,39.348
365.00,39.644
366.00,39.921
367.00,40.130
368.00,40.417
369.00,40.562
370.00,40.721
371.00,40.870
372.00,40.904
373.00,40.975
374.00,41.042
375.00,41.042
376.00,40.949
377.00,40.935
378.00,40.834
379.00,40.677
380.00,40.754
381.00,40.851
382.00,40.850
383.00,41.029
384.00,41.192
385.00,41.386
386.00,41.495
387.00,41.749
388.00,42.014
389.00,42.079
390.00,42.325
391.00,42.458
392.00,42.667
393.00,42.689
394.00,42.834
395.00,43.044
396.00,42.854
397.00,43.014
398.00,43.052
399.00,43.214
400.00,43.251
401.00,43.293
402.00,43.331
403.00,43.357
404.00,43.345
405.00,43.342
406.00,43.398
407.00,43.327
408.00,43.344
409.00,43.231
410.00,43.156
411.00,43.192
412.00,43.096
413.00,43.096
414.00,43.029
415.00,43.017
416.00,43.108
417.00,42.986
418.00,43.050
419.00,43.150
420.00,43.226
421.00,43.186
422.00,43.234
423.00,43.296
424.00,43.270
425.00,43.304
426.00,43.220
427.00,43.354
428.00,43.362
429.00,43.396
430.00,43.432
431.00,43.407
432.00,43.469
433.00,43.443
434.00,43.509
435.00,43.538
436.00,43.590
437.00,43.595
438.00,43.641
439.00,43.623
440.00,43.662
441.00,43.636
442.00,43.763
443.00,43.813
444.00,43.869
445.00,43.905
446.00,43.956
447.00,44.049
448.00,44.091
449.00,44.139
450.00,44.199
451.00,44.272
452.00,44.364
453.00,44.419
454.00,44.408
455.00,44.474
456.00,44.608
457.00,44.649
458.00,44.644
459.00,44.772
460.00,44.854
461.00,44.960
462.00,44.966
463.00,45.050
464.00,45.187
465.00,45.158
466.00,45.304
467.00,45.372
468.00,45.390
469.00,45.381
470.00,45.454
471.00,45.442
472.00,45.454
473.00,45.448
474.00,45.484
475.00,45.564
476.00,45.552
477.00,45.618
478.00,45.648
479.00,45.785
480.00,45.835
481.00,45.867
482.00,45.968
483.00,46.038
484.00,46.144
485.00,46.271
486.00,46.333
487.00,46.453
488.00,46.466
489.00,46.588
490.00,46.626
491.00,46.649
492.00,46.886
493.00,46.927
494.00,46.852
495.00,46.984
496.00,47.008
497.00,47.021
498.00,47.187
499.00,47.209
500.00,47.286
501.00,47.346
502.00,47.426
503.00,47.486
504.00,47.360
505.00,47.492
506.00,47.552
507.00,47.502
508.00,47.642
509.00,47.815
510.00,47.799
511.00,47.787
512.00,47.973
513.00,48.011
514.00,48.062
515.00,48.211
516.00,48.227
517.00,48.213
518.00,48.283
519.00,48.294
520.00,48.284
521.00,48.303
522.00,48.309
523.00,48.310
524.00,48.426
525.00,48.454
526.00,48.501
527.00,48.427
528.00,48.457
529.00,48.601
530.00,48.795
531.00,48.875
532.00,48.886
533.00,48.997
534.00,49.014
535.00,49.086
536.00,49.029
537.00,49.131
538.00,49.225
539.00,49.136
540.00,49.095
541.00,49.099
542.00,49.138
543.00,49.222
544.00,49.231
545.00,49.312
546.00,49.322
547.00,49.419
548.00,49.493
549.00,49.492
550.00,49.538
551.00,49.692
552.00,49.681
553.00,49.655
554.00,49.725
555.00,49.668
556.00,49.708
557.00,49.714
558.00,49.824
559.00,49.856
560.00,49.844
561.00,49.911
562.00,49.970
563.00,49.920
564.00,49.929
565.00,49.939
566.00,49.928
567.00,49.869
568.00,50.012
569.00,50.038
570.00,49.967
571.00,50.012
572.00,50.065
573.00,49.799
574.00,49.952
575.00,49.949
576.00,49.873
577.00,49.950
578.00,50.073
579.00,50.068
580.00,50.068
581.00,50.242
582.00,50.271
583.00,50.286
584.00,50.440
585.00,50.305
586.00,50.274
587.00,50.436
588.00,50.391
589.00,50.307
590.00,50.448
591.00,50.416
592.00,50.286
593.00,50.386
594.00,50.504
595.00,50.480
596.00,50.560
597.00,50.601
598.00,50.554
599.00,50.492
600.00,50.691
601.00,50.682
602.00,50.550
603.00,50.584
604.00,50.582
605.00,50.637
606.00,50.556
607.00,50.562
608.00,50.751
609.00,50.824
610.00,50.601
611.00,50.662
612.00,50.617
613.00,50.616
614.00,50.642
615.00,50.746
616.00,50.861
617.00,50.692
618.00,50.662
619.00,50.721
620.00,50.676
621.00,50.721
622.00,50.735
623.00,50.792
624.00,50.755
625.00,50.837
626.00,50.820
627.00,50.806
628.00,50.945
629.00,50.810
630.00,50.783
631.00,50.754
632.00,50.806
633.00,50.894
634.00,50.940
635.00,50.999
636.00,50.978
637.00,50.918
638.00,50.892
639.00,51.019
640.00,50.957
641.00,50.936
642.00,50.985
643.00,50.869
644.00,51.003
645.00,50.945
646.00,51.049
647.00,51.073
648.00,51.040
649.00,50.950
650.00,50.910
651.00,51.027
652.00,51.012
653.00,50.973
654.00,50.951
655.00,51.072
656.00,51.325
657.00,51.035
658.00,51.121
659.00,51.140
660.00,51.010
661.00,50.991
662.00,51.042
663.00,50.961
664.00,51.218
665.00,51.358
666.00,50.935
667.00,51.064
668.00,51.727
669.00,51.360
670.00,51.491
671.00,51.237
672.00,51.318
673.00,51.342
674.00,51.247
675.00,51.287
676.00,51.432
677.00,51.425
678.00,51.141
679.00,51.345
680.00,51.361
681.00,51.426
682.00,51.292
683.00,51.234
684.00,51.358
685.00,51.295
686.00,51.081
687.00,51.120
688.00,51.043
689.00,51.218
690.00,51.525
691.00,51.618
692.00,51.157
693.00,51.056
694.00,51.221
695.00,51.211
696.00,51.304
697.00,51.190
698.00,51.093
699.00,51.228
700.00,51.305
701.00,51.588
702.00,51.295
703.00,51.374
704.00,51.330
705.00,51.205
706.00,51.255
707.00,51.225
708.00,51.023
709.00,51.368
710.00,51.759
711.00,51.058
712.00,51.102
713.00,51.209
714.00,51.252
715.00,51.153
716.00,51.029
717.00,51.186
718.00,51.360
719.00,51.232
720.00,51.195
721.00,55.811
722.00,55.800
723.00,55.741
724.00,55.656
725.00,55.615
726.00,55.477
727.00,55.441
728.00,55.456
729.00,55.401
730.00,55.340
731.00,55.277
732.00,55.243
733.00,55.210
734.00,55.206
735.00,55.195
736.00,55.161
737.00,55.087
738.00,55.114
739.00,55.049
740.00,55.010
741.00,54.981
742.00,54.940
743.00,54.876
744.00,54.741
745.00,54.778
746.00,54.713
747.00,54.655
748.00,54.699
749.00,54.525
750.00,54.576
751.00,54.371
752.00,54.398
753.00,54.363
754.00,54.284
755.00,54.190
756.00,54.248
757.00,54.154
758.00,54.168
759.00,54.045
760.00,54.014
761.00,53.995
762.00,53.952
763.00,53.877
764.00,53.855
765.00,53.834
766.00,53.862
767.00,53.802
768.00,53.711
769.00,53.692
770.00,53.677
771.00,53.678
772.00,53.652
773.00,53.694
774.00,53.584
775.00,53.490
776.00,53.520
777.00,53.499
778.00,53.414
779.00,53.415
780.00,53.352
781.00,53.285
782.00,53.272
783.00,53.239
784.00,53.210
785.00,53.148
786.00,53.202
787.00,53.092
788.00,53.089
789.00,53.032
790.00,52.913
791.00,53.014
792.00,52.957
793.00,52.879
794.00,52.834
795.00,52.747
796.00,52.779
797.00,52.748
798.00,52.748
799.00,52.643
800.00,52.586
801.00,52.638
802.00,52.561
803.00,52.517
804.00,52.446
805.00,52.397
806.00,52.439
807.00,52.397
808.00,52.334
809.00,52.275
810.00,52.281
811.00,52.258
812.00,52.197
813.00,52.118
814.00,52.127
815.00,52.059
816.00,52.088
817.00,52.026
818.00,51.960
819.00,51.980
820.00,51.874
821.00,51.912
822.00,51.867
823.00,51.782
824.00,51.820
825.00,51.645
826.00,51.779
827.00,51.726
828.00,51.758
829.00,51.735
830.00,51.685
831.00,54.001
832.00,53.961
833.00,53.895
834.00,53.895
835.00,53.873
836.00,53.854
837.00,53.797
838.00,53.775
839.00,53.756
840.00,53.679
841.00,53.672
842.00,53.653
843.00,53.616
844.00,53.594
845.00,53.539
846.00,53.519
847.00,53.471
848.00,53.473
849.00,53.402
850.00,53.343
851.00,53.322
852.00,53.300
853.00,53.229
854.00,53.229
855.00,53.158
856.00,53.125
857.00,53.106
858.00,53.065
859.00,53.027
860.00,53.027
861.00,53.011
862.00,52.936
863.00,52.950
864.00,52.898
865.00,52.919
866.00,52.893
867.00,52.855
868.00,52.870
869.00,52.825
870.00,52.793
871.00,52.790
872.00,52.789
873.00,52.728
874.00,52.725
875.00,52.680
876.00,52.680
877.00,52.649
878.00,52.615
879.00,52.629
880.00,52.567
881.00,52.573
882.00,52.587
883.00,52.544
884.00,52.519
885.00,52.490
886.00,52.460
887.00,52.477
888.00,52.429
889.00,52.412
890.00,52.399
891.00,52.346
892.00,52.295
893.00,52.291
894.00,52.289
895.00,52.262
896.00,52.215
897.00,52.214
898.00,52.181
899.00,52.166
900.00,52.146
901.00,52.141
902.00,52.114
903.00,52.100
904.00,52.100
905.00,52.073
906.00,52.034
907.00,52.161
908.00,51.957
909.00,51.959
910.00,51.910
911.00,51.898
912.00,51.911
913.00,51.852
914.00,51.854
915.00,51.801
916.00,51.795
917.00,51.756
918.00,51.749
919.00,51.689
920.00,51.657
921.00,51.685
922.00,51.677
923.00,51.616
924.00,51.576
925.00,51.600
926.00,51.586
927.00,51.566
928.00,51.521
929.00,51.535
930.00,51.490
931.00,51.468
932.00,51.429
933.00,51.444
934.00,51.390
935.00,51.392
936.00,51.366
937.00,51.339
938.00,51.342
939.00,51.305
940.00,51.275
941.00,51.279
942.00,51.235
943.00,51.246
944.00,51.188
945.00,51.180
946.00,51.159
947.00,51.136
948.00,51.122
949.00,51.092
950.00,51.058
951.00,51.032
952.00,51.008
953.00,50.980
954.00,50.980
955.00,50.916
956.00,50.903
957.00,50.876
958.00,50.900
959.00,50.843
960.00,50.823
961.00,50.807
962.00,50.817
963.00,50.756
964.00,50.745
965.00,50.756
966.00,50.730
967.00,50.707
968.00,50.697
969.00,50.712
970.00,50.686
971.00,50.688
972.00,50.645
973.00,50.694
974.00,50.697
975.00,50.657
976.00,50.690
977.00,50.673
978.00,50.694
979.00,50.654
980.00,50.666
981.00,50.659
982.00,50.641
983.00,50.630
984.00,50.627
985.00,50.632
986.00,50.585
987.00,50.625
988.00,50.605
989.00,50.571
990.00,50.577
991.00,50.562
992.00,50.565
993.00,50.530
994.00,50.518
995.00,50.505
996.00,50.504
997.00,50.483
998.00,50.472
999.00,50.478
1000.00,50.434
1001.00,50.454
1002.00,50.478
1003.00,50.435
1004.00,50.414
1005.00,50.370
1006.00,50.405
1007.00,50.377
1008.00,50.345
1009.00,50.338
1010.00,50.325
1011.00,50.312
1012.00,50.290
1013.00,50.281
1014.00,50.257
1015.00,50.264
1016.00,50.210
1017.00,50.202
1018.00,50.204
1019.00,50.157
1020.00,50.174
1021.00,50.151
1022.00,50.138
1023.00,50.105
1024.00,50.117
1025.00,50.096
1026.00,50.087
1027.00,50.045
1028.00,50.047
1029.00,50.031
1030.00,49.980
1031.00,50.006
1032.00,49.970
1033.00,49.966
1034.00,49.958
1035.00,49.912
1036.00,49.881
1037.00,49.879
1038.00,49.854
1039.00,49.839
1040.00,49.833
1041.00,49.784
1042.00,49.792
1043.00,49.779
1044.00,49.788
1045.00,49.782
1046.00,49.772
1047.00,49.795
1048.00,49.814
1049.00,49.802
1050.00,49.810
1051.00,49.842
1052.00,49.839
1053.00,49.861
1054.00,49.842
1055.00,49.860
1056.00,49.882
1057.00,49.879
1058.00,49.851
1059.00,49.866
1060.00,49.874
1061.00,49.869
1062.00,49.861
1063.00,49.872
1064.00,49.859
1065.00,49.831
1066.00,49.811
1067.00,49.825
1068.00,49.841
1069.00,49.794
1070.00,49.777
1071.00,49.760
1072.00,49.776
1073.00,49.762
1074.00,49.741
1075.00,49.760
1076.00,49.767
1077.00,49.734
1078.00,49.747
1079.00,49.731
1080.00,49.702
1081.00,49.701
1082.00,49.684
1083.00,49.686
1084.00,49.687
1085.00,49.679
1086.00,49.679
1087.00,49.666
1088.00,49.640
1089.00,49.627
1090.00,49.621
1091.00,49.631
1092.00,49.627
1093.00,49.598
1094.00,49.573
1095.00,49.577
1096.00,49.562
1097.00,49.579
1098.00,49.572
1099.00,49.544
1100.00,49.550
1101.00,49.534
1102.00,49.523
1103.00,49.527
1104.00,49.499
1105.00,49.502
1106.00,49.493
1107.00,49.480
1108.00,49.481
1109.00,49.480
1110.00,49.459
1111.00,49.468
1112.00,49.454
1113.00,49.435
1114.00,49.439
1115.00,49.435
1116.00,49.430
1117.00,49.416
1118.00,49.395
1119.00,49.408
1120.00,49.406
1121.00,49.399
1122.00,49.397
1123.00,49.393
1124.00,49.378
1125.00,49.375
1126.00,49.362
1127.00,49.352
1128.00,49.351
1129.00,49.328
1130.00,49.339
1131.00,49.340
1132.00,49.323
1133.00,49.331
1134.00,49.312
1135.00,49.299
1136.00,49.315
1137.00,49.307
1138.00,49.297
1139.00,49.322
1140.00,49.296
1141.00,49.293
1142.00,49.271
1143.00,49.279
1144.00,49.266
1145.00,49.261
1146.00,49.255
1147.00,49.256
1148.00,49.234
1149.00,49.261
1150.00,49.265
1151.00,49.248
1152.00,49.252
1153.00,49.258
1154.00,49.243
1155.00,49.249
1156.00,49.244
1157.00,49.236
1158.00,49.234
1159.00,49.221
1160.00,49.216
1161.00,49.234
1162.00,49.209
1163.00,49.243
1164.00,49.242
1165.00,49.227
1166.00,49.239
1167.00,49.229
1168.00,49.239
1169.00,49.229
1170.00,49.238
1171.00,49.217
1172.00,49.217
1173.00,49.211
1174.00,49.231
1175.00,49.232
1176.00,49.223
1177.00,49.222
1178.00,49.228
1179.00,49.221
1180.00,49.221
1181.00,49.218
1182.00,49.209
1183.00,49.214
1184.00,49.194
1185.00,49.242
1186.00,49.232
1187.00,49.211
1188.00,49.214
1189.00,49.202
1190.00,49.199
1191.00,49.197
1192.00,49.201
1193.00,49.202
1194.00,49.217
1195.00,49.176
1196.00,49.223
1197.00,49.212
1198.00,49.195
1199.00,49.207
1200.00,49.212
1201.00,49.235
1202.00,49.219
1203.00,49.208
1204.00,49.215
1205.00,49.235
1206.00,49.204
1207.00,49.215
1208.00,49.207
1209.00,49.201
1210.00,49.212
1211.00,49.205
1212.00,49.230
1213.00,49.200
1214.00,49.222
1215.00,49.211
1216.00,49.222
1217.00,49.213
1218.00,49.223
1219.00,49.241
1220.00,49.216
1221.00,49.255
1222.00,49.241
1223.00,49.261
1224.00,49.263
1225.00,49.232
1226.00,49.241
1227.00,49.236
1228.00,49.241
1229.00,49.254
1230.00,49.279
1231.00,49.255
1232.00,49.287
1233.00,49.282
1234.00,49.277
1235.00,49.273
1236.00,49.271
1237.00,49.280
1238.00,49.300
1239.00,49.288
1240.00,49.293
1241.00,49.294
1242.00,49.285
1243.00,49.306
1244.00,49.289
1245.00,49.322
1246.00,49.340
1247.00,49.319
1248.00,49.337
1249.00,49.343
1250.00,49.338
1251.00,49.337
1252.00,49.348
1253.00,49.330
1254.00,49.358
1255.00,49.331
1256.00,49.315
1257.00,49.320
1258.00,49.371
1259.00,49.369
1260.00,49.384
1261.00,49.381
1262.00,49.402
1263.00,49.396
1264.00,49.395
1265.00,49.410
1266.00,49.403
1267.00,49.423
1268.00,49.420
1269.00,49.416
1270.00,49.437
1271.00,49.453
1272.00,49.428
1273.00,49.452
1274.00,49.467
1275.00,49.449
1276.00,49.486
1277.00,49.497
1278.00,49.483
1279.00,49.493
1280.00,49.477
1281.00,49.495
1282.00,49.509
1283.00,49.492
1284.00,49.506
1285.00,49.500
1286.00,49.508
1287.00,49.527
1288.00,49.529
1289.00,49.533
1290.00,49.565
1291.00,49.558
1292.00,49.573
1293.00,49.569
1294.00,49.571
1295.00,49.596
1296.00,49.593
1297.00,49.592
1298.00,49.634
1299.00,49.608
1300.00,49.616
1301.00,49.611
1302.00,49.621
1303.00,49.617
1304.00,49.619
1305.00,49.642
1306.00,49.666
1307.00,49.679
1308.00,49.660
1309.00,49.690
1310.00,49.692
1311.00,49.682
1312.00,49.686
1313.00,49.697
1314.00,49.722
1315.00,49.735
1316.00,49.732
1317.00,49.752
1318.00,49.736
1319.00,49.741
1320.00,49.759
1321.00,49.942
1322.00,49.907
1323.00,49.902
1324.00,49.881
1325.00,49.878
1326.00,49.914
1327.00,49.883
1328.00,49.908
1329.00,49.920
1330.00,49.906
1331.00,49.915
1332.00,49.904
1333.00,49.946
1334.00,49.978
1335.00,49.989
1336.00,50.040
1337.00,50.039
1338.00,50.083
1339.00,50.139
1340.00,50.204
1341.00,50.257
1342.00,50.336
1343.00,50.379
1344.00,50.412
1345.00,50.474
1346.00,50.502
1347.00,50.547
1348.00,50.575
1349.00,50.580
1350.00,50.601
1351.00,50.615
1352.00,50.609
1353.00,50.650
1354.00,50.646
1355.00,50.597
1356.00,50.664
1357.00,50.667
1358.00,50.703
1359.00,50.685
1360.00,50.666
1361.00,50.748
1362.00,50.661
1363.00,50.857
1364.00,50.792
1365.00,50.719
1366.00,50.773
1367.00,50.746
1368.00,50.677
1369.00,50.734
1370.00,50.724
1371.00,50.698
1372.00,50.680
1373.00,50.705
1374.00,50.710
1375.00,50.694
1376.00,50.691
1377.00,50.674
1378.00,50.790
1379.00,50.714
1380.00,50.706
1381.00,50.783
1382.00,50.727
1383.00,50.705
1384.00,50.655
1385.00,50.643
1386.00,50.712
1387.00,50.681
1388.00,50.650
1389.00,50.637
1390.00,50.702
1391.00,50.730
1392.00,50.691
1393.00,50.760
1394.00,50.777
1395.00,50.672
1396.00,50.631
1397.00,50.666
1398.00,50.746
1399.00,50.730
1400.00,50.655
1401.00,50.660
1402.00,50.756
1403.00,50.728
1404.00,50.719
1405.00,50.730
1406.00,50.773
1407.00,50.727
1408.00,50.768
1409.00,50.744
1410.00,50.773
1411.00,50.770
1412.00,50.810
1413.00,50.773
1414.00,50.789
1415.00,50.804
1416.00,50.819
1417.00,50.842
1418.00,50.831
1419.00,50.857
1420.00,50.865
1421.00,50.894
1422.00,50.922
1423.00,50.923
1424.00,50.932
1425.00,50.957
1426.00,50.942
1427.00,50.991
1428.00,50.998
1429.00,50.984
1430.00,51.008
1431.00,51.048
1432.00,51.059
1433.00,51.086
1434.00,51.076
1435.00,51.124
1436.00,51.143
1437.00,51.117
1438.00,51.158
1439.00,51.192
1440.00,51.178
1441.00,51.218
1442.00,51.227
1443.00,51.256
1444.00,51.327
1445.00,51.265
1446.00,51.299
1447.00,51.326
1448.00,51.350
1449.00,51.356
1450.00,51.368
1451.00,51.374
1452.00,51.419
1453.00,51.414
1454.00,51.433
1455.00,51.471
1456.00,51.478
1457.00,51.486
1458.00,51.512
1459.00,51.516
1460.00,51.549
1461.00,51.541
1462.00,51.576
1463.00,51.587
1464.00,51.593
1465.00,51.607
1466.00,51.628
1467.00,51.664
1468.00,51.708
1469.00,51.678
1470.00,51.684
1471.00,51.715
1472.00,51.728
1473.00,51.731
1474.00,51.775
1475.00,51.785
1476.00,51.800
1477.00,51.803
1478.00,51.812
1479.00,51.839
1480.00,51.840
1481.00,51.844
1482.00,51.893
1483.00,51.910
1484.00,51.919
1485.00,51.917
1486.00,51.935
1487.00,51.964
1488.00,51.978
1489.00,51.964
1490.00,52.012
1491.00,52.013
1492.00,52.031
1493.00,52.016
1494.00,52.057
1495.00,52.034
1496.00,52.071
1497.00,52.063
1498.00,52.063
1499.00,52.093
1500.00,52.110
1501.00, 
1502.00, 
1503.00, 
1504.00, 
1505.00, 
1506.00, 
1507.00, 
1508.00, 
1509.00, 
1510.00, 
1511.00, 
1512.00, 
1513.00, 
1514.00, 
1515.00, 
1516.00, 
1517.00, 
1518.00, 
1519.00, 
1520.00, 
1521.00, 
1522.00, 
1523.00, 
1524.00, 
1525.00, 
1526.00, 
1527.00, 
1528.00, 
1529.00, 
1530.00, 
1531.00, 
1532.00, 
1533.00, 
1534.00, 
1535.00, 
1536.00, 
1537.00, 
1538.00, 
1539.00, 
1540.00, 
1541.00, 
1542.00, 
1543.00, 
1544.00, 
1545.00, 
1546.00, 
1547.00, 
1548.00, 
1549.00, 
1550.00, 
1551.00, 
1552.00, 
1553.00, 
1554.00, 
1555.00, 
1556.00, 
1557.00, 
1558.00, 
1559.00, 
1560.00, 
1561.00, 
1562.00, 
1563.00, 
1564.00, 
1565.00, 
1566.00, 
1567.00, 
1568.00, 
1569.00, 
1570.00, 
1571.00, 
1572.00, 
1573.00, 
1574.00, 
1575.00, 
1576.00, 
1577.00, 
1578.00, 
1579.00, 
1580.00, 
1581.00, 
1582.00, 
1583.00, 
1584.00, 
1585.00, 
1586.00, 
1587.00, 
1588.00, 
1589.00, 
1590.00, 
1591.00, 
1592.00, 
1593.00, 
1594.00, 
1595.00, 
1596.00, 
1597.00, 
1598.00, 
1599.00, 
1600.00, 
1601.00, 
1602.00, 
1603.00, 
1604.00, 
1605.00, 
1606.00, 
1607.00, 
1608.00, 
1609.00, 
1610.00, 
1611.00, 
1612.00, 
1613.00, 
1614.00, 
1615.00, 
1616.00, 
1617.00, 
1618.00, 
1619.00, 
1620.00, 
1621.00, 
1622.00, 
1623.00, 
1624.00, 
1625.00, 
1626.00, 
1627.00, 
1628.00, 
1629.00, 
1630.00, 
1631.00, 
1632.00, 
1633.00, 
1634.00, 
1635.00, 
1636.00, 
1637.00, 
1638.00, 
1639.00, 
1640.00, 
1641.00, 
1642.00, 
1643.00, 
1644.00, 
1645.00, 
1646.00, 
1647.00, 
1648.00, 
1649.00, 
1650.00, 
1651.00, 
1652.00, 
1653.00, 
1654.00, 
1655.00, 
1656.00, 
1657.00, 
1658.00, 
1659.00, 
1660.00, 
1661.00, 
1662.00, 
1663.00, 
1664.00, 
1665.00, 
1666.00, 
1667.00, 
1668.00, 
1669.00, 
1670.00, 
1671.00, 
1672.00, 
1673.00, 
1674.00, 
1675.00, 
1676.00, 
1677.00, 
1678.00, 
1679.00, 
1680.00, 
1681.00, 
1682.00, 
1683.00, 
1684.00, 
1685.00, 
1686.00, 
1687.00, 
1688.00, 
1689.00, 
1690.00, 
1691.00, 
1692.00, 
1693.00, 
1694.00, 
1695.00, 
1696.00, 
1697.00, 
1698.00, 
1699.00, 
1700.00, 
1701.00, 
1702.00, 
1703.00, 
1704.00, 
1705.00, 
1706.00, 
1707.00, 
1708.00, 
1709.00, 
1710.00, 
1711.00, 
1712.00, 
1713.00, 
1714.00, 
1715.00, 
1716.00, 
1717.00, 
1718.00, 
1719.00, 
1720.00, 
1721.00, 
1722.00, 
1723.00, 
1724.00, 
1725.00, 
1726.00, 
1727.00, 
1728.00, 
1729.00, 
1730.00, 
1731.00, 
1732.00, 
1733.00, 
1734.00, 
1735.00, 
1736.00, 
1737.00, 
1738.00, 
1739.00, 
1740.00, 
1741.00, 
1742.00, 
1743.00, 
1744.00, 
1745.00, 
1746.00, 
1747.00, 
1748.00, 
1749.00, 
1750.00, 
1751.00, 
1752.00, 
1753.00, 
1754.00, 
1755.00, 
1756.00, 
1757.00, 
1758.00, 
1759.00, 
1760.00, 
1761.00, 
1762.00, 
1763.00, 
1764.00, 
1765.00, 
1766.00, 
1767.00, 
1768.00, 
1769.00, 
1770.00, 
1771.00, 
1772.00, 
1773.00, 
1774.00, 
1775.00, 
1776.00, 
1777.00, 
1778.00, 
1779.00, 
1780.00, 
1781.00, 
1782.00, 
1783.00, 
1784.00, 
1785.00, 
1786.00, 
1787.00, 
1788.00, 
1789.00, 
1790.00, 
1791.00, 
1792.00, 
1793.00, 
1794.00, 
1795.00, 
1796.00, 
1797.00, 
1798.00, 
1799.00, 
1800.00, 
1801.00, 
1802.00, 
1803.00, 
1804.00, 
1805.00, 
1806.00, 
1807.00, 
1808.00, 
1809.00, 
1810.00, 
1811.00, 
1812.00, 
1813.00, 
1814.00, 
1815.00, 
1816.00, 
1817.00, 
1818.00, 
1819.00, 
1820.00, 
1821.00, 
1822.00, 
1823.00, 
1824.00, 
1825.00, 
1826.00, 
1827.00, 
1828.00, 
1829.00, 
1830.00, 
1831.00, 
1832.00, 
1833.00, 
1834.00, 
1835.00, 
1836.00, 
1837.00, 
1838.00, 
1839.00, 
1840.00, 
1841.00, 
1842.00, 
1843.00, 
1844.00, 
1845.00, 
1846.00, 
1847.00, 
1848.00, 
1849.00, 
1850.00, 
1851.00, 
1852.00, 
1853.00, 
1854.00, 
1855.00, 
1856.00, 
1857.00, 
1858.00, 
1859.00, 
1860.00, 
1861.00, 
1862.00, 
1863.00, 
1864.00, 
1865.00, 
1866.00, 
1867.00, 
1868.00, 
1869.00, 
1870.00, 
1871.00, 
1872.00, 
1873.00, 
1874.00, 
1875.00, 
1876.00, 
1877.00, 
1878.00, 
1879.00, 
1880.00, 
1881.00, 
1882.00, 
1883.00, 
1884.00, 
1885.00, 
1886.00, 
1887.00, 
1888.00, 
1889.00, 
1890.00, 
1891.00, 
1892.00, 
1893.00, 
1894.00, 
1895.00, 
1896.00, 
1897.00, 
1898.00, 
1899.00, 
1900.00, 
1901.00, 
1902.00, 
1903.00, 
1904.00, 
1905.00, 
1906.00, 
1907.00, 
1908.00, 
1909.00, 
1910.00, 
1911.00, 
1912.00, 
1913.00, 
1914.00, 
1915.00, 
1916.00, 
1917.00, 
1918.00, 
1919.00, 
1920.00, 
1921.00, 
1922.00, 
1923.00, 
1924.00, 
1925.00, 
1926.00, 
1927.00, 
1928.00, 
1929.00, 
1930.00, 
1931.00, 
1932.00, 
1933.00, 
1934.00, 
1935.00, 
1936.00, 
1937.00, 
1938.00, 
1939.00, 
1940.00, 
1941.00, 
1942.00, 
1943.00, 
1944.00, 
1945.00, 
1946.00, 
1947.00, 
1948.00, 
1949.00, 
1950.00, 
1951.00, 
1952.00, 
1953.00, 
1954.00, 
1955.00, 
1956.00, 
1957.00, 
1958.00, 
1959.00, 
1960.00, 
1961.00, 
1962.00, 
1963.00, 
1964.00, 
1965.00, 
1966.00, 
1967.00, 
1968.00, 
1969.00, 
1970.00, 
1971.00, 
1972.00, 
1973.00, 
1974.00, 
1975.00, 
1976.00, 
1977.00, 
1978.00, 
1979.00, 
1980.00, 
1981.00, 
1982.00, 
1983.00, 
1984.00, 
1985.00, 
1986.00, 
1987.00, 
1988.00, 
1989.00, 
1990.00, 
1991.00, 
1992.00, 
1993.00, 
1994.00, 
1995.00, 
1996.00, 
1997.00, 
1998.00, 
1999.00, 
2000.00, 
2001.00, 
2002.00, 
2003.00, 
2004.00, 
2005.00, 
2006.00, 
2007.00, 
2008.00, 
2009.00, 
2010.00, 
2011.00, 
2012.00, 
2013.00, 
2014.00, 
2015.00, 
2016.00, 
2017.00, 
2018.00, 
2019.00, 
2020.00, 
2021.00, 
2022.00, 
2023.00, 
2024.00, 
2025.00, 
2026.00, 
2027.00, 
2028.00, 
2029.00, 
2030.00, 
2031.00, 
2032.00, 
2033.00, 
2034.00, 
2035.00, 
2036.00, 
2037.00, 
2038.00, 
2039.00, 
2040.00, 
2041.00, 
2042.00, 
2043.00, 
2044.00, 
2045.00, 
2046.00, 
2047.00, 
2048.00, 
2049.00, 
2050.00, 
2051.00, 
2052.00, 
2053.00, 
2054.00, 
2055.00, 
2056.00, 
2057.00, 
2058.00, 
2059.00, 
2060.00, 
2061.00, 
2062.00, 
2063.00, 
2064.00, 
2065.00, 
2066.00, 
2067.00, 
2068.00, 
2069.00, 
2070.00, 
2071.00, 
2072.00, 
2073.00, 
2074.00, 
2075.00, 
2076.00, 
2077.00, 
2078.00, 
2079.00, 
2080.00, 
2081.00, 
2082.00, 
2083.00, 
2084.00, 
2085.00, 
2086.00, 
2087.00, 
2088.00, 
2089.00, 
2090.00, 
2091.00, 
2092.00, 
2093.00, 
2094.00, 
2095.00, 
2096.00, 
2097.00, 
2098.00, 
2099.00, 
2100.00, 
2101.00, 
2102.00, 
2103.00, 
2104.00, 
2105.00, 
2106.00, 
2107.00, 
2108.00, 
2109.00, 
2110.00, 
2111.00, 
2112.00, 
2113.00, 
2114.00, 
2115.00, 
2116.00, 
2117.00, 
2118.00, 
2119.00, 
2120.00, 
2121.00, 
2122.00, 
2123.00, 
2124.00, 
2125.00, 
2126.00, 
2127.00, 
2128.00, 
2129.00, 
2130.00, 
2131.00, 
2132.00, 
2133.00, 
2134.00, 
2135.00, 
2136.00, 
2137.00, 
2138.00, 
2139.00, 
2140.00, 
2141.00, 
2142.00, 
2143.00, 
2144.00, 
2145.00, 
2146.00, 
2147.00, 
2148.00, 
2149.00, 
2150.00, 
2151.00, 
2152.00, 
2153.00, 
2154.00, 
2155.00, 
2156.00, 
2157.00, 
2158.00, 
2159.00, 
2160.00, 
2161.00, 
2162.00, 
2163.00, 
2164.00, 
2165.00, 
2166.00, 
2167.00, 
2168.00, 
2169.00, 
2170.00, 
2171.00, 
2172.00, 
2173.00, 
2174.00, 
2175.00, 
2176.00, 
2177.00, 
2178.00, 
2179.00, 
2180.00, 
2181.00, 
2182.00, 
2183.00, 
2184.00, 
2185.00, 
2186.00, 
2187.00, 
2188.00, 
2189.00, 
2190.00, 
2191.00, 
2192.00, 
2193.00, 
2194.00, 
2195.00, 
2196.00, 
2197.00, 
2198.00, 
2199.00, 
2200.00, 
2201.00, 
2202.00, 
2203.00, 
2204.00, 
2205.00, 
2206.00, 
2207.00, 
2208.00, 
2209.00, 
2210.00, 
2211.00, 
2212.00, 
2213.00, 
2214.00, 
2215.00, 
2216.00, 
2217.00, 
2218.00, 
2219.00, 
2220.00, 
2221.00, 
2222.00, 
2223.00, 
2224.00, 
2225.00, 
2226.00, 
2227.00, 
2228.00, 
2229.00, 
2230.00, 
2231.00, 
2232.00, 
2233.00, 
2234.00, 
2235.00, 
2236.00, 
2237.00, 
2238.00, 
2239.00, 
2240.00, 
2241.00, 
2242.00, 
2243.00, 
2244.00, 
2245.00, 
2246.00, 
2247.00, 
2248.00, 
2249.00, 
2250.00, 
2251.00, 
2252.00, 
2253.00, 
2254.00, 
2255.00, 
2256.00, 
2257.00, 
2258.00, 
2259.00, 
2260.00, 
2261.00, 
2262.00, 
2263.00, 
2264.00, 
2265.00, 
2266.00, 
2267.00, 
2268.00, 
2269.00, 
2270.00, 
2271.00, 
2272.00, 
2273.00, 
2274.00, 
2275.00, 
2276.00, 
2277.00, 
2278.00, 
2279.00, 
2280.00, 
2281.00, 
2282.00, 
2283.00, 
2284.00, 
2285.00, 
2286.00, 
2287.00, 
2288.00, 
2289.00, 
2290.00, 
2291.00, 
2292.00, 
2293.00, 
2294.00, 
2295.00, 
2296.00, 
2297.00, 
2298.00, 
2299.00, 
2300.00, 
2301.00, 
2302.00, 
2303.00, 
2304.00, 
2305.00, 
2306.00, 
2307.00, 
2308.00, 
2309.00, 
2310.00, 
2311.00, 
2312.00, 
2313.00, 
2314.00, 
2315.00, 
2316.00, 
2317.00, 
2318.00, 
2319.00, 
2320.00, 
2321.00, 
2322.00, 
2323.00, 
2324.00, 
2325.00, 
2326.00, 
2327.00, 
2328.00, 
2329.00, 
2330.00, 
2331.00, 
2332.00, 
2333.00, 
2334.00, 
2335.00, 
2336.00, 
2337.00, 
2338.00, 
2339.00, 
2340.00, 
2341.00, 
2342.00, 
2343.00, 
2344.00, 
2345.00, 
2346.00, 
2347.00, 
2348.00, 
2349.00, 
2350.00, 
2351.00, 
2352.00, 
2353.00, 
2354.00, 
2355.00, 
2356.00, 
2357.00, 
2358.00, 
2359.00, 
2360.00, 
2361.00, 
2362.00, 
2363.00, 
2364.00, 
2365.00, 
2366.00, 
2367.00, 
2368.00, 
2369.00, 
2370.00, 
2371.00, 
2372.00, 
2373.00, 
2374.00, 
2375.00, 
2376.00, 
2377.00, 
2378.00, 
2379.00, 
2380.00, 
2381.00, 
2382.00, 
2383.00, 
2384.00, 
2385.00, 
2386.00, 
2387.00, 
2388.00, 
2389.00, 
2390.00, 
2391.00, 
2392.00, 
2393.00, 
2394.00, 
2395.00, 
2396.00, 
2397.00, 
2398.00, 
2399.00, 
2400.00, 
2401.00, 
2402.00, 
2403.00, 
2404.00, 
2405.00, 
2406.00, 
2407.00, 
2408.00, 
2409.00, 
2410.00, 
2411.00, 
2412.00, 
2413.00, 
2414.00, 
2415.00, 
2416.00, 
2417.00, 
2418.00, 
2419.00, 
2420.00, 
2421.00, 
2422.00, 
2423.00, 
2424.00, 
2425.00, 
2426.00, 
2427.00, 
2428.00, 
2429.00, 
2430.00, 
2431.00, 
2432.00, 
2433.00, 
2434.00, 
2435.00, 
2436.00, 
2437.00, 
2438.00, 
2439.00, 
2440.00, 
2441.00, 
2442.00, 
2443.00, 
2444.00, 
2445.00, 
2446.00, 
2447.00, 
2448.00, 
2449.00, 
2450.00, 
2451.00, 
2452.00, 
2453.00, 
2454.00, 
2455.00, 
2456.00, 
2457.00, 
2458.00, 
2459.00, 
2460.00, 
2461.00, 
2462.00, 
2463.00, 
2464.00, 
2465.00, 
2466.00, 
2467.00, 
2468.00, 
2469.00, 
2470.00, 
2471.00, 
2472.00, 
2473.00, 
2474.00, 
2475.00, 
2476.00, 
2477.00, 
2478.00, 
2479.00, 
2480.00, 
2481.00, 
2482.00, 
2483.00, 
2484.00, 
2485.00, 
2486.00, 
2487.00, 
2488.00, 
2489.00, 
2490.00, 
2491.00, 
2492.00, 
2493.00, 
2494.00, 
2495.00, 
2496.00, 
2497.00, 
2498.00, 
2499.00, 
2500.00, 
2501.00, 
2502.00, 
2503.00, 
2504.00, 
2505.00, 
2506.00, 
2507.00, 
2508.00, 
2509.00, 
2510.00, 
2511.00, 
2512.00, 
2513.00, 
2514.00, 
2515.00, 
2516.00, 
2517.00, 
2518.00, 
2519.00, 
2520.00, 
2521.00, 
2522.00, 
2523.00, 
2524.00, 
2525.00, 
2526.00, 
2527.00, 
2528.00, 
2529.00, 
2530.00, 
2531.00, 
2532.00, 
2533.00, 
2534.00, 
2535.00, 
2536.00, 
2537.00, 
2538.00, 
2539.00, 
2540.00, 
2541.00, 
2542.00, 
2543.00, 
2544.00, 
2545.00, 
2546.00, 
2547.00, 
2548.00, 
2549.00, 
2550.00, 
2551.00, 
2552.00, 
2553.00, 
2554.00, 
2555.00, 
2556.00, 
2557.00, 
2558.00, 
2559.00, 
2560.00, 
2561.00, 
2562.00, 
2563.00, 
2564.00, 
2565.00, 
2566.00, 
2567.00, 
2568.00, 
2569.00, 
2570.00, 
2571.00, 
2572.00, 
2573.00, 
2574.00, 
2575.00, 
2576.00, 
2577.00, 
2578.00, 
2579.00, 
2580.00, 
2581.00, 
2582.00, 
2583.00, 
2584.00, 
2585.00, 
2586.00, 
2587.00, 
2588.00, 
2589.00, 
2590.00, 
2591.00, 
2592.00, 
2593.00, 
2594.00, 
2595.00, 
2596.00, 
2597.00, 
2598.00, 
2599.00, 
2600.00, 
