"2aP2 - RawData"
"Wavelength nm.","T%"
200.00,0.000
201.00,-0.000
202.00,0.001
203.00,0.002
204.00,-0.001
205.00,0.001
206.00,0.001
207.00,0.000
208.00,0.004
209.00,0.001
210.00,0.002
211.00,0.002
212.00,0.001
213.00,0.002
214.00,0.001
215.00,0.002
216.00,-0.001
217.00,0.004
218.00,0.000
219.00,0.003
220.00,0.001
221.00,-0.001
222.00,0.001
223.00,0.003
224.00,0.006
225.00,0.002
226.00,0.001
227.00,0.002
228.00,0.001
229.00,0.000
230.00,0.001
231.00,0.001
232.00,0.001
233.00,0.001
234.00,0.003
235.00,0.001
236.00,0.002
237.00,0.002
238.00,0.001
239.00,0.001
240.00,0.002
241.00,-0.000
242.00,0.002
243.00,0.000
244.00,0.001
245.00,0.001
246.00,0.001
247.00,0.003
248.00,0.002
249.00,-0.000
250.00,0.003
251.00,0.001
252.00,0.001
253.00,0.001
254.00,-0.000
255.00,0.002
256.00,-0.000
257.00,-0.001
258.00,-0.000
259.00,-0.001
260.00,0.000
261.00,-0.001
262.00,0.001
263.00,-0.001
264.00,0.000
265.00,-0.001
266.00,0.002
267.00,0.001
268.00,-0.001
269.00,0.002
270.00,-0.001
271.00,0.001
272.00,-0.001
273.00,0.000
274.00,-0.000
275.00,0.001
276.00,0.001
277.00,-0.000
278.00,-0.000
279.00,0.001
280.00,-0.001
281.00,0.000
282.00,-0.000
283.00,0.000
284.00,0.001
285.00,0.001
286.00,0.002
287.00,-0.000
288.00,-0.002
289.00,0.000
290.00,0.000
291.00,-0.001
292.00,-0.000
293.00,0.000
294.00,-0.000
295.00,0.000
296.00,0.000
297.00,0.001
298.00,0.001
299.00,0.001
300.00,0.002
301.00,0.004
302.00,0.005
303.00,0.008
304.00,0.010
305.00,0.017
306.00,0.023
307.00,0.037
308.00,0.061
309.00,0.093
310.00,0.130
311.00,0.177
312.00,0.230
313.00,0.322
314.00,0.421
315.00,0.548
316.00,0.656
317.00,0.868
318.00,1.070
319.00,1.322
320.00,1.599
321.00,1.902
322.00,2.249
323.00,2.645
324.00,3.074
325.00,3.466
326.00,3.928
327.00,4.390
328.00,4.964
329.00,5.467
330.00,6.010
331.00,6.540
332.00,7.114
333.00,7.711
334.00,8.257
335.00,8.859
336.00,9.446
337.00,10.031
338.00,10.570
339.00,11.096
340.00,11.681
341.00,12.141
342.00,12.627
343.00,13.111
344.00,13.542
345.00,14.019
346.00,14.398
347.00,14.783
348.00,15.173
349.00,15.496
350.00,15.810
351.00,16.125
352.00,16.341
353.00,16.619
354.00,16.875
355.00,17.102
356.00,17.338
357.00,17.517
358.00,17.704
359.00,17.914
360.00,18.050
361.00,18.184
362.00,18.327
363.00,18.452
364.00,18.516
365.00,18.590
366.00,18.649
367.00,18.733
368.00,18.760
369.00,18.815
370.00,18.845
371.00,18.866
372.00,18.849
373.00,18.825
374.00,18.832
375.00,18.808
376.00,18.786
377.00,18.707
378.00,18.673
379.00,18.567
380.00,18.602
381.00,18.634
382.00,18.560
383.00,18.601
384.00,18.588
385.00,18.638
386.00,18.620
387.00,18.668
388.00,18.710
389.00,18.694
390.00,18.733
391.00,18.740
392.00,18.759
393.00,18.732
394.00,18.726
395.00,18.769
396.00,18.729
397.00,18.723
398.00,18.735
399.00,18.728
400.00,18.726
401.00,18.716
402.00,18.743
403.00,18.704
404.00,18.669
405.00,18.681
406.00,18.718
407.00,18.637
408.00,18.682
409.00,18.620
410.00,18.583
411.00,18.587
412.00,18.556
413.00,18.579
414.00,18.558
415.00,18.580
416.00,18.616
417.00,18.593
418.00,18.640
419.00,18.716
420.00,18.751
421.00,18.775
422.00,18.791
423.00,18.832
424.00,18.862
425.00,18.896
426.00,18.928
427.00,18.985
428.00,19.031
429.00,19.078
430.00,19.118
431.00,19.175
432.00,19.229
433.00,19.282
434.00,19.362
435.00,19.417
436.00,19.487
437.00,19.549
438.00,19.612
439.00,19.694
440.00,19.768
441.00,19.845
442.00,19.930
443.00,20.020
444.00,20.132
445.00,20.206
446.00,20.284
447.00,20.420
448.00,20.512
449.00,20.595
450.00,20.690
451.00,20.785
452.00,20.872
453.00,21.051
454.00,21.119
455.00,21.268
456.00,21.386
457.00,21.491
458.00,21.600
459.00,21.734
460.00,21.878
461.00,21.988
462.00,22.120
463.00,22.281
464.00,22.410
465.00,22.507
466.00,22.675
467.00,22.810
468.00,22.893
469.00,23.030
470.00,23.138
471.00,23.267
472.00,23.407
473.00,23.487
474.00,23.625
475.00,23.756
476.00,23.855
477.00,24.003
478.00,24.115
479.00,24.264
480.00,24.422
481.00,24.552
482.00,24.697
483.00,24.880
484.00,25.042
485.00,25.213
486.00,25.314
487.00,25.486
488.00,25.611
489.00,25.841
490.00,25.990
491.00,26.104
492.00,26.336
493.00,26.452
494.00,26.496
495.00,26.676
496.00,26.768
497.00,26.913
498.00,27.133
499.00,27.186
500.00,27.409
501.00,27.551
502.00,27.604
503.00,27.698
504.00,27.805
505.00,27.985
506.00,28.169
507.00,28.266
508.00,28.410
509.00,28.567
510.00,28.723
511.00,28.751
512.00,28.950
513.00,29.073
514.00,29.220
515.00,29.358
516.00,29.455
517.00,29.603
518.00,29.712
519.00,29.768
520.00,29.855
521.00,29.949
522.00,30.066
523.00,30.145
524.00,30.211
525.00,30.331
526.00,30.463
527.00,30.508
528.00,30.597
529.00,30.750
530.00,30.887
531.00,31.024
532.00,31.132
533.00,31.246
534.00,31.370
535.00,31.422
536.00,31.490
537.00,31.597
538.00,31.678
539.00,31.746
540.00,31.805
541.00,31.857
542.00,31.955
543.00,32.007
544.00,32.070
545.00,32.151
546.00,32.232
547.00,32.307
548.00,32.452
549.00,32.440
550.00,32.564
551.00,32.661
552.00,32.726
553.00,32.784
554.00,32.839
555.00,32.886
556.00,32.955
557.00,33.028
558.00,33.113
559.00,33.193
560.00,33.267
561.00,33.362
562.00,33.384
563.00,33.450
564.00,33.493
565.00,33.498
566.00,33.568
567.00,33.600
568.00,33.654
569.00,33.681
570.00,33.724
571.00,33.803
572.00,33.840
573.00,33.797
574.00,33.876
575.00,33.891
576.00,33.898
577.00,33.994
578.00,34.060
579.00,34.130
580.00,34.182
581.00,34.321
582.00,34.418
583.00,34.425
584.00,34.508
585.00,34.562
586.00,34.610
587.00,34.669
588.00,34.683
589.00,34.715
590.00,34.810
591.00,34.814
592.00,34.790
593.00,34.885
594.00,34.968
595.00,35.028
596.00,35.110
597.00,35.182
598.00,35.250
599.00,35.284
600.00,35.312
601.00,35.320
602.00,35.332
603.00,35.418
604.00,35.456
605.00,35.526
606.00,35.525
607.00,35.597
608.00,35.745
609.00,35.802
610.00,35.713
611.00,35.847
612.00,35.856
613.00,35.863
614.00,35.935
615.00,35.996
616.00,36.210
617.00,36.117
618.00,36.099
619.00,36.161
620.00,36.347
621.00,36.536
622.00,36.491
623.00,36.587
624.00,36.631
625.00,36.692
626.00,36.797
627.00,36.824
628.00,36.996
629.00,36.979
630.00,37.030
631.00,37.114
632.00,37.220
633.00,37.303
634.00,37.394
635.00,37.480
636.00,37.567
637.00,37.634
638.00,37.702
639.00,37.825
640.00,37.888
641.00,37.921
642.00,38.036
643.00,38.092
644.00,38.178
645.00,38.264
646.00,38.403
647.00,38.498
648.00,38.585
649.00,38.587
650.00,38.691
651.00,38.855
652.00,38.951
653.00,38.996
654.00,39.062
655.00,39.244
656.00,39.520
657.00,39.475
658.00,39.595
659.00,39.648
660.00,39.712
661.00,39.815
662.00,39.954
663.00,40.028
664.00,40.233
665.00,40.444
666.00,40.438
667.00,40.530
668.00,40.406
669.00,40.863
670.00,41.073
671.00,41.002
672.00,41.118
673.00,41.216
674.00,41.263
675.00,41.425
676.00,41.581
677.00,41.745
678.00,41.628
679.00,41.838
680.00,41.885
681.00,42.234
682.00,42.116
683.00,42.261
684.00,42.510
685.00,42.615
686.00,42.510
687.00,42.648
688.00,42.734
689.00,42.871
690.00,43.125
691.00,43.356
692.00,43.210
693.00,43.313
694.00,43.462
695.00,43.641
696.00,43.753
697.00,43.698
698.00,43.845
699.00,44.160
700.00,44.141
701.00,44.161
702.00,44.329
703.00,44.544
704.00,44.549
705.00,44.502
706.00,44.480
707.00,44.771
708.00,44.933
709.00,45.145
710.00,45.545
711.00,45.145
712.00,45.199
713.00,45.356
714.00,45.464
715.00,45.589
716.00,45.596
717.00,45.805
718.00,45.958
719.00,45.926
720.00,45.975
721.00,50.401
722.00,50.394
723.00,50.437
724.00,50.526
725.00,50.479
726.00,50.515
727.00,50.597
728.00,50.572
729.00,50.766
730.00,50.715
731.00,50.740
732.00,50.865
733.00,50.913
734.00,51.014
735.00,51.066
736.00,51.114
737.00,51.092
738.00,51.229
739.00,51.280
740.00,51.348
741.00,51.335
742.00,51.458
743.00,51.422
744.00,51.431
745.00,51.524
746.00,51.565
747.00,51.531
748.00,51.606
749.00,51.619
750.00,51.727
751.00,51.631
752.00,51.716
753.00,51.735
754.00,51.741
755.00,51.661
756.00,51.822
757.00,51.792
758.00,51.892
759.00,51.819
760.00,51.857
761.00,51.879
762.00,51.891
763.00,51.960
764.00,51.964
765.00,52.003
766.00,52.059
767.00,52.153
768.00,52.052
769.00,52.066
770.00,52.122
771.00,52.179
772.00,52.236
773.00,52.257
774.00,52.211
775.00,52.243
776.00,52.235
777.00,52.355
778.00,52.323
779.00,52.320
780.00,52.322
781.00,52.382
782.00,52.358
783.00,52.419
784.00,52.365
785.00,52.335
786.00,52.349
787.00,52.407
788.00,52.448
789.00,52.401
790.00,52.376
791.00,52.512
792.00,52.514
793.00,52.343
794.00,52.429
795.00,52.393
796.00,52.457
797.00,52.377
798.00,52.431
799.00,52.448
800.00,52.423
801.00,52.511
802.00,52.368
803.00,52.462
804.00,52.353
805.00,52.377
806.00,52.393
807.00,52.323
808.00,52.374
809.00,52.369
810.00,52.324
811.00,52.382
812.00,52.322
813.00,52.301
814.00,52.361
815.00,52.269
816.00,52.296
817.00,52.312
818.00,52.293
819.00,52.364
820.00,52.222
821.00,52.278
822.00,52.206
823.00,52.171
824.00,52.276
825.00,52.168
826.00,52.243
827.00,52.292
828.00,52.231
829.00,52.250
830.00,52.191
831.00,54.341
832.00,54.361
833.00,54.343
834.00,54.324
835.00,54.313
836.00,54.329
837.00,54.291
838.00,54.291
839.00,54.308
840.00,54.240
841.00,54.273
842.00,54.245
843.00,54.223
844.00,54.213
845.00,54.180
846.00,54.199
847.00,54.169
848.00,54.194
849.00,54.133
850.00,54.074
851.00,54.056
852.00,54.058
853.00,54.015
854.00,54.003
855.00,53.971
856.00,53.959
857.00,53.944
858.00,53.894
859.00,53.879
860.00,53.857
861.00,53.919
862.00,53.825
863.00,53.858
864.00,53.812
865.00,53.875
866.00,53.826
867.00,53.815
868.00,53.843
869.00,53.807
870.00,53.771
871.00,53.756
872.00,53.765
873.00,53.731
874.00,53.742
875.00,53.711
876.00,53.715
877.00,53.750
878.00,53.689
879.00,53.696
880.00,53.677
881.00,53.664
882.00,53.683
883.00,53.642
884.00,53.622
885.00,53.612
886.00,53.575
887.00,53.604
888.00,53.560
889.00,53.530
890.00,53.533
891.00,53.497
892.00,53.460
893.00,53.441
894.00,53.480
895.00,53.435
896.00,53.421
897.00,53.416
898.00,53.408
899.00,53.416
900.00,53.391
901.00,53.368
902.00,53.367
903.00,53.332
904.00,53.355
905.00,53.332
906.00,53.324
907.00,53.270
908.00,53.240
909.00,53.235
910.00,53.219
911.00,53.184
912.00,53.215
913.00,53.151
914.00,53.151
915.00,53.133
916.00,53.070
917.00,53.127
918.00,53.071
919.00,53.028
920.00,52.995
921.00,53.009
922.00,52.998
923.00,52.965
924.00,52.931
925.00,52.914
926.00,52.918
927.00,52.897
928.00,52.866
929.00,52.879
930.00,52.838
931.00,52.827
932.00,52.795
933.00,52.816
934.00,52.770
935.00,52.792
936.00,52.747
937.00,52.726
938.00,52.731
939.00,52.710
940.00,52.685
941.00,52.693
942.00,52.673
943.00,52.681
944.00,52.627
945.00,52.630
946.00,52.599
947.00,52.562
948.00,52.561
949.00,52.542
950.00,52.518
951.00,52.496
952.00,52.494
953.00,52.455
954.00,52.448
955.00,52.383
956.00,52.371
957.00,52.349
958.00,52.349
959.00,52.306
960.00,52.300
961.00,52.299
962.00,52.306
963.00,52.248
964.00,52.236
965.00,52.241
966.00,52.218
967.00,52.207
968.00,52.186
969.00,52.206
970.00,52.189
971.00,52.216
972.00,52.163
973.00,52.222
974.00,52.223
975.00,52.185
976.00,52.214
977.00,52.186
978.00,52.250
979.00,52.179
980.00,52.193
981.00,52.197
982.00,52.172
983.00,52.153
984.00,52.160
985.00,52.171
986.00,52.120
987.00,52.156
988.00,52.126
989.00,52.108
990.00,52.104
991.00,52.106
992.00,52.107
993.00,52.038
994.00,52.060
995.00,52.041
996.00,52.045
997.00,52.009
998.00,52.005
999.00,52.027
1000.00,51.978
1001.00,51.987
1002.00,51.961
1003.00,51.981
1004.00,51.948
1005.00,51.911
1006.00,51.952
1007.00,51.905
1008.00,51.878
1009.00,51.865
1010.00,51.865
1011.00,51.851
1012.00,51.818
1013.00,51.819
1014.00,51.793
1015.00,51.809
1016.00,51.752
1017.00,51.755
1018.00,51.760
1019.00,51.717
1020.00,51.733
1021.00,51.691
1022.00,51.689
1023.00,51.662
1024.00,51.663
1025.00,51.639
1026.00,51.624
1027.00,51.607
1028.00,51.603
1029.00,51.599
1030.00,51.557
1031.00,51.587
1032.00,51.546
1033.00,51.532
1034.00,51.518
1035.00,51.450
1036.00,51.423
1037.00,51.419
1038.00,51.393
1039.00,51.367
1040.00,51.370
1041.00,51.329
1042.00,51.335
1043.00,51.324
1044.00,51.363
1045.00,51.332
1046.00,51.308
1047.00,51.342
1048.00,51.361
1049.00,51.345
1050.00,51.352
1051.00,51.404
1052.00,51.386
1053.00,51.415
1054.00,51.434
1055.00,51.424
1056.00,51.430
1057.00,51.422
1058.00,51.404
1059.00,51.401
1060.00,51.394
1061.00,51.378
1062.00,51.379
1063.00,51.366
1064.00,51.380
1065.00,51.362
1066.00,51.346
1067.00,51.368
1068.00,51.360
1069.00,51.332
1070.00,51.328
1071.00,51.298
1072.00,51.323
1073.00,51.293
1074.00,51.281
1075.00,51.275
1076.00,51.283
1077.00,51.257
1078.00,51.238
1079.00,51.234
1080.00,51.225
1081.00,51.213
1082.00,51.196
1083.00,51.196
1084.00,51.194
1085.00,51.200
1086.00,51.193
1087.00,51.183
1088.00,51.171
1089.00,51.163
1090.00,51.152
1091.00,51.160
1092.00,51.151
1093.00,51.130
1094.00,51.110
1095.00,51.110
1096.00,51.087
1097.00,51.097
1098.00,51.072
1099.00,51.057
1100.00,51.049
1101.00,51.038
1102.00,51.034
1103.00,51.031
1104.00,51.015
1105.00,51.014
1106.00,51.005
1107.00,50.988
1108.00,50.979
1109.00,50.975
1110.00,50.958
1111.00,50.961
1112.00,50.930
1113.00,50.932
1114.00,50.935
1115.00,50.935
1116.00,50.943
1117.00,50.921
1118.00,50.904
1119.00,50.907
1120.00,50.894
1121.00,50.884
1122.00,50.881
1123.00,50.881
1124.00,50.854
1125.00,50.862
1126.00,50.850
1127.00,50.839
1128.00,50.827
1129.00,50.798
1130.00,50.819
1131.00,50.806
1132.00,50.799
1133.00,50.806
1134.00,50.784
1135.00,50.780
1136.00,50.786
1137.00,50.778
1138.00,50.768
1139.00,50.784
1140.00,50.759
1141.00,50.762
1142.00,50.738
1143.00,50.733
1144.00,50.718
1145.00,50.720
1146.00,50.735
1147.00,50.730
1148.00,50.723
1149.00,50.741
1150.00,50.737
1151.00,50.723
1152.00,50.720
1153.00,50.708
1154.00,50.688
1155.00,50.700
1156.00,50.687
1157.00,50.690
1158.00,50.701
1159.00,50.686
1160.00,50.691
1161.00,50.701
1162.00,50.679
1163.00,50.695
1164.00,50.690
1165.00,50.682
1166.00,50.690
1167.00,50.663
1168.00,50.678
1169.00,50.665
1170.00,50.662
1171.00,50.654
1172.00,50.656
1173.00,50.632
1174.00,50.656
1175.00,50.648
1176.00,50.666
1177.00,50.689
1178.00,50.650
1179.00,50.672
1180.00,50.660
1181.00,50.664
1182.00,50.658
1183.00,50.629
1184.00,50.628
1185.00,50.651
1186.00,50.628
1187.00,50.615
1188.00,50.621
1189.00,50.618
1190.00,50.609
1191.00,50.638
1192.00,50.642
1193.00,50.610
1194.00,50.616
1195.00,50.587
1196.00,50.631
1197.00,50.615
1198.00,50.597
1199.00,50.599
1200.00,50.609
1201.00,50.620
1202.00,50.602
1203.00,50.587
1204.00,50.583
1205.00,50.611
1206.00,50.584
1207.00,50.599
1208.00,50.584
1209.00,50.584
1210.00,50.595
1211.00,50.571
1212.00,50.607
1213.00,50.566
1214.00,50.589
1215.00,50.582
1216.00,50.582
1217.00,50.576
1218.00,50.573
1219.00,50.591
1220.00,50.560
1221.00,50.579
1222.00,50.566
1223.00,50.589
1224.00,50.593
1225.00,50.557
1226.00,50.570
1227.00,50.560
1228.00,50.568
1229.00,50.578
1230.00,50.606
1231.00,50.590
1232.00,50.628
1233.00,50.627
1234.00,50.629
1235.00,50.626
1236.00,50.620
1237.00,50.637
1238.00,50.640
1239.00,50.626
1240.00,50.622
1241.00,50.613
1242.00,50.611
1243.00,50.633
1244.00,50.602
1245.00,50.642
1246.00,50.647
1247.00,50.625
1248.00,50.638
1249.00,50.646
1250.00,50.658
1251.00,50.660
1252.00,50.686
1253.00,50.677
1254.00,50.682
1255.00,50.657
1256.00,50.632
1257.00,50.630
1258.00,50.668
1259.00,50.668
1260.00,50.688
1261.00,50.679
1262.00,50.688
1263.00,50.678
1264.00,50.678
1265.00,50.691
1266.00,50.687
1267.00,50.707
1268.00,50.704
1269.00,50.695
1270.00,50.712
1271.00,50.722
1272.00,50.700
1273.00,50.729
1274.00,50.726
1275.00,50.718
1276.00,50.728
1277.00,50.719
1278.00,50.736
1279.00,50.735
1280.00,50.726
1281.00,50.766
1282.00,50.771
1283.00,50.765
1284.00,50.760
1285.00,50.751
1286.00,50.771
1287.00,50.765
1288.00,50.755
1289.00,50.758
1290.00,50.798
1291.00,50.774
1292.00,50.778
1293.00,50.784
1294.00,50.795
1295.00,50.814
1296.00,50.814
1297.00,50.821
1298.00,50.851
1299.00,50.821
1300.00,50.830
1301.00,50.824
1302.00,50.825
1303.00,50.833
1304.00,50.830
1305.00,50.849
1306.00,50.873
1307.00,50.880
1308.00,50.879
1309.00,50.900
1310.00,50.891
1311.00,50.893
1312.00,50.895
1313.00,50.887
1314.00,50.919
1315.00,50.926
1316.00,50.909
1317.00,50.948
1318.00,50.938
1319.00,50.933
1320.00,50.941
1321.00,51.085
1322.00,51.084
1323.00,51.078
1324.00,51.063
1325.00,51.085
1326.00,51.099
1327.00,51.077
1328.00,51.095
1329.00,51.071
1330.00,51.055
1331.00,51.062
1332.00,51.042
1333.00,51.063
1334.00,51.104
1335.00,51.106
1336.00,51.144
1337.00,51.185
1338.00,51.229
1339.00,51.291
1340.00,51.337
1341.00,51.391
1342.00,51.453
1343.00,51.484
1344.00,51.541
1345.00,51.599
1346.00,51.612
1347.00,51.662
1348.00,51.680
1349.00,51.697
1350.00,51.729
1351.00,51.739
1352.00,51.727
1353.00,51.765
1354.00,51.749
1355.00,51.647
1356.00,51.786
1357.00,51.740
1358.00,51.781
1359.00,51.776
1360.00,51.781
1361.00,51.817
1362.00,51.701
1363.00,51.839
1364.00,51.860
1365.00,51.774
1366.00,51.837
1367.00,51.793
1368.00,51.750
1369.00,51.787
1370.00,51.752
1371.00,51.889
1372.00,51.779
1373.00,51.771
1374.00,51.787
1375.00,51.763
1376.00,51.743
1377.00,51.733
1378.00,51.734
1379.00,51.759
1380.00,51.748
1381.00,51.792
1382.00,51.759
1383.00,51.756
1384.00,51.718
1385.00,51.717
1386.00,51.788
1387.00,51.749
1388.00,51.718
1389.00,51.667
1390.00,51.743
1391.00,51.751
1392.00,51.725
1393.00,51.766
1394.00,51.768
1395.00,51.654
1396.00,51.692
1397.00,51.711
1398.00,51.781
1399.00,51.800
1400.00,51.713
1401.00,51.716
1402.00,51.804
1403.00,51.795
1404.00,51.771
1405.00,51.808
1406.00,51.815
1407.00,51.807
1408.00,51.832
1409.00,51.779
1410.00,51.828
1411.00,51.816
1412.00,51.840
1413.00,51.810
1414.00,51.847
1415.00,51.860
1416.00,51.867
1417.00,51.881
1418.00,51.874
1419.00,51.897
1420.00,51.889
1421.00,51.918
1422.00,51.928
1423.00,51.936
1424.00,51.954
1425.00,51.979
1426.00,51.945
1427.00,51.999
1428.00,51.975
1429.00,51.973
1430.00,51.998
1431.00,52.005
1432.00,52.008
1433.00,52.044
1434.00,52.027
1435.00,52.097
1436.00,52.119
1437.00,52.097
1438.00,52.135
1439.00,52.146
1440.00,52.157
1441.00,52.174
1442.00,52.167
1443.00,52.201
1444.00,52.230
1445.00,52.188
1446.00,52.226
1447.00,52.265
1448.00,52.298
1449.00,52.297
1450.00,52.296
1451.00,52.303
1452.00,52.327
1453.00,52.308
1454.00,52.338
1455.00,52.385
1456.00,52.395
1457.00,52.412
1458.00,52.431
1459.00,52.432
1460.00,52.473
1461.00,52.460
1462.00,52.493
1463.00,52.494
1464.00,52.485
1465.00,52.490
1466.00,52.502
1467.00,52.539
1468.00,52.600
1469.00,52.563
1470.00,52.572
1471.00,52.623
1472.00,52.623
1473.00,52.619
1474.00,52.659
1475.00,52.663
1476.00,52.690
1477.00,52.693
1478.00,52.707
1479.00,52.718
1480.00,52.711
1481.00,52.717
1482.00,52.753
1483.00,52.751
1484.00,52.761
1485.00,52.789
1486.00,52.780
1487.00,52.806
1488.00,52.836
1489.00,52.805
1490.00,52.846
1491.00,52.847
1492.00,52.849
1493.00,52.852
1494.00,52.908
1495.00,52.888
1496.00,52.912
1497.00,52.893
1498.00,52.909
1499.00,52.941
1500.00,52.936
1501.00, 
1502.00, 
1503.00, 
1504.00, 
1505.00, 
1506.00, 
1507.00, 
1508.00, 
1509.00, 
1510.00, 
1511.00, 
1512.00, 
1513.00, 
1514.00, 
1515.00, 
1516.00, 
1517.00, 
1518.00, 
1519.00, 
1520.00, 
1521.00, 
1522.00, 
1523.00, 
1524.00, 
1525.00, 
1526.00, 
1527.00, 
1528.00, 
1529.00, 
1530.00, 
1531.00, 
1532.00, 
1533.00, 
1534.00, 
1535.00, 
1536.00, 
1537.00, 
1538.00, 
1539.00, 
1540.00, 
1541.00, 
1542.00, 
1543.00, 
1544.00, 
1545.00, 
1546.00, 
1547.00, 
1548.00, 
1549.00, 
1550.00, 
1551.00, 
1552.00, 
1553.00, 
1554.00, 
1555.00, 
1556.00, 
1557.00, 
1558.00, 
1559.00, 
1560.00, 
1561.00, 
1562.00, 
1563.00, 
1564.00, 
1565.00, 
1566.00, 
1567.00, 
1568.00, 
1569.00, 
1570.00, 
1571.00, 
1572.00, 
1573.00, 
1574.00, 
1575.00, 
1576.00, 
1577.00, 
1578.00, 
1579.00, 
1580.00, 
1581.00, 
1582.00, 
1583.00, 
1584.00, 
1585.00, 
1586.00, 
1587.00, 
1588.00, 
1589.00, 
1590.00, 
1591.00, 
1592.00, 
1593.00, 
1594.00, 
1595.00, 
1596.00, 
1597.00, 
1598.00, 
1599.00, 
1600.00, 
1601.00, 
1602.00, 
1603.00, 
1604.00, 
1605.00, 
1606.00, 
1607.00, 
1608.00, 
1609.00, 
1610.00, 
1611.00, 
1612.00, 
1613.00, 
1614.00, 
1615.00, 
1616.00, 
1617.00, 
1618.00, 
1619.00, 
1620.00, 
1621.00, 
1622.00, 
1623.00, 
1624.00, 
1625.00, 
1626.00, 
1627.00, 
1628.00, 
1629.00, 
1630.00, 
1631.00, 
1632.00, 
1633.00, 
1634.00, 
1635.00, 
1636.00, 
1637.00, 
1638.00, 
1639.00, 
1640.00, 
1641.00, 
1642.00, 
1643.00, 
1644.00, 
1645.00, 
1646.00, 
1647.00, 
1648.00, 
1649.00, 
1650.00, 
1651.00, 
1652.00, 
1653.00, 
1654.00, 
1655.00, 
1656.00, 
1657.00, 
1658.00, 
1659.00, 
1660.00, 
1661.00, 
1662.00, 
1663.00, 
1664.00, 
1665.00, 
1666.00, 
1667.00, 
1668.00, 
1669.00, 
1670.00, 
1671.00, 
1672.00, 
1673.00, 
1674.00, 
1675.00, 
1676.00, 
1677.00, 
1678.00, 
1679.00, 
1680.00, 
1681.00, 
1682.00, 
1683.00, 
1684.00, 
1685.00, 
1686.00, 
1687.00, 
1688.00, 
1689.00, 
1690.00, 
1691.00, 
1692.00, 
1693.00, 
1694.00, 
1695.00, 
1696.00, 
1697.00, 
1698.00, 
1699.00, 
1700.00, 
1701.00, 
1702.00, 
1703.00, 
1704.00, 
1705.00, 
1706.00, 
1707.00, 
1708.00, 
1709.00, 
1710.00, 
1711.00, 
1712.00, 
1713.00, 
1714.00, 
1715.00, 
1716.00, 
1717.00, 
1718.00, 
1719.00, 
1720.00, 
1721.00, 
1722.00, 
1723.00, 
1724.00, 
1725.00, 
1726.00, 
1727.00, 
1728.00, 
1729.00, 
1730.00, 
1731.00, 
1732.00, 
1733.00, 
1734.00, 
1735.00, 
1736.00, 
1737.00, 
1738.00, 
1739.00, 
1740.00, 
1741.00, 
1742.00, 
1743.00, 
1744.00, 
1745.00, 
1746.00, 
1747.00, 
1748.00, 
1749.00, 
1750.00, 
1751.00, 
1752.00, 
1753.00, 
1754.00, 
1755.00, 
1756.00, 
1757.00, 
1758.00, 
1759.00, 
1760.00, 
1761.00, 
1762.00, 
1763.00, 
1764.00, 
1765.00, 
1766.00, 
1767.00, 
1768.00, 
1769.00, 
1770.00, 
1771.00, 
1772.00, 
1773.00, 
1774.00, 
1775.00, 
1776.00, 
1777.00, 
1778.00, 
1779.00, 
1780.00, 
1781.00, 
1782.00, 
1783.00, 
1784.00, 
1785.00, 
1786.00, 
1787.00, 
1788.00, 
1789.00, 
1790.00, 
1791.00, 
1792.00, 
1793.00, 
1794.00, 
1795.00, 
1796.00, 
1797.00, 
1798.00, 
1799.00, 
1800.00, 
1801.00, 
1802.00, 
1803.00, 
1804.00, 
1805.00, 
1806.00, 
1807.00, 
1808.00, 
1809.00, 
1810.00, 
1811.00, 
1812.00, 
1813.00, 
1814.00, 
1815.00, 
1816.00, 
1817.00, 
1818.00, 
1819.00, 
1820.00, 
1821.00, 
1822.00, 
1823.00, 
1824.00, 
1825.00, 
1826.00, 
1827.00, 
1828.00, 
1829.00, 
1830.00, 
1831.00, 
1832.00, 
1833.00, 
1834.00, 
1835.00, 
1836.00, 
1837.00, 
1838.00, 
1839.00, 
1840.00, 
1841.00, 
1842.00, 
1843.00, 
1844.00, 
1845.00, 
1846.00, 
1847.00, 
1848.00, 
1849.00, 
1850.00, 
1851.00, 
1852.00, 
1853.00, 
1854.00, 
1855.00, 
1856.00, 
1857.00, 
1858.00, 
1859.00, 
1860.00, 
1861.00, 
1862.00, 
1863.00, 
1864.00, 
1865.00, 
1866.00, 
1867.00, 
1868.00, 
1869.00, 
1870.00, 
1871.00, 
1872.00, 
1873.00, 
1874.00, 
1875.00, 
1876.00, 
1877.00, 
1878.00, 
1879.00, 
1880.00, 
1881.00, 
1882.00, 
1883.00, 
1884.00, 
1885.00, 
1886.00, 
1887.00, 
1888.00, 
1889.00, 
1890.00, 
1891.00, 
1892.00, 
1893.00, 
1894.00, 
1895.00, 
1896.00, 
1897.00, 
1898.00, 
1899.00, 
1900.00, 
1901.00, 
1902.00, 
1903.00, 
1904.00, 
1905.00, 
1906.00, 
1907.00, 
1908.00, 
1909.00, 
1910.00, 
1911.00, 
1912.00, 
1913.00, 
1914.00, 
1915.00, 
1916.00, 
1917.00, 
1918.00, 
1919.00, 
1920.00, 
1921.00, 
1922.00, 
1923.00, 
1924.00, 
1925.00, 
1926.00, 
1927.00, 
1928.00, 
1929.00, 
1930.00, 
1931.00, 
1932.00, 
1933.00, 
1934.00, 
1935.00, 
1936.00, 
1937.00, 
1938.00, 
1939.00, 
1940.00, 
1941.00, 
1942.00, 
1943.00, 
1944.00, 
1945.00, 
1946.00, 
1947.00, 
1948.00, 
1949.00, 
1950.00, 
1951.00, 
1952.00, 
1953.00, 
1954.00, 
1955.00, 
1956.00, 
1957.00, 
1958.00, 
1959.00, 
1960.00, 
1961.00, 
1962.00, 
1963.00, 
1964.00, 
1965.00, 
1966.00, 
1967.00, 
1968.00, 
1969.00, 
1970.00, 
1971.00, 
1972.00, 
1973.00, 
1974.00, 
1975.00, 
1976.00, 
1977.00, 
1978.00, 
1979.00, 
1980.00, 
1981.00, 
1982.00, 
1983.00, 
1984.00, 
1985.00, 
1986.00, 
1987.00, 
1988.00, 
1989.00, 
1990.00, 
1991.00, 
1992.00, 
1993.00, 
1994.00, 
1995.00, 
1996.00, 
1997.00, 
1998.00, 
1999.00, 
2000.00, 
2001.00, 
2002.00, 
2003.00, 
2004.00, 
2005.00, 
2006.00, 
2007.00, 
2008.00, 
2009.00, 
2010.00, 
2011.00, 
2012.00, 
2013.00, 
2014.00, 
2015.00, 
2016.00, 
2017.00, 
2018.00, 
2019.00, 
2020.00, 
2021.00, 
2022.00, 
2023.00, 
2024.00, 
2025.00, 
2026.00, 
2027.00, 
2028.00, 
2029.00, 
2030.00, 
2031.00, 
2032.00, 
2033.00, 
2034.00, 
2035.00, 
2036.00, 
2037.00, 
2038.00, 
2039.00, 
2040.00, 
2041.00, 
2042.00, 
2043.00, 
2044.00, 
2045.00, 
2046.00, 
2047.00, 
2048.00, 
2049.00, 
2050.00, 
2051.00, 
2052.00, 
2053.00, 
2054.00, 
2055.00, 
2056.00, 
2057.00, 
2058.00, 
2059.00, 
2060.00, 
2061.00, 
2062.00, 
2063.00, 
2064.00, 
2065.00, 
2066.00, 
2067.00, 
2068.00, 
2069.00, 
2070.00, 
2071.00, 
2072.00, 
2073.00, 
2074.00, 
2075.00, 
2076.00, 
2077.00, 
2078.00, 
2079.00, 
2080.00, 
2081.00, 
2082.00, 
2083.00, 
2084.00, 
2085.00, 
2086.00, 
2087.00, 
2088.00, 
2089.00, 
2090.00, 
2091.00, 
2092.00, 
2093.00, 
2094.00, 
2095.00, 
2096.00, 
2097.00, 
2098.00, 
2099.00, 
2100.00, 
2101.00, 
2102.00, 
2103.00, 
2104.00, 
2105.00, 
2106.00, 
2107.00, 
2108.00, 
2109.00, 
2110.00, 
2111.00, 
2112.00, 
2113.00, 
2114.00, 
2115.00, 
2116.00, 
2117.00, 
2118.00, 
2119.00, 
2120.00, 
2121.00, 
2122.00, 
2123.00, 
2124.00, 
2125.00, 
2126.00, 
2127.00, 
2128.00, 
2129.00, 
2130.00, 
2131.00, 
2132.00, 
2133.00, 
2134.00, 
2135.00, 
2136.00, 
2137.00, 
2138.00, 
2139.00, 
2140.00, 
2141.00, 
2142.00, 
2143.00, 
2144.00, 
2145.00, 
2146.00, 
2147.00, 
2148.00, 
2149.00, 
2150.00, 
2151.00, 
2152.00, 
2153.00, 
2154.00, 
2155.00, 
2156.00, 
2157.00, 
2158.00, 
2159.00, 
2160.00, 
2161.00, 
2162.00, 
2163.00, 
2164.00, 
2165.00, 
2166.00, 
2167.00, 
2168.00, 
2169.00, 
2170.00, 
2171.00, 
2172.00, 
2173.00, 
2174.00, 
2175.00, 
2176.00, 
2177.00, 
2178.00, 
2179.00, 
2180.00, 
2181.00, 
2182.00, 
2183.00, 
2184.00, 
2185.00, 
2186.00, 
2187.00, 
2188.00, 
2189.00, 
2190.00, 
2191.00, 
2192.00, 
2193.00, 
2194.00, 
2195.00, 
2196.00, 
2197.00, 
2198.00, 
2199.00, 
2200.00, 
2201.00, 
2202.00, 
2203.00, 
2204.00, 
2205.00, 
2206.00, 
2207.00, 
2208.00, 
2209.00, 
2210.00, 
2211.00, 
2212.00, 
2213.00, 
2214.00, 
2215.00, 
2216.00, 
2217.00, 
2218.00, 
2219.00, 
2220.00, 
2221.00, 
2222.00, 
2223.00, 
2224.00, 
2225.00, 
2226.00, 
2227.00, 
2228.00, 
2229.00, 
2230.00, 
2231.00, 
2232.00, 
2233.00, 
2234.00, 
2235.00, 
2236.00, 
2237.00, 
2238.00, 
2239.00, 
2240.00, 
2241.00, 
2242.00, 
2243.00, 
2244.00, 
2245.00, 
2246.00, 
2247.00, 
2248.00, 
2249.00, 
2250.00, 
2251.00, 
2252.00, 
2253.00, 
2254.00, 
2255.00, 
2256.00, 
2257.00, 
2258.00, 
2259.00, 
2260.00, 
2261.00, 
2262.00, 
2263.00, 
2264.00, 
2265.00, 
2266.00, 
2267.00, 
2268.00, 
2269.00, 
2270.00, 
2271.00, 
2272.00, 
2273.00, 
2274.00, 
2275.00, 
2276.00, 
2277.00, 
2278.00, 
2279.00, 
2280.00, 
2281.00, 
2282.00, 
2283.00, 
2284.00, 
2285.00, 
2286.00, 
2287.00, 
2288.00, 
2289.00, 
2290.00, 
2291.00, 
2292.00, 
2293.00, 
2294.00, 
2295.00, 
2296.00, 
2297.00, 
2298.00, 
2299.00, 
2300.00, 
2301.00, 
2302.00, 
2303.00, 
2304.00, 
2305.00, 
2306.00, 
2307.00, 
2308.00, 
2309.00, 
2310.00, 
2311.00, 
2312.00, 
2313.00, 
2314.00, 
2315.00, 
2316.00, 
2317.00, 
2318.00, 
2319.00, 
2320.00, 
2321.00, 
2322.00, 
2323.00, 
2324.00, 
2325.00, 
2326.00, 
2327.00, 
2328.00, 
2329.00, 
2330.00, 
2331.00, 
2332.00, 
2333.00, 
2334.00, 
2335.00, 
2336.00, 
2337.00, 
2338.00, 
2339.00, 
2340.00, 
2341.00, 
2342.00, 
2343.00, 
2344.00, 
2345.00, 
2346.00, 
2347.00, 
2348.00, 
2349.00, 
2350.00, 
2351.00, 
2352.00, 
2353.00, 
2354.00, 
2355.00, 
2356.00, 
2357.00, 
2358.00, 
2359.00, 
2360.00, 
2361.00, 
2362.00, 
2363.00, 
2364.00, 
2365.00, 
2366.00, 
2367.00, 
2368.00, 
2369.00, 
2370.00, 
2371.00, 
2372.00, 
2373.00, 
2374.00, 
2375.00, 
2376.00, 
2377.00, 
2378.00, 
2379.00, 
2380.00, 
2381.00, 
2382.00, 
2383.00, 
2384.00, 
2385.00, 
2386.00, 
2387.00, 
2388.00, 
2389.00, 
2390.00, 
2391.00, 
2392.00, 
2393.00, 
2394.00, 
2395.00, 
2396.00, 
2397.00, 
2398.00, 
2399.00, 
2400.00, 
2401.00, 
2402.00, 
2403.00, 
2404.00, 
2405.00, 
2406.00, 
2407.00, 
2408.00, 
2409.00, 
2410.00, 
2411.00, 
2412.00, 
2413.00, 
2414.00, 
2415.00, 
2416.00, 
2417.00, 
2418.00, 
2419.00, 
2420.00, 
2421.00, 
2422.00, 
2423.00, 
2424.00, 
2425.00, 
2426.00, 
2427.00, 
2428.00, 
2429.00, 
2430.00, 
2431.00, 
2432.00, 
2433.00, 
2434.00, 
2435.00, 
2436.00, 
2437.00, 
2438.00, 
2439.00, 
2440.00, 
2441.00, 
2442.00, 
2443.00, 
2444.00, 
2445.00, 
2446.00, 
2447.00, 
2448.00, 
2449.00, 
2450.00, 
2451.00, 
2452.00, 
2453.00, 
2454.00, 
2455.00, 
2456.00, 
2457.00, 
2458.00, 
2459.00, 
2460.00, 
2461.00, 
2462.00, 
2463.00, 
2464.00, 
2465.00, 
2466.00, 
2467.00, 
2468.00, 
2469.00, 
2470.00, 
2471.00, 
2472.00, 
2473.00, 
2474.00, 
2475.00, 
2476.00, 
2477.00, 
2478.00, 
2479.00, 
2480.00, 
2481.00, 
2482.00, 
2483.00, 
2484.00, 
2485.00, 
2486.00, 
2487.00, 
2488.00, 
2489.00, 
2490.00, 
2491.00, 
2492.00, 
2493.00, 
2494.00, 
2495.00, 
2496.00, 
2497.00, 
2498.00, 
2499.00, 
2500.00, 
2501.00, 
2502.00, 
2503.00, 
2504.00, 
2505.00, 
2506.00, 
2507.00, 
2508.00, 
2509.00, 
2510.00, 
2511.00, 
2512.00, 
2513.00, 
2514.00, 
2515.00, 
2516.00, 
2517.00, 
2518.00, 
2519.00, 
2520.00, 
2521.00, 
2522.00, 
2523.00, 
2524.00, 
2525.00, 
2526.00, 
2527.00, 
2528.00, 
2529.00, 
2530.00, 
2531.00, 
2532.00, 
2533.00, 
2534.00, 
2535.00, 
2536.00, 
2537.00, 
2538.00, 
2539.00, 
2540.00, 
2541.00, 
2542.00, 
2543.00, 
2544.00, 
2545.00, 
2546.00, 
2547.00, 
2548.00, 
2549.00, 
2550.00, 
2551.00, 
2552.00, 
2553.00, 
2554.00, 
2555.00, 
2556.00, 
2557.00, 
2558.00, 
2559.00, 
2560.00, 
2561.00, 
2562.00, 
2563.00, 
2564.00, 
2565.00, 
2566.00, 
2567.00, 
2568.00, 
2569.00, 
2570.00, 
2571.00, 
2572.00, 
2573.00, 
2574.00, 
2575.00, 
2576.00, 
2577.00, 
2578.00, 
2579.00, 
2580.00, 
2581.00, 
2582.00, 
2583.00, 
2584.00, 
2585.00, 
2586.00, 
2587.00, 
2588.00, 
2589.00, 
2590.00, 
2591.00, 
2592.00, 
2593.00, 
2594.00, 
2595.00, 
2596.00, 
2597.00, 
2598.00, 
2599.00, 
2600.00, 
