"2cP2 - RawData"
"Wavelength nm.","T%"
200.00,-0.001
201.00,0.004
202.00,0.001
203.00,0.001
204.00,0.001
205.00,-0.001
206.00,0.000
207.00,0.001
208.00,0.001
209.00,-0.000
210.00,0.003
211.00,0.003
212.00,0.003
213.00,0.002
214.00,0.003
215.00,-0.001
216.00,0.002
217.00,0.002
218.00,-0.002
219.00,0.003
220.00,0.004
221.00,0.002
222.00,0.002
223.00,0.001
224.00,0.000
225.00,0.002
226.00,0.001
227.00,0.001
228.00,0.002
229.00,-0.000
230.00,0.001
231.00,0.000
232.00,0.002
233.00,0.002
234.00,-0.002
235.00,-0.000
236.00,0.000
237.00,0.002
238.00,0.001
239.00,0.000
240.00,-0.000
241.00,0.000
242.00,-0.001
243.00,0.000
244.00,0.000
245.00,0.000
246.00,0.001
247.00,-0.001
248.00,-0.001
249.00,-0.002
250.00,-0.000
251.00,0.002
252.00,-0.000
253.00,-0.000
254.00,-0.002
255.00,0.000
256.00,0.001
257.00,-0.001
258.00,-0.001
259.00,0.003
260.00,0.000
261.00,-0.001
262.00,0.001
263.00,0.001
264.00,0.001
265.00,-0.000
266.00,0.002
267.00,0.002
268.00,-0.000
269.00,0.001
270.00,-0.001
271.00,0.001
272.00,0.000
273.00,-0.001
274.00,0.000
275.00,0.001
276.00,-0.001
277.00,-0.000
278.00,-0.000
279.00,0.000
280.00,0.002
281.00,0.000
282.00,0.002
283.00,0.001
284.00,-0.001
285.00,0.000
286.00,0.001
287.00,0.001
288.00,-0.000
289.00,-0.000
290.00,0.001
291.00,-0.000
292.00,-0.001
293.00,0.002
294.00,0.001
295.00,0.000
296.00,0.000
297.00,-0.000
298.00,0.002
299.00,0.002
300.00,0.003
301.00,0.006
302.00,0.008
303.00,0.011
304.00,0.020
305.00,0.032
306.00,0.051
307.00,0.074
308.00,0.115
309.00,0.181
310.00,0.255
311.00,0.340
312.00,0.470
313.00,0.633
314.00,0.841
315.00,1.103
316.00,1.394
317.00,1.770
318.00,2.173
319.00,2.667
320.00,3.245
321.00,3.869
322.00,4.616
323.00,5.459
324.00,6.304
325.00,7.168
326.00,8.087
327.00,9.131
328.00,10.237
329.00,11.294
330.00,12.429
331.00,13.609
332.00,14.806
333.00,16.070
334.00,17.252
335.00,18.503
336.00,19.666
337.00,20.918
338.00,22.083
339.00,23.242
340.00,24.430
341.00,25.560
342.00,26.565
343.00,27.654
344.00,28.581
345.00,29.572
346.00,30.351
347.00,31.304
348.00,32.135
349.00,32.943
350.00,33.617
351.00,34.336
352.00,34.983
353.00,35.614
354.00,36.178
355.00,36.776
356.00,37.327
357.00,37.797
358.00,38.251
359.00,38.725
360.00,39.103
361.00,39.377
362.00,39.897
363.00,40.254
364.00,40.523
365.00,40.823
366.00,41.125
367.00,41.275
368.00,41.502
369.00,41.661
370.00,41.804
371.00,41.940
372.00,42.091
373.00,42.143
374.00,42.149
375.00,42.174
376.00,42.273
377.00,42.261
378.00,42.239
379.00,42.177
380.00,42.255
381.00,42.328
382.00,42.328
383.00,42.449
384.00,42.570
385.00,42.717
386.00,42.809
387.00,43.009
388.00,43.097
389.00,43.255
390.00,43.423
391.00,43.515
392.00,43.667
393.00,43.622
394.00,43.778
395.00,43.880
396.00,43.871
397.00,43.940
398.00,44.003
399.00,44.059
400.00,44.122
401.00,44.103
402.00,44.177
403.00,44.056
404.00,44.242
405.00,44.306
406.00,44.331
407.00,44.246
408.00,44.241
409.00,44.182
410.00,44.137
411.00,44.151
412.00,44.099
413.00,44.090
414.00,44.116
415.00,44.087
416.00,44.144
417.00,44.142
418.00,44.181
419.00,44.191
420.00,44.215
421.00,44.347
422.00,44.306
423.00,44.381
424.00,44.349
425.00,44.393
426.00,44.420
427.00,44.414
428.00,44.538
429.00,44.514
430.00,44.509
431.00,44.498
432.00,44.460
433.00,44.599
434.00,44.589
435.00,44.644
436.00,44.674
437.00,44.717
438.00,44.710
439.00,44.769
440.00,44.823
441.00,44.841
442.00,44.919
443.00,44.924
444.00,44.977
445.00,44.948
446.00,45.021
447.00,45.036
448.00,45.066
449.00,45.266
450.00,45.298
451.00,45.373
452.00,45.468
453.00,45.472
454.00,45.556
455.00,45.620
456.00,45.687
457.00,45.686
458.00,45.812
459.00,45.803
460.00,45.921
461.00,45.944
462.00,46.058
463.00,46.069
464.00,46.181
465.00,46.172
466.00,46.201
467.00,46.289
468.00,46.343
469.00,46.358
470.00,46.388
471.00,46.465
472.00,46.450
473.00,46.424
474.00,46.471
475.00,46.588
476.00,46.553
477.00,46.619
478.00,46.632
479.00,46.721
480.00,46.789
481.00,46.845
482.00,46.916
483.00,46.998
484.00,47.074
485.00,47.212
486.00,47.271
487.00,47.346
488.00,47.416
489.00,47.475
490.00,47.557
491.00,47.627
492.00,47.714
493.00,47.713
494.00,47.717
495.00,47.766
496.00,47.765
497.00,47.910
498.00,47.963
499.00,47.975
500.00,48.105
501.00,48.160
502.00,48.093
503.00,48.184
504.00,48.146
505.00,48.155
506.00,48.386
507.00,48.402
508.00,48.449
509.00,48.578
510.00,48.599
511.00,48.655
512.00,48.631
513.00,48.702
514.00,48.871
515.00,48.867
516.00,48.881
517.00,48.934
518.00,48.975
519.00,48.985
520.00,49.057
521.00,48.982
522.00,49.066
523.00,49.101
524.00,49.065
525.00,49.128
526.00,49.199
527.00,49.257
528.00,49.231
529.00,49.272
530.00,49.330
531.00,49.475
532.00,49.463
533.00,49.500
534.00,49.489
535.00,49.637
536.00,49.670
537.00,49.710
538.00,49.810
539.00,49.822
540.00,49.781
541.00,49.795
542.00,49.823
543.00,49.818
544.00,49.896
545.00,49.897
546.00,49.882
547.00,50.048
548.00,50.012
549.00,49.939
550.00,50.125
551.00,50.246
552.00,50.224
553.00,50.257
554.00,50.299
555.00,50.255
556.00,50.293
557.00,50.339
558.00,50.364
559.00,50.425
560.00,50.449
561.00,50.475
562.00,50.511
563.00,50.475
564.00,50.552
565.00,50.519
566.00,50.452
567.00,50.526
568.00,50.478
569.00,50.501
570.00,50.472
571.00,50.550
572.00,50.561
573.00,50.526
574.00,50.547
575.00,50.567
576.00,50.486
577.00,50.607
578.00,50.568
579.00,50.566
580.00,50.579
581.00,50.834
582.00,50.888
583.00,50.906
584.00,51.044
585.00,51.037
586.00,51.048
587.00,51.105
588.00,51.087
589.00,51.073
590.00,51.073
591.00,51.099
592.00,51.100
593.00,51.054
594.00,51.135
595.00,51.128
596.00,51.198
597.00,51.287
598.00,51.340
599.00,51.276
600.00,51.348
601.00,51.368
602.00,51.385
603.00,51.347
604.00,51.355
605.00,51.403
606.00,51.346
607.00,51.360
608.00,51.445
609.00,51.349
610.00,51.355
611.00,51.419
612.00,51.485
613.00,51.368
614.00,51.409
615.00,51.425
616.00,51.484
617.00,51.440
618.00,51.531
619.00,51.517
620.00,51.491
621.00,51.486
622.00,51.499
623.00,51.585
624.00,51.491
625.00,51.532
626.00,51.557
627.00,51.574
628.00,51.683
629.00,51.582
630.00,51.568
631.00,51.594
632.00,51.588
633.00,51.542
634.00,51.604
635.00,51.674
636.00,51.724
637.00,51.704
638.00,51.674
639.00,51.657
640.00,51.647
641.00,51.624
642.00,51.732
643.00,51.601
644.00,51.702
645.00,51.707
646.00,51.721
647.00,51.773
648.00,51.705
649.00,51.713
650.00,51.667
651.00,51.661
652.00,51.728
653.00,51.773
654.00,51.734
655.00,51.758
656.00,51.797
657.00,51.948
658.00,51.948
659.00,51.823
660.00,51.769
661.00,51.649
662.00,51.899
663.00,51.876
664.00,51.906
665.00,51.879
666.00,51.824
667.00,51.872
668.00,51.987
669.00,52.115
670.00,51.915
671.00,51.915
672.00,51.872
673.00,51.830
674.00,51.918
675.00,52.030
676.00,51.976
677.00,51.911
678.00,51.949
679.00,51.855
680.00,51.893
681.00,51.995
682.00,51.905
683.00,52.006
684.00,52.107
685.00,52.036
686.00,51.971
687.00,52.001
688.00,51.962
689.00,51.907
690.00,51.990
691.00,52.020
692.00,51.847
693.00,51.949
694.00,51.924
695.00,51.894
696.00,51.875
697.00,51.883
698.00,51.890
699.00,52.047
700.00,51.930
701.00,51.994
702.00,52.007
703.00,52.045
704.00,51.973
705.00,51.985
706.00,51.950
707.00,52.023
708.00,51.814
709.00,51.913
710.00,52.207
711.00,51.859
712.00,51.875
713.00,51.866
714.00,51.792
715.00,51.830
716.00,51.763
717.00,51.803
718.00,51.866
719.00,51.766
720.00,51.844
721.00,56.032
722.00,56.010
723.00,56.007
724.00,55.986
725.00,55.813
726.00,55.799
727.00,55.716
728.00,55.636
729.00,55.674
730.00,55.520
731.00,55.505
732.00,55.485
733.00,55.497
734.00,55.473
735.00,55.392
736.00,55.354
737.00,55.357
738.00,55.309
739.00,55.213
740.00,55.236
741.00,55.209
742.00,55.214
743.00,55.108
744.00,54.972
745.00,55.014
746.00,54.934
747.00,54.922
748.00,54.845
749.00,54.746
750.00,54.785
751.00,54.641
752.00,54.673
753.00,54.573
754.00,54.519
755.00,54.412
756.00,54.441
757.00,54.447
758.00,54.408
759.00,54.326
760.00,54.262
761.00,54.198
762.00,54.259
763.00,54.142
764.00,54.117
765.00,54.056
766.00,54.017
767.00,54.066
768.00,54.032
769.00,53.913
770.00,53.945
771.00,53.839
772.00,53.819
773.00,53.927
774.00,53.804
775.00,53.801
776.00,53.757
777.00,53.769
778.00,53.694
779.00,53.658
780.00,53.627
781.00,53.540
782.00,53.543
783.00,53.547
784.00,53.469
785.00,53.447
786.00,53.439
787.00,53.452
788.00,53.391
789.00,53.327
790.00,53.132
791.00,53.281
792.00,53.298
793.00,53.118
794.00,53.165
795.00,53.061
796.00,53.087
797.00,53.003
798.00,53.028
799.00,52.894
800.00,52.887
801.00,52.878
802.00,52.839
803.00,52.911
804.00,52.760
805.00,52.738
806.00,52.713
807.00,52.691
808.00,52.644
809.00,52.599
810.00,52.599
811.00,52.541
812.00,52.496
813.00,52.492
814.00,52.435
815.00,52.437
816.00,52.413
817.00,52.266
818.00,52.269
819.00,52.302
820.00,52.210
821.00,52.202
822.00,52.186
823.00,52.136
824.00,52.214
825.00,52.038
826.00,52.180
827.00,52.129
828.00,52.078
829.00,51.918
830.00,51.978
831.00,54.536
832.00,54.549
833.00,54.443
834.00,54.474
835.00,54.466
836.00,54.437
837.00,54.368
838.00,54.362
839.00,54.344
840.00,54.234
841.00,54.222
842.00,54.201
843.00,54.156
844.00,54.111
845.00,54.110
846.00,54.086
847.00,54.058
848.00,54.030
849.00,53.975
850.00,53.923
851.00,53.888
852.00,53.876
853.00,53.796
854.00,53.762
855.00,53.715
856.00,53.672
857.00,53.805
858.00,53.626
859.00,53.597
860.00,53.553
861.00,53.569
862.00,53.498
863.00,53.511
864.00,53.459
865.00,53.476
866.00,53.435
867.00,53.423
868.00,53.426
869.00,53.405
870.00,53.355
871.00,53.305
872.00,53.393
873.00,53.293
874.00,53.287
875.00,53.263
876.00,53.244
877.00,53.235
878.00,53.184
879.00,53.202
880.00,53.173
881.00,53.156
882.00,53.139
883.00,53.110
884.00,53.082
885.00,53.052
886.00,52.994
887.00,53.031
888.00,53.000
889.00,52.957
890.00,52.943
891.00,52.913
892.00,52.873
893.00,52.852
894.00,52.838
895.00,52.821
896.00,52.787
897.00,52.738
898.00,52.728
899.00,52.758
900.00,52.707
901.00,52.829
902.00,52.696
903.00,52.635
904.00,52.644
905.00,52.633
906.00,52.603
907.00,52.562
908.00,52.518
909.00,52.512
910.00,52.491
911.00,52.451
912.00,52.473
913.00,52.426
914.00,52.392
915.00,52.378
916.00,52.388
917.00,52.319
918.00,52.311
919.00,52.261
920.00,52.240
921.00,52.249
922.00,52.239
923.00,52.211
924.00,52.167
925.00,52.159
926.00,52.114
927.00,52.132
928.00,52.097
929.00,52.084
930.00,52.055
931.00,52.043
932.00,52.005
933.00,52.020
934.00,51.990
935.00,51.946
936.00,51.936
937.00,51.911
938.00,51.895
939.00,51.880
940.00,51.862
941.00,51.843
942.00,51.766
943.00,51.801
944.00,51.769
945.00,51.766
946.00,51.739
947.00,51.719
948.00,51.695
949.00,51.666
950.00,51.647
951.00,51.614
952.00,51.569
953.00,51.556
954.00,51.539
955.00,51.506
956.00,51.498
957.00,51.442
958.00,51.465
959.00,51.418
960.00,51.395
961.00,51.380
962.00,51.393
963.00,51.332
964.00,51.326
965.00,51.323
966.00,51.307
967.00,51.300
968.00,51.281
969.00,51.295
970.00,51.268
971.00,51.271
972.00,51.242
973.00,51.280
974.00,51.271
975.00,51.235
976.00,51.264
977.00,51.252
978.00,51.282
979.00,51.239
980.00,51.259
981.00,51.258
982.00,51.237
983.00,51.231
984.00,51.231
985.00,51.231
986.00,51.192
987.00,51.218
988.00,51.194
989.00,51.168
990.00,51.168
991.00,51.142
992.00,51.155
993.00,51.126
994.00,51.099
995.00,51.098
996.00,51.090
997.00,51.087
998.00,51.066
999.00,51.074
1000.00,51.031
1001.00,51.046
1002.00,51.013
1003.00,51.016
1004.00,50.996
1005.00,50.969
1006.00,50.980
1007.00,50.955
1008.00,50.948
1009.00,50.920
1010.00,50.905
1011.00,50.892
1012.00,50.864
1013.00,50.863
1014.00,50.826
1015.00,50.839
1016.00,50.798
1017.00,50.806
1018.00,50.791
1019.00,50.746
1020.00,50.747
1021.00,50.733
1022.00,50.730
1023.00,50.682
1024.00,50.693
1025.00,50.669
1026.00,50.661
1027.00,50.630
1028.00,50.628
1029.00,50.623
1030.00,50.589
1031.00,50.612
1032.00,50.555
1033.00,50.547
1034.00,50.525
1035.00,50.479
1036.00,50.462
1037.00,50.441
1038.00,50.440
1039.00,50.409
1040.00,50.403
1041.00,50.365
1042.00,50.366
1043.00,50.336
1044.00,50.355
1045.00,50.343
1046.00,50.334
1047.00,50.334
1048.00,50.348
1049.00,50.364
1050.00,50.373
1051.00,50.386
1052.00,50.412
1053.00,50.422
1054.00,50.413
1055.00,50.430
1056.00,50.438
1057.00,50.436
1058.00,50.422
1059.00,50.423
1060.00,50.423
1061.00,50.418
1062.00,50.399
1063.00,50.403
1064.00,50.401
1065.00,50.390
1066.00,50.379
1067.00,50.371
1068.00,50.369
1069.00,50.344
1070.00,50.320
1071.00,50.309
1072.00,50.318
1073.00,50.295
1074.00,50.293
1075.00,50.274
1076.00,50.263
1077.00,50.249
1078.00,50.243
1079.00,50.220
1080.00,50.223
1081.00,50.210
1082.00,50.204
1083.00,50.202
1084.00,50.200
1085.00,50.184
1086.00,50.194
1087.00,50.182
1088.00,50.170
1089.00,50.151
1090.00,50.143
1091.00,50.137
1092.00,50.122
1093.00,50.103
1094.00,50.096
1095.00,50.090
1096.00,50.090
1097.00,50.075
1098.00,50.064
1099.00,50.054
1100.00,50.050
1101.00,50.036
1102.00,50.030
1103.00,50.027
1104.00,50.016
1105.00,50.008
1106.00,49.999
1107.00,49.986
1108.00,49.979
1109.00,49.966
1110.00,49.964
1111.00,49.964
1112.00,49.938
1113.00,49.930
1114.00,49.936
1115.00,49.931
1116.00,49.921
1117.00,49.899
1118.00,49.903
1119.00,49.895
1120.00,49.895
1121.00,49.884
1122.00,49.880
1123.00,49.860
1124.00,49.855
1125.00,49.849
1126.00,49.840
1127.00,49.841
1128.00,49.828
1129.00,49.802
1130.00,49.819
1131.00,49.803
1132.00,49.796
1133.00,49.781
1134.00,49.786
1135.00,49.772
1136.00,49.771
1137.00,49.757
1138.00,49.760
1139.00,49.772
1140.00,49.754
1141.00,49.749
1142.00,49.735
1143.00,49.753
1144.00,49.745
1145.00,49.728
1146.00,49.739
1147.00,49.713
1148.00,49.722
1149.00,49.745
1150.00,49.720
1151.00,49.715
1152.00,49.700
1153.00,49.694
1154.00,49.700
1155.00,49.700
1156.00,49.686
1157.00,49.679
1158.00,49.682
1159.00,49.670
1160.00,49.661
1161.00,49.681
1162.00,49.655
1163.00,49.673
1164.00,49.678
1165.00,49.666
1166.00,49.657
1167.00,49.654
1168.00,49.666
1169.00,49.657
1170.00,49.667
1171.00,49.640
1172.00,49.648
1173.00,49.632
1174.00,49.647
1175.00,49.633
1176.00,49.645
1177.00,49.642
1178.00,49.635
1179.00,49.658
1180.00,49.624
1181.00,49.628
1182.00,49.633
1183.00,49.620
1184.00,49.614
1185.00,49.639
1186.00,49.618
1187.00,49.631
1188.00,49.616
1189.00,49.610
1190.00,49.618
1191.00,49.613
1192.00,49.623
1193.00,49.616
1194.00,49.616
1195.00,49.584
1196.00,49.618
1197.00,49.606
1198.00,49.602
1199.00,49.599
1200.00,49.602
1201.00,49.604
1202.00,49.597
1203.00,49.600
1204.00,49.585
1205.00,49.614
1206.00,49.595
1207.00,49.616
1208.00,49.593
1209.00,49.577
1210.00,49.592
1211.00,49.575
1212.00,49.596
1213.00,49.550
1214.00,49.581
1215.00,49.579
1216.00,49.581
1217.00,49.585
1218.00,49.581
1219.00,49.598
1220.00,49.583
1221.00,49.600
1222.00,49.586
1223.00,49.604
1224.00,49.601
1225.00,49.572
1226.00,49.582
1227.00,49.573
1228.00,49.589
1229.00,49.593
1230.00,49.627
1231.00,49.614
1232.00,49.630
1233.00,49.628
1234.00,49.632
1235.00,49.624
1236.00,49.627
1237.00,49.624
1238.00,49.634
1239.00,49.625
1240.00,49.628
1241.00,49.621
1242.00,49.624
1243.00,49.647
1244.00,49.619
1245.00,49.641
1246.00,49.655
1247.00,49.660
1248.00,49.654
1249.00,49.664
1250.00,49.658
1251.00,49.673
1252.00,49.691
1253.00,49.671
1254.00,49.685
1255.00,49.669
1256.00,49.652
1257.00,49.638
1258.00,49.684
1259.00,49.678
1260.00,49.693
1261.00,49.695
1262.00,49.699
1263.00,49.690
1264.00,49.702
1265.00,49.709
1266.00,49.710
1267.00,49.728
1268.00,49.729
1269.00,49.712
1270.00,49.721
1271.00,49.725
1272.00,49.723
1273.00,49.742
1274.00,49.726
1275.00,49.736
1276.00,49.740
1277.00,49.740
1278.00,49.763
1279.00,49.758
1280.00,49.761
1281.00,49.772
1282.00,49.795
1283.00,49.744
1284.00,49.781
1285.00,49.752
1286.00,49.765
1287.00,49.774
1288.00,49.784
1289.00,49.773
1290.00,49.798
1291.00,49.806
1292.00,49.812
1293.00,49.798
1294.00,49.810
1295.00,49.832
1296.00,49.818
1297.00,49.846
1298.00,49.870
1299.00,49.831
1300.00,49.832
1301.00,49.850
1302.00,49.852
1303.00,49.872
1304.00,49.841
1305.00,49.870
1306.00,49.881
1307.00,49.889
1308.00,49.900
1309.00,49.902
1310.00,49.908
1311.00,49.889
1312.00,49.904
1313.00,49.913
1314.00,49.900
1315.00,49.915
1316.00,49.924
1317.00,49.935
1318.00,49.920
1319.00,49.932
1320.00,49.973
1321.00,50.089
1322.00,50.120
1323.00,50.107
1324.00,50.101
1325.00,50.087
1326.00,50.105
1327.00,50.097
1328.00,50.113
1329.00,50.097
1330.00,50.102
1331.00,50.103
1332.00,50.081
1333.00,50.112
1334.00,50.175
1335.00,50.113
1336.00,50.174
1337.00,50.200
1338.00,50.270
1339.00,50.325
1340.00,50.372
1341.00,50.432
1342.00,50.523
1343.00,50.553
1344.00,50.601
1345.00,50.661
1346.00,50.682
1347.00,50.727
1348.00,50.735
1349.00,50.753
1350.00,50.781
1351.00,50.785
1352.00,50.785
1353.00,50.806
1354.00,50.811
1355.00,50.785
1356.00,50.827
1357.00,50.816
1358.00,50.850
1359.00,50.830
1360.00,50.844
1361.00,50.809
1362.00,50.782
1363.00,50.896
1364.00,50.879
1365.00,50.812
1366.00,50.867
1367.00,50.830
1368.00,50.801
1369.00,50.826
1370.00,50.827
1371.00,50.782
1372.00,50.817
1373.00,50.798
1374.00,50.821
1375.00,50.803
1376.00,50.793
1377.00,50.780
1378.00,50.784
1379.00,50.807
1380.00,50.831
1381.00,50.821
1382.00,50.809
1383.00,50.787
1384.00,50.738
1385.00,50.742
1386.00,50.817
1387.00,50.777
1388.00,50.736
1389.00,50.704
1390.00,50.544
1391.00,50.786
1392.00,50.755
1393.00,50.775
1394.00,50.785
1395.00,50.769
1396.00,50.722
1397.00,50.768
1398.00,50.830
1399.00,50.805
1400.00,50.739
1401.00,50.772
1402.00,50.823
1403.00,50.808
1404.00,50.789
1405.00,50.830
1406.00,50.809
1407.00,50.824
1408.00,50.835
1409.00,50.800
1410.00,50.856
1411.00,50.716
1412.00,50.851
1413.00,50.804
1414.00,50.832
1415.00,50.872
1416.00,50.897
1417.00,50.893
1418.00,50.893
1419.00,50.912
1420.00,50.929
1421.00,50.953
1422.00,50.956
1423.00,50.947
1424.00,50.977
1425.00,50.971
1426.00,51.016
1427.00,51.042
1428.00,51.021
1429.00,51.029
1430.00,51.053
1431.00,51.056
1432.00,51.065
1433.00,51.095
1434.00,51.070
1435.00,51.131
1436.00,51.138
1437.00,51.134
1438.00,51.153
1439.00,51.181
1440.00,51.187
1441.00,51.215
1442.00,51.231
1443.00,51.257
1444.00,51.257
1445.00,51.236
1446.00,51.255
1447.00,51.293
1448.00,51.317
1449.00,51.329
1450.00,51.309
1451.00,51.333
1452.00,51.353
1453.00,51.369
1454.00,51.373
1455.00,51.405
1456.00,51.407
1457.00,51.438
1458.00,51.437
1459.00,51.456
1460.00,51.473
1461.00,51.476
1462.00,51.496
1463.00,51.514
1464.00,51.514
1465.00,51.537
1466.00,51.545
1467.00,51.566
1468.00,51.610
1469.00,51.599
1470.00,51.609
1471.00,51.648
1472.00,51.644
1473.00,51.645
1474.00,51.677
1475.00,51.665
1476.00,51.682
1477.00,51.688
1478.00,51.691
1479.00,51.716
1480.00,51.715
1481.00,51.731
1482.00,51.766
1483.00,51.752
1484.00,51.770
1485.00,51.812
1486.00,51.795
1487.00,51.826
1488.00,51.833
1489.00,51.819
1490.00,51.844
1491.00,51.843
1492.00,51.863
1493.00,51.861
1494.00,51.869
1495.00,51.896
1496.00,51.896
1497.00,51.898
1498.00,51.898
1499.00,51.931
1500.00,51.946
1501.00, 
1502.00, 
1503.00, 
1504.00, 
1505.00, 
1506.00, 
1507.00, 
1508.00, 
1509.00, 
1510.00, 
1511.00, 
1512.00, 
1513.00, 
1514.00, 
1515.00, 
1516.00, 
1517.00, 
1518.00, 
1519.00, 
1520.00, 
1521.00, 
1522.00, 
1523.00, 
1524.00, 
1525.00, 
1526.00, 
1527.00, 
1528.00, 
1529.00, 
1530.00, 
1531.00, 
1532.00, 
1533.00, 
1534.00, 
1535.00, 
1536.00, 
1537.00, 
1538.00, 
1539.00, 
1540.00, 
1541.00, 
1542.00, 
1543.00, 
1544.00, 
1545.00, 
1546.00, 
1547.00, 
1548.00, 
1549.00, 
1550.00, 
1551.00, 
1552.00, 
1553.00, 
1554.00, 
1555.00, 
1556.00, 
1557.00, 
1558.00, 
1559.00, 
1560.00, 
1561.00, 
1562.00, 
1563.00, 
1564.00, 
1565.00, 
1566.00, 
1567.00, 
1568.00, 
1569.00, 
1570.00, 
1571.00, 
1572.00, 
1573.00, 
1574.00, 
1575.00, 
1576.00, 
1577.00, 
1578.00, 
1579.00, 
1580.00, 
1581.00, 
1582.00, 
1583.00, 
1584.00, 
1585.00, 
1586.00, 
1587.00, 
1588.00, 
1589.00, 
1590.00, 
1591.00, 
1592.00, 
1593.00, 
1594.00, 
1595.00, 
1596.00, 
1597.00, 
1598.00, 
1599.00, 
1600.00, 
1601.00, 
1602.00, 
1603.00, 
1604.00, 
1605.00, 
1606.00, 
1607.00, 
1608.00, 
1609.00, 
1610.00, 
1611.00, 
1612.00, 
1613.00, 
1614.00, 
1615.00, 
1616.00, 
1617.00, 
1618.00, 
1619.00, 
1620.00, 
1621.00, 
1622.00, 
1623.00, 
1624.00, 
1625.00, 
1626.00, 
1627.00, 
1628.00, 
1629.00, 
1630.00, 
1631.00, 
1632.00, 
1633.00, 
1634.00, 
1635.00, 
1636.00, 
1637.00, 
1638.00, 
1639.00, 
1640.00, 
1641.00, 
1642.00, 
1643.00, 
1644.00, 
1645.00, 
1646.00, 
1647.00, 
1648.00, 
1649.00, 
1650.00, 
1651.00, 
1652.00, 
1653.00, 
1654.00, 
1655.00, 
1656.00, 
1657.00, 
1658.00, 
1659.00, 
1660.00, 
1661.00, 
1662.00, 
1663.00, 
1664.00, 
1665.00, 
1666.00, 
1667.00, 
1668.00, 
1669.00, 
1670.00, 
1671.00, 
1672.00, 
1673.00, 
1674.00, 
1675.00, 
1676.00, 
1677.00, 
1678.00, 
1679.00, 
1680.00, 
1681.00, 
1682.00, 
1683.00, 
1684.00, 
1685.00, 
1686.00, 
1687.00, 
1688.00, 
1689.00, 
1690.00, 
1691.00, 
1692.00, 
1693.00, 
1694.00, 
1695.00, 
1696.00, 
1697.00, 
1698.00, 
1699.00, 
1700.00, 
1701.00, 
1702.00, 
1703.00, 
1704.00, 
1705.00, 
1706.00, 
1707.00, 
1708.00, 
1709.00, 
1710.00, 
1711.00, 
1712.00, 
1713.00, 
1714.00, 
1715.00, 
1716.00, 
1717.00, 
1718.00, 
1719.00, 
1720.00, 
1721.00, 
1722.00, 
1723.00, 
1724.00, 
1725.00, 
1726.00, 
1727.00, 
1728.00, 
1729.00, 
1730.00, 
1731.00, 
1732.00, 
1733.00, 
1734.00, 
1735.00, 
1736.00, 
1737.00, 
1738.00, 
1739.00, 
1740.00, 
1741.00, 
1742.00, 
1743.00, 
1744.00, 
1745.00, 
1746.00, 
1747.00, 
1748.00, 
1749.00, 
1750.00, 
1751.00, 
1752.00, 
1753.00, 
1754.00, 
1755.00, 
1756.00, 
1757.00, 
1758.00, 
1759.00, 
1760.00, 
1761.00, 
1762.00, 
1763.00, 
1764.00, 
1765.00, 
1766.00, 
1767.00, 
1768.00, 
1769.00, 
1770.00, 
1771.00, 
1772.00, 
1773.00, 
1774.00, 
1775.00, 
1776.00, 
1777.00, 
1778.00, 
1779.00, 
1780.00, 
1781.00, 
1782.00, 
1783.00, 
1784.00, 
1785.00, 
1786.00, 
1787.00, 
1788.00, 
1789.00, 
1790.00, 
1791.00, 
1792.00, 
1793.00, 
1794.00, 
1795.00, 
1796.00, 
1797.00, 
1798.00, 
1799.00, 
1800.00, 
1801.00, 
1802.00, 
1803.00, 
1804.00, 
1805.00, 
1806.00, 
1807.00, 
1808.00, 
1809.00, 
1810.00, 
1811.00, 
1812.00, 
1813.00, 
1814.00, 
1815.00, 
1816.00, 
1817.00, 
1818.00, 
1819.00, 
1820.00, 
1821.00, 
1822.00, 
1823.00, 
1824.00, 
1825.00, 
1826.00, 
1827.00, 
1828.00, 
1829.00, 
1830.00, 
1831.00, 
1832.00, 
1833.00, 
1834.00, 
1835.00, 
1836.00, 
1837.00, 
1838.00, 
1839.00, 
1840.00, 
1841.00, 
1842.00, 
1843.00, 
1844.00, 
1845.00, 
1846.00, 
1847.00, 
1848.00, 
1849.00, 
1850.00, 
1851.00, 
1852.00, 
1853.00, 
1854.00, 
1855.00, 
1856.00, 
1857.00, 
1858.00, 
1859.00, 
1860.00, 
1861.00, 
1862.00, 
1863.00, 
1864.00, 
1865.00, 
1866.00, 
1867.00, 
1868.00, 
1869.00, 
1870.00, 
1871.00, 
1872.00, 
1873.00, 
1874.00, 
1875.00, 
1876.00, 
1877.00, 
1878.00, 
1879.00, 
1880.00, 
1881.00, 
1882.00, 
1883.00, 
1884.00, 
1885.00, 
1886.00, 
1887.00, 
1888.00, 
1889.00, 
1890.00, 
1891.00, 
1892.00, 
1893.00, 
1894.00, 
1895.00, 
1896.00, 
1897.00, 
1898.00, 
1899.00, 
1900.00, 
1901.00, 
1902.00, 
1903.00, 
1904.00, 
1905.00, 
1906.00, 
1907.00, 
1908.00, 
1909.00, 
1910.00, 
1911.00, 
1912.00, 
1913.00, 
1914.00, 
1915.00, 
1916.00, 
1917.00, 
1918.00, 
1919.00, 
1920.00, 
1921.00, 
1922.00, 
1923.00, 
1924.00, 
1925.00, 
1926.00, 
1927.00, 
1928.00, 
1929.00, 
1930.00, 
1931.00, 
1932.00, 
1933.00, 
1934.00, 
1935.00, 
1936.00, 
1937.00, 
1938.00, 
1939.00, 
1940.00, 
1941.00, 
1942.00, 
1943.00, 
1944.00, 
1945.00, 
1946.00, 
1947.00, 
1948.00, 
1949.00, 
1950.00, 
1951.00, 
1952.00, 
1953.00, 
1954.00, 
1955.00, 
1956.00, 
1957.00, 
1958.00, 
1959.00, 
1960.00, 
1961.00, 
1962.00, 
1963.00, 
1964.00, 
1965.00, 
1966.00, 
1967.00, 
1968.00, 
1969.00, 
1970.00, 
1971.00, 
1972.00, 
1973.00, 
1974.00, 
1975.00, 
1976.00, 
1977.00, 
1978.00, 
1979.00, 
1980.00, 
1981.00, 
1982.00, 
1983.00, 
1984.00, 
1985.00, 
1986.00, 
1987.00, 
1988.00, 
1989.00, 
1990.00, 
1991.00, 
1992.00, 
1993.00, 
1994.00, 
1995.00, 
1996.00, 
1997.00, 
1998.00, 
1999.00, 
2000.00, 
2001.00, 
2002.00, 
2003.00, 
2004.00, 
2005.00, 
2006.00, 
2007.00, 
2008.00, 
2009.00, 
2010.00, 
2011.00, 
2012.00, 
2013.00, 
2014.00, 
2015.00, 
2016.00, 
2017.00, 
2018.00, 
2019.00, 
2020.00, 
2021.00, 
2022.00, 
2023.00, 
2024.00, 
2025.00, 
2026.00, 
2027.00, 
2028.00, 
2029.00, 
2030.00, 
2031.00, 
2032.00, 
2033.00, 
2034.00, 
2035.00, 
2036.00, 
2037.00, 
2038.00, 
2039.00, 
2040.00, 
2041.00, 
2042.00, 
2043.00, 
2044.00, 
2045.00, 
2046.00, 
2047.00, 
2048.00, 
2049.00, 
2050.00, 
2051.00, 
2052.00, 
2053.00, 
2054.00, 
2055.00, 
2056.00, 
2057.00, 
2058.00, 
2059.00, 
2060.00, 
2061.00, 
2062.00, 
2063.00, 
2064.00, 
2065.00, 
2066.00, 
2067.00, 
2068.00, 
2069.00, 
2070.00, 
2071.00, 
2072.00, 
2073.00, 
2074.00, 
2075.00, 
2076.00, 
2077.00, 
2078.00, 
2079.00, 
2080.00, 
2081.00, 
2082.00, 
2083.00, 
2084.00, 
2085.00, 
2086.00, 
2087.00, 
2088.00, 
2089.00, 
2090.00, 
2091.00, 
2092.00, 
2093.00, 
2094.00, 
2095.00, 
2096.00, 
2097.00, 
2098.00, 
2099.00, 
2100.00, 
2101.00, 
2102.00, 
2103.00, 
2104.00, 
2105.00, 
2106.00, 
2107.00, 
2108.00, 
2109.00, 
2110.00, 
2111.00, 
2112.00, 
2113.00, 
2114.00, 
2115.00, 
2116.00, 
2117.00, 
2118.00, 
2119.00, 
2120.00, 
2121.00, 
2122.00, 
2123.00, 
2124.00, 
2125.00, 
2126.00, 
2127.00, 
2128.00, 
2129.00, 
2130.00, 
2131.00, 
2132.00, 
2133.00, 
2134.00, 
2135.00, 
2136.00, 
2137.00, 
2138.00, 
2139.00, 
2140.00, 
2141.00, 
2142.00, 
2143.00, 
2144.00, 
2145.00, 
2146.00, 
2147.00, 
2148.00, 
2149.00, 
2150.00, 
2151.00, 
2152.00, 
2153.00, 
2154.00, 
2155.00, 
2156.00, 
2157.00, 
2158.00, 
2159.00, 
2160.00, 
2161.00, 
2162.00, 
2163.00, 
2164.00, 
2165.00, 
2166.00, 
2167.00, 
2168.00, 
2169.00, 
2170.00, 
2171.00, 
2172.00, 
2173.00, 
2174.00, 
2175.00, 
2176.00, 
2177.00, 
2178.00, 
2179.00, 
2180.00, 
2181.00, 
2182.00, 
2183.00, 
2184.00, 
2185.00, 
2186.00, 
2187.00, 
2188.00, 
2189.00, 
2190.00, 
2191.00, 
2192.00, 
2193.00, 
2194.00, 
2195.00, 
2196.00, 
2197.00, 
2198.00, 
2199.00, 
2200.00, 
2201.00, 
2202.00, 
2203.00, 
2204.00, 
2205.00, 
2206.00, 
2207.00, 
2208.00, 
2209.00, 
2210.00, 
2211.00, 
2212.00, 
2213.00, 
2214.00, 
2215.00, 
2216.00, 
2217.00, 
2218.00, 
2219.00, 
2220.00, 
2221.00, 
2222.00, 
2223.00, 
2224.00, 
2225.00, 
2226.00, 
2227.00, 
2228.00, 
2229.00, 
2230.00, 
2231.00, 
2232.00, 
2233.00, 
2234.00, 
2235.00, 
2236.00, 
2237.00, 
2238.00, 
2239.00, 
2240.00, 
2241.00, 
2242.00, 
2243.00, 
2244.00, 
2245.00, 
2246.00, 
2247.00, 
2248.00, 
2249.00, 
2250.00, 
2251.00, 
2252.00, 
2253.00, 
2254.00, 
2255.00, 
2256.00, 
2257.00, 
2258.00, 
2259.00, 
2260.00, 
2261.00, 
2262.00, 
2263.00, 
2264.00, 
2265.00, 
2266.00, 
2267.00, 
2268.00, 
2269.00, 
2270.00, 
2271.00, 
2272.00, 
2273.00, 
2274.00, 
2275.00, 
2276.00, 
2277.00, 
2278.00, 
2279.00, 
2280.00, 
2281.00, 
2282.00, 
2283.00, 
2284.00, 
2285.00, 
2286.00, 
2287.00, 
2288.00, 
2289.00, 
2290.00, 
2291.00, 
2292.00, 
2293.00, 
2294.00, 
2295.00, 
2296.00, 
2297.00, 
2298.00, 
2299.00, 
2300.00, 
2301.00, 
2302.00, 
2303.00, 
2304.00, 
2305.00, 
2306.00, 
2307.00, 
2308.00, 
2309.00, 
2310.00, 
2311.00, 
2312.00, 
2313.00, 
2314.00, 
2315.00, 
2316.00, 
2317.00, 
2318.00, 
2319.00, 
2320.00, 
2321.00, 
2322.00, 
2323.00, 
2324.00, 
2325.00, 
2326.00, 
2327.00, 
2328.00, 
2329.00, 
2330.00, 
2331.00, 
2332.00, 
2333.00, 
2334.00, 
2335.00, 
2336.00, 
2337.00, 
2338.00, 
2339.00, 
2340.00, 
2341.00, 
2342.00, 
2343.00, 
2344.00, 
2345.00, 
2346.00, 
2347.00, 
2348.00, 
2349.00, 
2350.00, 
2351.00, 
2352.00, 
2353.00, 
2354.00, 
2355.00, 
2356.00, 
2357.00, 
2358.00, 
2359.00, 
2360.00, 
2361.00, 
2362.00, 
2363.00, 
2364.00, 
2365.00, 
2366.00, 
2367.00, 
2368.00, 
2369.00, 
2370.00, 
2371.00, 
2372.00, 
2373.00, 
2374.00, 
2375.00, 
2376.00, 
2377.00, 
2378.00, 
2379.00, 
2380.00, 
2381.00, 
2382.00, 
2383.00, 
2384.00, 
2385.00, 
2386.00, 
2387.00, 
2388.00, 
2389.00, 
2390.00, 
2391.00, 
2392.00, 
2393.00, 
2394.00, 
2395.00, 
2396.00, 
2397.00, 
2398.00, 
2399.00, 
2400.00, 
2401.00, 
2402.00, 
2403.00, 
2404.00, 
2405.00, 
2406.00, 
2407.00, 
2408.00, 
2409.00, 
2410.00, 
2411.00, 
2412.00, 
2413.00, 
2414.00, 
2415.00, 
2416.00, 
2417.00, 
2418.00, 
2419.00, 
2420.00, 
2421.00, 
2422.00, 
2423.00, 
2424.00, 
2425.00, 
2426.00, 
2427.00, 
2428.00, 
2429.00, 
2430.00, 
2431.00, 
2432.00, 
2433.00, 
2434.00, 
2435.00, 
2436.00, 
2437.00, 
2438.00, 
2439.00, 
2440.00, 
2441.00, 
2442.00, 
2443.00, 
2444.00, 
2445.00, 
2446.00, 
2447.00, 
2448.00, 
2449.00, 
2450.00, 
2451.00, 
2452.00, 
2453.00, 
2454.00, 
2455.00, 
2456.00, 
2457.00, 
2458.00, 
2459.00, 
2460.00, 
2461.00, 
2462.00, 
2463.00, 
2464.00, 
2465.00, 
2466.00, 
2467.00, 
2468.00, 
2469.00, 
2470.00, 
2471.00, 
2472.00, 
2473.00, 
2474.00, 
2475.00, 
2476.00, 
2477.00, 
2478.00, 
2479.00, 
2480.00, 
2481.00, 
2482.00, 
2483.00, 
2484.00, 
2485.00, 
2486.00, 
2487.00, 
2488.00, 
2489.00, 
2490.00, 
2491.00, 
2492.00, 
2493.00, 
2494.00, 
2495.00, 
2496.00, 
2497.00, 
2498.00, 
2499.00, 
2500.00, 
2501.00, 
2502.00, 
2503.00, 
2504.00, 
2505.00, 
2506.00, 
2507.00, 
2508.00, 
2509.00, 
2510.00, 
2511.00, 
2512.00, 
2513.00, 
2514.00, 
2515.00, 
2516.00, 
2517.00, 
2518.00, 
2519.00, 
2520.00, 
2521.00, 
2522.00, 
2523.00, 
2524.00, 
2525.00, 
2526.00, 
2527.00, 
2528.00, 
2529.00, 
2530.00, 
2531.00, 
2532.00, 
2533.00, 
2534.00, 
2535.00, 
2536.00, 
2537.00, 
2538.00, 
2539.00, 
2540.00, 
2541.00, 
2542.00, 
2543.00, 
2544.00, 
2545.00, 
2546.00, 
2547.00, 
2548.00, 
2549.00, 
2550.00, 
2551.00, 
2552.00, 
2553.00, 
2554.00, 
2555.00, 
2556.00, 
2557.00, 
2558.00, 
2559.00, 
2560.00, 
2561.00, 
2562.00, 
2563.00, 
2564.00, 
2565.00, 
2566.00, 
2567.00, 
2568.00, 
2569.00, 
2570.00, 
2571.00, 
2572.00, 
2573.00, 
2574.00, 
2575.00, 
2576.00, 
2577.00, 
2578.00, 
2579.00, 
2580.00, 
2581.00, 
2582.00, 
2583.00, 
2584.00, 
2585.00, 
2586.00, 
2587.00, 
2588.00, 
2589.00, 
2590.00, 
2591.00, 
2592.00, 
2593.00, 
2594.00, 
2595.00, 
2596.00, 
2597.00, 
2598.00, 
2599.00, 
2600.00, 
