"2cP3 - RawData"
"Wavelength nm.","T%"
200.00,0.001
201.00,0.002
202.00,0.001
203.00,0.005
204.00,0.002
205.00,0.000
206.00,0.001
207.00,-0.001
208.00,0.005
209.00,0.004
210.00,0.000
211.00,0.002
212.00,-0.000
213.00,0.003
214.00,0.001
215.00,0.000
216.00,-0.001
217.00,0.001
218.00,0.002
219.00,0.004
220.00,0.005
221.00,0.001
222.00,0.001
223.00,0.001
224.00,0.002
225.00,-0.000
226.00,0.000
227.00,0.001
228.00,-0.000
229.00,0.000
230.00,-0.001
231.00,-0.001
232.00,0.000
233.00,0.002
234.00,-0.001
235.00,0.001
236.00,-0.000
237.00,0.002
238.00,-0.000
239.00,0.002
240.00,0.000
241.00,-0.000
242.00,0.001
243.00,0.001
244.00,0.000
245.00,-0.001
246.00,0.000
247.00,0.000
248.00,0.000
249.00,0.001
250.00,0.001
251.00,0.001
252.00,-0.000
253.00,0.002
254.00,-0.000
255.00,-0.001
256.00,0.000
257.00,0.000
258.00,-0.001
259.00,-0.001
260.00,-0.000
261.00,-0.001
262.00,-0.000
263.00,0.002
264.00,0.001
265.00,-0.002
266.00,0.002
267.00,0.000
268.00,0.000
269.00,-0.000
270.00,0.001
271.00,0.000
272.00,-0.000
273.00,-0.000
274.00,-0.001
275.00,-0.000
276.00,-0.000
277.00,0.001
278.00,0.002
279.00,-0.001
280.00,0.001
281.00,0.001
282.00,0.002
283.00,0.001
284.00,0.001
285.00,-0.000
286.00,-0.001
287.00,0.002
288.00,0.002
289.00,-0.000
290.00,0.001
291.00,0.001
292.00,-0.002
293.00,-0.000
294.00,0.000
295.00,-0.001
296.00,-0.001
297.00,0.001
298.00,0.001
299.00,0.001
300.00,0.003
301.00,0.005
302.00,0.005
303.00,0.009
304.00,0.013
305.00,0.018
306.00,0.032
307.00,0.051
308.00,0.078
309.00,0.120
310.00,0.169
311.00,0.223
312.00,0.307
313.00,0.419
314.00,0.562
315.00,0.725
316.00,0.925
317.00,1.179
318.00,1.443
319.00,1.779
320.00,2.169
321.00,2.573
322.00,3.074
323.00,3.626
324.00,4.216
325.00,4.778
326.00,5.374
327.00,6.096
328.00,6.829
329.00,7.577
330.00,8.302
331.00,9.085
332.00,9.916
333.00,10.762
334.00,11.522
335.00,12.391
336.00,13.175
337.00,14.024
338.00,14.807
339.00,15.551
340.00,16.336
341.00,17.085
342.00,17.745
343.00,18.515
344.00,19.130
345.00,19.789
346.00,20.356
347.00,20.979
348.00,21.543
349.00,21.983
350.00,22.465
351.00,22.941
352.00,23.380
353.00,23.788
354.00,24.176
355.00,24.591
356.00,24.857
357.00,25.263
358.00,25.500
359.00,25.808
360.00,26.022
361.00,26.206
362.00,26.511
363.00,26.745
364.00,26.938
365.00,27.132
366.00,27.281
367.00,27.382
368.00,27.513
369.00,27.579
370.00,27.664
371.00,27.754
372.00,27.812
373.00,27.826
374.00,27.840
375.00,27.814
376.00,27.828
377.00,27.815
378.00,27.761
379.00,27.752
380.00,27.697
381.00,27.767
382.00,27.738
383.00,27.782
384.00,27.845
385.00,27.929
386.00,27.954
387.00,28.072
388.00,28.088
389.00,28.174
390.00,28.251
391.00,28.323
392.00,28.363
393.00,28.364
394.00,28.375
395.00,28.433
396.00,28.444
397.00,28.469
398.00,28.519
399.00,28.524
400.00,28.528
401.00,28.549
402.00,28.569
403.00,28.574
404.00,28.582
405.00,28.592
406.00,28.588
407.00,28.565
408.00,28.557
409.00,28.488
410.00,28.455
411.00,28.433
412.00,28.416
413.00,28.448
414.00,28.400
415.00,28.427
416.00,28.471
417.00,28.480
418.00,28.532
419.00,28.556
420.00,28.587
421.00,28.641
422.00,28.670
423.00,28.716
424.00,28.721
425.00,28.755
426.00,28.785
427.00,28.819
428.00,28.883
429.00,28.921
430.00,28.928
431.00,28.951
432.00,29.044
433.00,29.100
434.00,29.140
435.00,29.176
436.00,29.244
437.00,29.294
438.00,29.325
439.00,29.396
440.00,29.470
441.00,29.541
442.00,29.621
443.00,29.700
444.00,29.781
445.00,29.824
446.00,29.886
447.00,29.915
448.00,30.070
449.00,30.181
450.00,30.288
451.00,30.365
452.00,30.477
453.00,30.563
454.00,30.640
455.00,30.765
456.00,30.817
457.00,30.935
458.00,31.021
459.00,31.112
460.00,31.229
461.00,31.296
462.00,31.446
463.00,31.531
464.00,31.682
465.00,31.725
466.00,31.855
467.00,31.962
468.00,32.058
469.00,32.199
470.00,32.237
471.00,32.334
472.00,32.443
473.00,32.495
474.00,32.598
475.00,32.692
476.00,32.796
477.00,32.890
478.00,32.984
479.00,33.121
480.00,33.204
481.00,33.311
482.00,33.449
483.00,33.495
484.00,33.699
485.00,33.865
486.00,34.010
487.00,34.124
488.00,34.264
489.00,34.391
490.00,34.540
491.00,34.665
492.00,34.850
493.00,34.902
494.00,34.914
495.00,35.034
496.00,35.147
497.00,35.243
498.00,35.436
499.00,35.536
500.00,35.618
501.00,35.706
502.00,35.844
503.00,35.927
504.00,35.989
505.00,36.142
506.00,36.257
507.00,36.321
508.00,36.433
509.00,36.567
510.00,36.672
511.00,36.760
512.00,36.895
513.00,36.967
514.00,37.159
515.00,37.221
516.00,37.274
517.00,37.418
518.00,37.474
519.00,37.560
520.00,37.662
521.00,37.703
522.00,37.787
523.00,37.817
524.00,37.873
525.00,37.957
526.00,38.132
527.00,38.212
528.00,38.309
529.00,38.413
530.00,38.514
531.00,38.623
532.00,38.695
533.00,38.774
534.00,38.915
535.00,38.973
536.00,39.035
537.00,39.103
538.00,39.184
539.00,39.265
540.00,39.331
541.00,39.346
542.00,39.415
543.00,39.490
544.00,39.530
545.00,39.588
546.00,39.666
547.00,39.797
548.00,39.849
549.00,39.934
550.00,40.013
551.00,40.072
552.00,40.155
553.00,40.252
554.00,40.317
555.00,40.341
556.00,40.338
557.00,40.416
558.00,40.503
559.00,40.568
560.00,40.631
561.00,40.711
562.00,40.781
563.00,40.781
564.00,40.870
565.00,40.849
566.00,40.881
567.00,40.961
568.00,40.975
569.00,41.013
570.00,41.006
571.00,41.101
572.00,41.177
573.00,41.160
574.00,41.239
575.00,41.245
576.00,41.223
577.00,41.325
578.00,41.358
579.00,41.435
580.00,41.544
581.00,41.593
582.00,41.745
583.00,41.725
584.00,41.756
585.00,41.909
586.00,41.934
587.00,42.015
588.00,42.049
589.00,42.087
590.00,42.060
591.00,42.117
592.00,42.095
593.00,42.132
594.00,42.265
595.00,42.286
596.00,42.320
597.00,42.438
598.00,42.472
599.00,42.494
600.00,42.570
601.00,42.613
602.00,42.676
603.00,42.671
604.00,42.695
605.00,42.780
606.00,42.738
607.00,42.837
608.00,42.972
609.00,42.863
610.00,42.811
611.00,42.986
612.00,43.072
613.00,42.999
614.00,43.081
615.00,43.137
616.00,43.263
617.00,43.228
618.00,43.284
619.00,43.382
620.00,43.381
621.00,43.407
622.00,43.449
623.00,43.576
624.00,43.573
625.00,43.587
626.00,43.727
627.00,43.720
628.00,43.853
629.00,43.791
630.00,43.842
631.00,43.863
632.00,43.871
633.00,43.964
634.00,44.057
635.00,44.140
636.00,44.224
637.00,44.278
638.00,44.295
639.00,44.362
640.00,44.384
641.00,44.392
642.00,44.511
643.00,44.488
644.00,44.611
645.00,44.625
646.00,44.697
647.00,44.742
648.00,44.801
649.00,44.855
650.00,44.868
651.00,44.936
652.00,45.016
653.00,45.112
654.00,45.119
655.00,45.149
656.00,45.226
657.00,45.329
658.00,45.406
659.00,45.512
660.00,45.540
661.00,45.528
662.00,45.665
663.00,45.714
664.00,45.820
665.00,45.862
666.00,45.876
667.00,45.929
668.00,46.019
669.00,46.262
670.00,46.156
671.00,46.097
672.00,46.182
673.00,46.151
674.00,46.353
675.00,46.723
676.00,46.584
677.00,46.532
678.00,46.474
679.00,46.539
680.00,46.589
681.00,46.758
682.00,46.721
683.00,46.831
684.00,47.005
685.00,46.913
686.00,46.873
687.00,47.076
688.00,47.153
689.00,47.125
690.00,47.340
691.00,47.414
692.00,47.320
693.00,47.325
694.00,47.344
695.00,47.374
696.00,47.519
697.00,47.505
698.00,47.701
699.00,47.894
700.00,47.751
701.00,47.858
702.00,47.938
703.00,48.000
704.00,48.024
705.00,48.063
706.00,48.071
707.00,48.274
708.00,48.127
709.00,48.285
710.00,48.532
711.00,48.279
712.00,48.240
713.00,48.362
714.00,48.324
715.00,48.408
716.00,48.452
717.00,48.509
718.00,48.553
719.00,48.590
720.00,48.704
721.00,52.955
722.00,52.959
723.00,52.972
724.00,52.907
725.00,52.769
726.00,52.769
727.00,52.793
728.00,52.822
729.00,52.832
730.00,52.796
731.00,52.745
732.00,52.820
733.00,52.845
734.00,52.802
735.00,52.914
736.00,52.859
737.00,52.847
738.00,52.945
739.00,52.910
740.00,52.908
741.00,52.915
742.00,52.934
743.00,52.842
744.00,52.768
745.00,52.887
746.00,52.795
747.00,52.774
748.00,52.791
749.00,52.756
750.00,52.871
751.00,52.743
752.00,52.713
753.00,52.746
754.00,52.777
755.00,52.659
756.00,52.684
757.00,52.660
758.00,52.790
759.00,52.666
760.00,52.671
761.00,52.636
762.00,52.643
763.00,52.614
764.00,52.648
765.00,52.609
766.00,52.618
767.00,52.625
768.00,52.604
769.00,52.530
770.00,52.643
771.00,52.534
772.00,52.598
773.00,52.634
774.00,52.608
775.00,52.615
776.00,52.574
777.00,52.607
778.00,52.561
779.00,52.601
780.00,52.585
781.00,52.565
782.00,52.490
783.00,52.509
784.00,52.499
785.00,52.419
786.00,52.503
787.00,52.465
788.00,52.426
789.00,52.464
790.00,52.349
791.00,52.450
792.00,52.446
793.00,52.336
794.00,52.405
795.00,52.315
796.00,52.281
797.00,52.289
798.00,52.305
799.00,52.196
800.00,52.179
801.00,52.231
802.00,52.109
803.00,52.168
804.00,52.166
805.00,52.071
806.00,52.128
807.00,52.018
808.00,52.048
809.00,52.007
810.00,52.008
811.00,51.907
812.00,51.955
813.00,51.962
814.00,51.957
815.00,51.903
816.00,51.887
817.00,51.811
818.00,51.829
819.00,51.804
820.00,51.767
821.00,51.803
822.00,51.677
823.00,51.710
824.00,51.768
825.00,51.549
826.00,51.681
827.00,51.763
828.00,51.625
829.00,51.617
830.00,51.562
831.00,54.189
832.00,54.169
833.00,54.109
834.00,54.140
835.00,54.122
836.00,54.114
837.00,54.047
838.00,54.054
839.00,54.063
840.00,53.981
841.00,53.952
842.00,53.928
843.00,53.899
844.00,53.858
845.00,53.825
846.00,53.830
847.00,53.801
848.00,53.816
849.00,53.718
850.00,53.709
851.00,53.650
852.00,53.652
853.00,53.598
854.00,53.589
855.00,53.536
856.00,53.526
857.00,53.507
858.00,53.472
859.00,53.446
860.00,53.414
861.00,53.432
862.00,53.397
863.00,53.416
864.00,53.300
865.00,53.327
866.00,53.315
867.00,53.301
868.00,53.333
869.00,53.280
870.00,53.278
871.00,53.275
872.00,53.252
873.00,53.193
874.00,53.217
875.00,53.190
876.00,53.148
877.00,53.171
878.00,53.153
879.00,53.117
880.00,53.082
881.00,53.229
882.00,53.108
883.00,53.076
884.00,53.043
885.00,53.025
886.00,52.983
887.00,53.023
888.00,52.962
889.00,52.942
890.00,52.941
891.00,52.915
892.00,52.857
893.00,52.872
894.00,52.862
895.00,52.819
896.00,52.779
897.00,52.765
898.00,52.763
899.00,52.760
900.00,52.723
901.00,52.744
902.00,52.712
903.00,52.675
904.00,52.676
905.00,52.656
906.00,52.651
907.00,52.614
908.00,52.525
909.00,52.615
910.00,52.548
911.00,52.494
912.00,52.543
913.00,52.482
914.00,52.475
915.00,52.445
916.00,52.422
917.00,52.384
918.00,52.386
919.00,52.319
920.00,52.319
921.00,52.303
922.00,52.303
923.00,52.260
924.00,52.235
925.00,52.225
926.00,52.229
927.00,52.204
928.00,52.178
929.00,52.153
930.00,52.282
931.00,52.113
932.00,52.082
933.00,52.093
934.00,52.056
935.00,52.044
936.00,52.038
937.00,51.995
938.00,51.999
939.00,51.979
940.00,51.947
941.00,51.953
942.00,51.916
943.00,51.927
944.00,51.850
945.00,51.865
946.00,51.853
947.00,51.829
948.00,51.807
949.00,51.788
950.00,51.736
951.00,51.806
952.00,51.708
953.00,51.686
954.00,51.664
955.00,51.619
956.00,51.612
957.00,51.597
958.00,51.598
959.00,51.540
960.00,51.530
961.00,51.592
962.00,51.508
963.00,51.465
964.00,51.449
965.00,51.436
966.00,51.458
967.00,51.428
968.00,51.397
969.00,51.428
970.00,51.395
971.00,51.411
972.00,51.378
973.00,51.417
974.00,51.437
975.00,51.389
976.00,51.418
977.00,51.398
978.00,51.409
979.00,51.373
980.00,51.391
981.00,51.391
982.00,51.375
983.00,51.373
984.00,51.376
985.00,51.375
986.00,51.348
987.00,51.363
988.00,51.354
989.00,51.319
990.00,51.323
991.00,51.307
992.00,51.306
993.00,51.276
994.00,51.253
995.00,51.245
996.00,51.225
997.00,51.252
998.00,51.208
999.00,51.231
1000.00,51.184
1001.00,51.190
1002.00,51.176
1003.00,51.160
1004.00,51.152
1005.00,51.117
1006.00,51.130
1007.00,51.104
1008.00,51.073
1009.00,51.051
1010.00,51.048
1011.00,51.022
1012.00,51.036
1013.00,51.007
1014.00,50.980
1015.00,50.992
1016.00,50.945
1017.00,50.945
1018.00,50.947
1019.00,50.910
1020.00,50.913
1021.00,50.894
1022.00,50.873
1023.00,50.832
1024.00,50.855
1025.00,50.823
1026.00,50.817
1027.00,50.818
1028.00,50.775
1029.00,50.783
1030.00,50.741
1031.00,50.756
1032.00,50.715
1033.00,50.712
1034.00,50.684
1035.00,50.645
1036.00,50.618
1037.00,50.610
1038.00,50.592
1039.00,50.568
1040.00,50.583
1041.00,50.529
1042.00,50.533
1043.00,50.510
1044.00,50.536
1045.00,50.507
1046.00,50.500
1047.00,50.509
1048.00,50.526
1049.00,50.516
1050.00,50.523
1051.00,50.556
1052.00,50.555
1053.00,50.581
1054.00,50.571
1055.00,50.587
1056.00,50.591
1057.00,50.604
1058.00,50.608
1059.00,50.582
1060.00,50.576
1061.00,50.575
1062.00,50.556
1063.00,50.554
1064.00,50.553
1065.00,50.536
1066.00,50.518
1067.00,50.515
1068.00,50.522
1069.00,50.496
1070.00,50.462
1071.00,50.463
1072.00,50.498
1073.00,50.504
1074.00,50.461
1075.00,50.442
1076.00,50.436
1077.00,50.412
1078.00,50.409
1079.00,50.387
1080.00,50.387
1081.00,50.374
1082.00,50.365
1083.00,50.351
1084.00,50.357
1085.00,50.342
1086.00,50.340
1087.00,50.338
1088.00,50.346
1089.00,50.308
1090.00,50.313
1091.00,50.299
1092.00,50.289
1093.00,50.260
1094.00,50.247
1095.00,50.243
1096.00,50.230
1097.00,50.224
1098.00,50.239
1099.00,50.229
1100.00,50.219
1101.00,50.198
1102.00,50.199
1103.00,50.192
1104.00,50.177
1105.00,50.161
1106.00,50.170
1107.00,50.153
1108.00,50.143
1109.00,50.129
1110.00,50.114
1111.00,50.110
1112.00,50.098
1113.00,50.080
1114.00,50.089
1115.00,50.081
1116.00,50.079
1117.00,50.072
1118.00,50.086
1119.00,50.085
1120.00,50.066
1121.00,50.042
1122.00,50.042
1123.00,50.030
1124.00,50.011
1125.00,50.003
1126.00,50.003
1127.00,49.992
1128.00,49.995
1129.00,49.966
1130.00,49.972
1131.00,49.965
1132.00,49.961
1133.00,49.970
1134.00,49.995
1135.00,49.929
1136.00,49.944
1137.00,49.929
1138.00,49.913
1139.00,49.931
1140.00,49.909
1141.00,49.905
1142.00,49.900
1143.00,49.910
1144.00,49.887
1145.00,49.884
1146.00,49.887
1147.00,49.866
1148.00,49.858
1149.00,49.858
1150.00,49.875
1151.00,49.860
1152.00,49.848
1153.00,49.846
1154.00,49.828
1155.00,49.843
1156.00,49.838
1157.00,49.829
1158.00,49.819
1159.00,49.808
1160.00,49.800
1161.00,49.831
1162.00,49.813
1163.00,49.823
1164.00,49.814
1165.00,49.798
1166.00,49.804
1167.00,49.794
1168.00,49.805
1169.00,49.800
1170.00,49.802
1171.00,49.769
1172.00,49.788
1173.00,49.774
1174.00,49.780
1175.00,49.787
1176.00,49.785
1177.00,49.770
1178.00,49.758
1179.00,49.786
1180.00,49.781
1181.00,49.771
1182.00,49.760
1183.00,49.763
1184.00,49.745
1185.00,49.767
1186.00,49.757
1187.00,49.759
1188.00,49.740
1189.00,49.740
1190.00,49.749
1191.00,49.744
1192.00,49.746
1193.00,49.739
1194.00,49.770
1195.00,49.747
1196.00,49.753
1197.00,49.742
1198.00,49.732
1199.00,49.726
1200.00,49.737
1201.00,49.735
1202.00,49.714
1203.00,49.722
1204.00,49.707
1205.00,49.752
1206.00,49.725
1207.00,49.729
1208.00,49.716
1209.00,49.715
1210.00,49.732
1211.00,49.712
1212.00,49.728
1213.00,49.695
1214.00,49.714
1215.00,49.701
1216.00,49.708
1217.00,49.705
1218.00,49.699
1219.00,49.724
1220.00,49.700
1221.00,49.706
1222.00,49.694
1223.00,49.715
1224.00,49.709
1225.00,49.695
1226.00,49.685
1227.00,49.686
1228.00,49.692
1229.00,49.688
1230.00,49.732
1231.00,49.713
1232.00,49.737
1233.00,49.742
1234.00,49.746
1235.00,49.743
1236.00,49.740
1237.00,49.730
1238.00,49.743
1239.00,49.735
1240.00,49.739
1241.00,49.740
1242.00,49.741
1243.00,49.764
1244.00,49.744
1245.00,49.762
1246.00,49.775
1247.00,49.767
1248.00,49.753
1249.00,49.787
1250.00,49.769
1251.00,49.769
1252.00,49.790
1253.00,49.775
1254.00,49.788
1255.00,49.780
1256.00,49.767
1257.00,49.753
1258.00,49.793
1259.00,49.788
1260.00,49.821
1261.00,49.809
1262.00,49.805
1263.00,49.805
1264.00,49.805
1265.00,49.808
1266.00,49.814
1267.00,49.815
1268.00,49.825
1269.00,49.812
1270.00,49.825
1271.00,49.845
1272.00,49.819
1273.00,49.835
1274.00,49.840
1275.00,49.840
1276.00,49.850
1277.00,49.848
1278.00,49.865
1279.00,49.862
1280.00,49.870
1281.00,49.883
1282.00,49.879
1283.00,49.862
1284.00,49.853
1285.00,49.860
1286.00,49.904
1287.00,49.889
1288.00,49.883
1289.00,49.881
1290.00,49.906
1291.00,49.900
1292.00,49.896
1293.00,49.905
1294.00,49.911
1295.00,49.917
1296.00,49.923
1297.00,49.921
1298.00,49.942
1299.00,49.932
1300.00,49.929
1301.00,49.939
1302.00,49.931
1303.00,49.948
1304.00,49.941
1305.00,49.963
1306.00,49.971
1307.00,49.980
1308.00,49.975
1309.00,49.984
1310.00,49.991
1311.00,49.976
1312.00,49.986
1313.00,49.975
1314.00,49.992
1315.00,50.018
1316.00,50.014
1317.00,50.030
1318.00,50.024
1319.00,50.039
1320.00,50.064
1321.00,50.178
1322.00,50.209
1323.00,50.186
1324.00,50.183
1325.00,50.177
1326.00,50.203
1327.00,50.177
1328.00,50.181
1329.00,50.185
1330.00,50.186
1331.00,50.180
1332.00,50.183
1333.00,50.179
1334.00,50.210
1335.00,50.228
1336.00,50.263
1337.00,50.281
1338.00,50.342
1339.00,50.390
1340.00,50.451
1341.00,50.507
1342.00,50.583
1343.00,50.631
1344.00,50.678
1345.00,50.737
1346.00,50.755
1347.00,50.789
1348.00,50.804
1349.00,50.832
1350.00,50.846
1351.00,50.870
1352.00,50.862
1353.00,50.847
1354.00,50.874
1355.00,50.854
1356.00,50.878
1357.00,50.866
1358.00,50.893
1359.00,50.896
1360.00,50.912
1361.00,50.895
1362.00,50.855
1363.00,50.963
1364.00,50.924
1365.00,50.900
1366.00,50.963
1367.00,50.897
1368.00,50.863
1369.00,50.894
1370.00,50.883
1371.00,50.851
1372.00,50.865
1373.00,50.858
1374.00,50.879
1375.00,50.850
1376.00,50.869
1377.00,50.837
1378.00,50.863
1379.00,50.872
1380.00,50.908
1381.00,50.936
1382.00,50.890
1383.00,50.849
1384.00,50.820
1385.00,50.800
1386.00,50.861
1387.00,50.859
1388.00,50.823
1389.00,50.741
1390.00,50.849
1391.00,50.827
1392.00,50.826
1393.00,50.830
1394.00,50.855
1395.00,50.836
1396.00,50.799
1397.00,50.820
1398.00,50.863
1399.00,50.883
1400.00,50.816
1401.00,50.821
1402.00,50.894
1403.00,50.889
1404.00,50.859
1405.00,50.884
1406.00,50.883
1407.00,50.897
1408.00,50.885
1409.00,50.873
1410.00,50.907
1411.00,50.898
1412.00,50.931
1413.00,50.901
1414.00,50.910
1415.00,50.939
1416.00,50.950
1417.00,50.970
1418.00,50.974
1419.00,50.970
1420.00,51.002
1421.00,51.015
1422.00,51.024
1423.00,51.027
1424.00,51.057
1425.00,51.054
1426.00,51.056
1427.00,51.078
1428.00,51.091
1429.00,51.101
1430.00,51.119
1431.00,51.140
1432.00,51.139
1433.00,51.155
1434.00,51.144
1435.00,51.199
1436.00,51.197
1437.00,51.183
1438.00,51.212
1439.00,51.245
1440.00,51.238
1441.00,51.255
1442.00,51.265
1443.00,51.296
1444.00,51.292
1445.00,51.286
1446.00,51.320
1447.00,51.351
1448.00,51.371
1449.00,51.377
1450.00,51.378
1451.00,51.389
1452.00,51.402
1453.00,51.432
1454.00,51.446
1455.00,51.473
1456.00,51.476
1457.00,51.492
1458.00,51.502
1459.00,51.523
1460.00,51.527
1461.00,51.561
1462.00,51.576
1463.00,51.590
1464.00,51.593
1465.00,51.594
1466.00,51.599
1467.00,51.628
1468.00,51.659
1469.00,51.648
1470.00,51.658
1471.00,51.675
1472.00,51.690
1473.00,51.703
1474.00,51.735
1475.00,51.741
1476.00,51.753
1477.00,51.763
1478.00,51.769
1479.00,51.783
1480.00,51.782
1481.00,51.788
1482.00,51.814
1483.00,51.821
1484.00,51.833
1485.00,51.866
1486.00,51.861
1487.00,51.888
1488.00,51.893
1489.00,51.895
1490.00,51.910
1491.00,51.923
1492.00,51.928
1493.00,51.927
1494.00,51.952
1495.00,51.955
1496.00,51.957
1497.00,51.972
1498.00,51.970
1499.00,52.005
1500.00,52.022
1501.00, 
1502.00, 
1503.00, 
1504.00, 
1505.00, 
1506.00, 
1507.00, 
1508.00, 
1509.00, 
1510.00, 
1511.00, 
1512.00, 
1513.00, 
1514.00, 
1515.00, 
1516.00, 
1517.00, 
1518.00, 
1519.00, 
1520.00, 
1521.00, 
1522.00, 
1523.00, 
1524.00, 
1525.00, 
1526.00, 
1527.00, 
1528.00, 
1529.00, 
1530.00, 
1531.00, 
1532.00, 
1533.00, 
1534.00, 
1535.00, 
1536.00, 
1537.00, 
1538.00, 
1539.00, 
1540.00, 
1541.00, 
1542.00, 
1543.00, 
1544.00, 
1545.00, 
1546.00, 
1547.00, 
1548.00, 
1549.00, 
1550.00, 
1551.00, 
1552.00, 
1553.00, 
1554.00, 
1555.00, 
1556.00, 
1557.00, 
1558.00, 
1559.00, 
1560.00, 
1561.00, 
1562.00, 
1563.00, 
1564.00, 
1565.00, 
1566.00, 
1567.00, 
1568.00, 
1569.00, 
1570.00, 
1571.00, 
1572.00, 
1573.00, 
1574.00, 
1575.00, 
1576.00, 
1577.00, 
1578.00, 
1579.00, 
1580.00, 
1581.00, 
1582.00, 
1583.00, 
1584.00, 
1585.00, 
1586.00, 
1587.00, 
1588.00, 
1589.00, 
1590.00, 
1591.00, 
1592.00, 
1593.00, 
1594.00, 
1595.00, 
1596.00, 
1597.00, 
1598.00, 
1599.00, 
1600.00, 
1601.00, 
1602.00, 
1603.00, 
1604.00, 
1605.00, 
1606.00, 
1607.00, 
1608.00, 
1609.00, 
1610.00, 
1611.00, 
1612.00, 
1613.00, 
1614.00, 
1615.00, 
1616.00, 
1617.00, 
1618.00, 
1619.00, 
1620.00, 
1621.00, 
1622.00, 
1623.00, 
1624.00, 
1625.00, 
1626.00, 
1627.00, 
1628.00, 
1629.00, 
1630.00, 
1631.00, 
1632.00, 
1633.00, 
1634.00, 
1635.00, 
1636.00, 
1637.00, 
1638.00, 
1639.00, 
1640.00, 
1641.00, 
1642.00, 
1643.00, 
1644.00, 
1645.00, 
1646.00, 
1647.00, 
1648.00, 
1649.00, 
1650.00, 
1651.00, 
1652.00, 
1653.00, 
1654.00, 
1655.00, 
1656.00, 
1657.00, 
1658.00, 
1659.00, 
1660.00, 
1661.00, 
1662.00, 
1663.00, 
1664.00, 
1665.00, 
1666.00, 
1667.00, 
1668.00, 
1669.00, 
1670.00, 
1671.00, 
1672.00, 
1673.00, 
1674.00, 
1675.00, 
1676.00, 
1677.00, 
1678.00, 
1679.00, 
1680.00, 
1681.00, 
1682.00, 
1683.00, 
1684.00, 
1685.00, 
1686.00, 
1687.00, 
1688.00, 
1689.00, 
1690.00, 
1691.00, 
1692.00, 
1693.00, 
1694.00, 
1695.00, 
1696.00, 
1697.00, 
1698.00, 
1699.00, 
1700.00, 
1701.00, 
1702.00, 
1703.00, 
1704.00, 
1705.00, 
1706.00, 
1707.00, 
1708.00, 
1709.00, 
1710.00, 
1711.00, 
1712.00, 
1713.00, 
1714.00, 
1715.00, 
1716.00, 
1717.00, 
1718.00, 
1719.00, 
1720.00, 
1721.00, 
1722.00, 
1723.00, 
1724.00, 
1725.00, 
1726.00, 
1727.00, 
1728.00, 
1729.00, 
1730.00, 
1731.00, 
1732.00, 
1733.00, 
1734.00, 
1735.00, 
1736.00, 
1737.00, 
1738.00, 
1739.00, 
1740.00, 
1741.00, 
1742.00, 
1743.00, 
1744.00, 
1745.00, 
1746.00, 
1747.00, 
1748.00, 
1749.00, 
1750.00, 
1751.00, 
1752.00, 
1753.00, 
1754.00, 
1755.00, 
1756.00, 
1757.00, 
1758.00, 
1759.00, 
1760.00, 
1761.00, 
1762.00, 
1763.00, 
1764.00, 
1765.00, 
1766.00, 
1767.00, 
1768.00, 
1769.00, 
1770.00, 
1771.00, 
1772.00, 
1773.00, 
1774.00, 
1775.00, 
1776.00, 
1777.00, 
1778.00, 
1779.00, 
1780.00, 
1781.00, 
1782.00, 
1783.00, 
1784.00, 
1785.00, 
1786.00, 
1787.00, 
1788.00, 
1789.00, 
1790.00, 
1791.00, 
1792.00, 
1793.00, 
1794.00, 
1795.00, 
1796.00, 
1797.00, 
1798.00, 
1799.00, 
1800.00, 
1801.00, 
1802.00, 
1803.00, 
1804.00, 
1805.00, 
1806.00, 
1807.00, 
1808.00, 
1809.00, 
1810.00, 
1811.00, 
1812.00, 
1813.00, 
1814.00, 
1815.00, 
1816.00, 
1817.00, 
1818.00, 
1819.00, 
1820.00, 
1821.00, 
1822.00, 
1823.00, 
1824.00, 
1825.00, 
1826.00, 
1827.00, 
1828.00, 
1829.00, 
1830.00, 
1831.00, 
1832.00, 
1833.00, 
1834.00, 
1835.00, 
1836.00, 
1837.00, 
1838.00, 
1839.00, 
1840.00, 
1841.00, 
1842.00, 
1843.00, 
1844.00, 
1845.00, 
1846.00, 
1847.00, 
1848.00, 
1849.00, 
1850.00, 
1851.00, 
1852.00, 
1853.00, 
1854.00, 
1855.00, 
1856.00, 
1857.00, 
1858.00, 
1859.00, 
1860.00, 
1861.00, 
1862.00, 
1863.00, 
1864.00, 
1865.00, 
1866.00, 
1867.00, 
1868.00, 
1869.00, 
1870.00, 
1871.00, 
1872.00, 
1873.00, 
1874.00, 
1875.00, 
1876.00, 
1877.00, 
1878.00, 
1879.00, 
1880.00, 
1881.00, 
1882.00, 
1883.00, 
1884.00, 
1885.00, 
1886.00, 
1887.00, 
1888.00, 
1889.00, 
1890.00, 
1891.00, 
1892.00, 
1893.00, 
1894.00, 
1895.00, 
1896.00, 
1897.00, 
1898.00, 
1899.00, 
1900.00, 
1901.00, 
1902.00, 
1903.00, 
1904.00, 
1905.00, 
1906.00, 
1907.00, 
1908.00, 
1909.00, 
1910.00, 
1911.00, 
1912.00, 
1913.00, 
1914.00, 
1915.00, 
1916.00, 
1917.00, 
1918.00, 
1919.00, 
1920.00, 
1921.00, 
1922.00, 
1923.00, 
1924.00, 
1925.00, 
1926.00, 
1927.00, 
1928.00, 
1929.00, 
1930.00, 
1931.00, 
1932.00, 
1933.00, 
1934.00, 
1935.00, 
1936.00, 
1937.00, 
1938.00, 
1939.00, 
1940.00, 
1941.00, 
1942.00, 
1943.00, 
1944.00, 
1945.00, 
1946.00, 
1947.00, 
1948.00, 
1949.00, 
1950.00, 
1951.00, 
1952.00, 
1953.00, 
1954.00, 
1955.00, 
1956.00, 
1957.00, 
1958.00, 
1959.00, 
1960.00, 
1961.00, 
1962.00, 
1963.00, 
1964.00, 
1965.00, 
1966.00, 
1967.00, 
1968.00, 
1969.00, 
1970.00, 
1971.00, 
1972.00, 
1973.00, 
1974.00, 
1975.00, 
1976.00, 
1977.00, 
1978.00, 
1979.00, 
1980.00, 
1981.00, 
1982.00, 
1983.00, 
1984.00, 
1985.00, 
1986.00, 
1987.00, 
1988.00, 
1989.00, 
1990.00, 
1991.00, 
1992.00, 
1993.00, 
1994.00, 
1995.00, 
1996.00, 
1997.00, 
1998.00, 
1999.00, 
2000.00, 
2001.00, 
2002.00, 
2003.00, 
2004.00, 
2005.00, 
2006.00, 
2007.00, 
2008.00, 
2009.00, 
2010.00, 
2011.00, 
2012.00, 
2013.00, 
2014.00, 
2015.00, 
2016.00, 
2017.00, 
2018.00, 
2019.00, 
2020.00, 
2021.00, 
2022.00, 
2023.00, 
2024.00, 
2025.00, 
2026.00, 
2027.00, 
2028.00, 
2029.00, 
2030.00, 
2031.00, 
2032.00, 
2033.00, 
2034.00, 
2035.00, 
2036.00, 
2037.00, 
2038.00, 
2039.00, 
2040.00, 
2041.00, 
2042.00, 
2043.00, 
2044.00, 
2045.00, 
2046.00, 
2047.00, 
2048.00, 
2049.00, 
2050.00, 
2051.00, 
2052.00, 
2053.00, 
2054.00, 
2055.00, 
2056.00, 
2057.00, 
2058.00, 
2059.00, 
2060.00, 
2061.00, 
2062.00, 
2063.00, 
2064.00, 
2065.00, 
2066.00, 
2067.00, 
2068.00, 
2069.00, 
2070.00, 
2071.00, 
2072.00, 
2073.00, 
2074.00, 
2075.00, 
2076.00, 
2077.00, 
2078.00, 
2079.00, 
2080.00, 
2081.00, 
2082.00, 
2083.00, 
2084.00, 
2085.00, 
2086.00, 
2087.00, 
2088.00, 
2089.00, 
2090.00, 
2091.00, 
2092.00, 
2093.00, 
2094.00, 
2095.00, 
2096.00, 
2097.00, 
2098.00, 
2099.00, 
2100.00, 
2101.00, 
2102.00, 
2103.00, 
2104.00, 
2105.00, 
2106.00, 
2107.00, 
2108.00, 
2109.00, 
2110.00, 
2111.00, 
2112.00, 
2113.00, 
2114.00, 
2115.00, 
2116.00, 
2117.00, 
2118.00, 
2119.00, 
2120.00, 
2121.00, 
2122.00, 
2123.00, 
2124.00, 
2125.00, 
2126.00, 
2127.00, 
2128.00, 
2129.00, 
2130.00, 
2131.00, 
2132.00, 
2133.00, 
2134.00, 
2135.00, 
2136.00, 
2137.00, 
2138.00, 
2139.00, 
2140.00, 
2141.00, 
2142.00, 
2143.00, 
2144.00, 
2145.00, 
2146.00, 
2147.00, 
2148.00, 
2149.00, 
2150.00, 
2151.00, 
2152.00, 
2153.00, 
2154.00, 
2155.00, 
2156.00, 
2157.00, 
2158.00, 
2159.00, 
2160.00, 
2161.00, 
2162.00, 
2163.00, 
2164.00, 
2165.00, 
2166.00, 
2167.00, 
2168.00, 
2169.00, 
2170.00, 
2171.00, 
2172.00, 
2173.00, 
2174.00, 
2175.00, 
2176.00, 
2177.00, 
2178.00, 
2179.00, 
2180.00, 
2181.00, 
2182.00, 
2183.00, 
2184.00, 
2185.00, 
2186.00, 
2187.00, 
2188.00, 
2189.00, 
2190.00, 
2191.00, 
2192.00, 
2193.00, 
2194.00, 
2195.00, 
2196.00, 
2197.00, 
2198.00, 
2199.00, 
2200.00, 
2201.00, 
2202.00, 
2203.00, 
2204.00, 
2205.00, 
2206.00, 
2207.00, 
2208.00, 
2209.00, 
2210.00, 
2211.00, 
2212.00, 
2213.00, 
2214.00, 
2215.00, 
2216.00, 
2217.00, 
2218.00, 
2219.00, 
2220.00, 
2221.00, 
2222.00, 
2223.00, 
2224.00, 
2225.00, 
2226.00, 
2227.00, 
2228.00, 
2229.00, 
2230.00, 
2231.00, 
2232.00, 
2233.00, 
2234.00, 
2235.00, 
2236.00, 
2237.00, 
2238.00, 
2239.00, 
2240.00, 
2241.00, 
2242.00, 
2243.00, 
2244.00, 
2245.00, 
2246.00, 
2247.00, 
2248.00, 
2249.00, 
2250.00, 
2251.00, 
2252.00, 
2253.00, 
2254.00, 
2255.00, 
2256.00, 
2257.00, 
2258.00, 
2259.00, 
2260.00, 
2261.00, 
2262.00, 
2263.00, 
2264.00, 
2265.00, 
2266.00, 
2267.00, 
2268.00, 
2269.00, 
2270.00, 
2271.00, 
2272.00, 
2273.00, 
2274.00, 
2275.00, 
2276.00, 
2277.00, 
2278.00, 
2279.00, 
2280.00, 
2281.00, 
2282.00, 
2283.00, 
2284.00, 
2285.00, 
2286.00, 
2287.00, 
2288.00, 
2289.00, 
2290.00, 
2291.00, 
2292.00, 
2293.00, 
2294.00, 
2295.00, 
2296.00, 
2297.00, 
2298.00, 
2299.00, 
2300.00, 
2301.00, 
2302.00, 
2303.00, 
2304.00, 
2305.00, 
2306.00, 
2307.00, 
2308.00, 
2309.00, 
2310.00, 
2311.00, 
2312.00, 
2313.00, 
2314.00, 
2315.00, 
2316.00, 
2317.00, 
2318.00, 
2319.00, 
2320.00, 
2321.00, 
2322.00, 
2323.00, 
2324.00, 
2325.00, 
2326.00, 
2327.00, 
2328.00, 
2329.00, 
2330.00, 
2331.00, 
2332.00, 
2333.00, 
2334.00, 
2335.00, 
2336.00, 
2337.00, 
2338.00, 
2339.00, 
2340.00, 
2341.00, 
2342.00, 
2343.00, 
2344.00, 
2345.00, 
2346.00, 
2347.00, 
2348.00, 
2349.00, 
2350.00, 
2351.00, 
2352.00, 
2353.00, 
2354.00, 
2355.00, 
2356.00, 
2357.00, 
2358.00, 
2359.00, 
2360.00, 
2361.00, 
2362.00, 
2363.00, 
2364.00, 
2365.00, 
2366.00, 
2367.00, 
2368.00, 
2369.00, 
2370.00, 
2371.00, 
2372.00, 
2373.00, 
2374.00, 
2375.00, 
2376.00, 
2377.00, 
2378.00, 
2379.00, 
2380.00, 
2381.00, 
2382.00, 
2383.00, 
2384.00, 
2385.00, 
2386.00, 
2387.00, 
2388.00, 
2389.00, 
2390.00, 
2391.00, 
2392.00, 
2393.00, 
2394.00, 
2395.00, 
2396.00, 
2397.00, 
2398.00, 
2399.00, 
2400.00, 
2401.00, 
2402.00, 
2403.00, 
2404.00, 
2405.00, 
2406.00, 
2407.00, 
2408.00, 
2409.00, 
2410.00, 
2411.00, 
2412.00, 
2413.00, 
2414.00, 
2415.00, 
2416.00, 
2417.00, 
2418.00, 
2419.00, 
2420.00, 
2421.00, 
2422.00, 
2423.00, 
2424.00, 
2425.00, 
2426.00, 
2427.00, 
2428.00, 
2429.00, 
2430.00, 
2431.00, 
2432.00, 
2433.00, 
2434.00, 
2435.00, 
2436.00, 
2437.00, 
2438.00, 
2439.00, 
2440.00, 
2441.00, 
2442.00, 
2443.00, 
2444.00, 
2445.00, 
2446.00, 
2447.00, 
2448.00, 
2449.00, 
2450.00, 
2451.00, 
2452.00, 
2453.00, 
2454.00, 
2455.00, 
2456.00, 
2457.00, 
2458.00, 
2459.00, 
2460.00, 
2461.00, 
2462.00, 
2463.00, 
2464.00, 
2465.00, 
2466.00, 
2467.00, 
2468.00, 
2469.00, 
2470.00, 
2471.00, 
2472.00, 
2473.00, 
2474.00, 
2475.00, 
2476.00, 
2477.00, 
2478.00, 
2479.00, 
2480.00, 
2481.00, 
2482.00, 
2483.00, 
2484.00, 
2485.00, 
2486.00, 
2487.00, 
2488.00, 
2489.00, 
2490.00, 
2491.00, 
2492.00, 
2493.00, 
2494.00, 
2495.00, 
2496.00, 
2497.00, 
2498.00, 
2499.00, 
2500.00, 
2501.00, 
2502.00, 
2503.00, 
2504.00, 
2505.00, 
2506.00, 
2507.00, 
2508.00, 
2509.00, 
2510.00, 
2511.00, 
2512.00, 
2513.00, 
2514.00, 
2515.00, 
2516.00, 
2517.00, 
2518.00, 
2519.00, 
2520.00, 
2521.00, 
2522.00, 
2523.00, 
2524.00, 
2525.00, 
2526.00, 
2527.00, 
2528.00, 
2529.00, 
2530.00, 
2531.00, 
2532.00, 
2533.00, 
2534.00, 
2535.00, 
2536.00, 
2537.00, 
2538.00, 
2539.00, 
2540.00, 
2541.00, 
2542.00, 
2543.00, 
2544.00, 
2545.00, 
2546.00, 
2547.00, 
2548.00, 
2549.00, 
2550.00, 
2551.00, 
2552.00, 
2553.00, 
2554.00, 
2555.00, 
2556.00, 
2557.00, 
2558.00, 
2559.00, 
2560.00, 
2561.00, 
2562.00, 
2563.00, 
2564.00, 
2565.00, 
2566.00, 
2567.00, 
2568.00, 
2569.00, 
2570.00, 
2571.00, 
2572.00, 
2573.00, 
2574.00, 
2575.00, 
2576.00, 
2577.00, 
2578.00, 
2579.00, 
2580.00, 
2581.00, 
2582.00, 
2583.00, 
2584.00, 
2585.00, 
2586.00, 
2587.00, 
2588.00, 
2589.00, 
2590.00, 
2591.00, 
2592.00, 
2593.00, 
2594.00, 
2595.00, 
2596.00, 
2597.00, 
2598.00, 
2599.00, 
2600.00, 
