"1bP2 - RawData"
"Wavelength nm.","T%"
200.00,0.002
201.00,0.001
202.00,0.005
203.00,-0.000
204.00,-0.001
205.00,-0.000
206.00,0.003
207.00,0.000
208.00,0.002
209.00,0.001
210.00,0.001
211.00,0.001
212.00,0.002
213.00,0.003
214.00,0.002
215.00,0.001
216.00,0.001
217.00,0.001
218.00,-0.002
219.00,0.001
220.00,-0.002
221.00,-0.001
222.00,0.001
223.00,0.001
224.00,0.002
225.00,0.001
226.00,0.000
227.00,0.001
228.00,-0.001
229.00,0.004
230.00,0.001
231.00,0.000
232.00,-0.001
233.00,0.001
234.00,0.002
235.00,0.002
236.00,0.002
237.00,-0.000
238.00,0.000
239.00,0.001
240.00,0.000
241.00,-0.000
242.00,-0.000
243.00,-0.000
244.00,0.001
245.00,0.000
246.00,0.001
247.00,0.002
248.00,0.001
249.00,-0.000
250.00,-0.000
251.00,0.000
252.00,-0.000
253.00,0.004
254.00,0.000
255.00,0.001
256.00,0.001
257.00,0.001
258.00,-0.001
259.00,-0.001
260.00,-0.000
261.00,0.001
262.00,0.002
263.00,0.001
264.00,0.003
265.00,-0.002
266.00,-0.002
267.00,0.001
268.00,0.001
269.00,-0.000
270.00,0.001
271.00,0.001
272.00,-0.001
273.00,0.002
274.00,-0.000
275.00,0.001
276.00,0.002
277.00,-0.000
278.00,0.001
279.00,0.001
280.00,-0.003
281.00,0.001
282.00,-0.000
283.00,0.001
284.00,0.001
285.00,-0.001
286.00,0.001
287.00,0.000
288.00,0.000
289.00,0.000
290.00,-0.000
291.00,0.002
292.00,0.000
293.00,0.002
294.00,-0.001
295.00,-0.001
296.00,0.000
297.00,0.000
298.00,0.001
299.00,0.004
300.00,0.006
301.00,0.005
302.00,0.008
303.00,0.014
304.00,0.022
305.00,0.031
306.00,0.050
307.00,0.074
308.00,0.120
309.00,0.184
310.00,0.251
311.00,0.339
312.00,0.455
313.00,0.611
314.00,0.803
315.00,1.031
316.00,1.297
317.00,1.646
318.00,2.016
319.00,2.439
320.00,2.942
321.00,3.488
322.00,4.095
323.00,4.774
324.00,5.464
325.00,6.201
326.00,6.936
327.00,7.763
328.00,8.614
329.00,9.418
330.00,10.334
331.00,11.195
332.00,12.089
333.00,12.988
334.00,13.869
335.00,14.771
336.00,15.642
337.00,16.493
338.00,17.416
339.00,18.142
340.00,18.945
341.00,19.705
342.00,20.419
343.00,21.107
344.00,21.741
345.00,22.432
346.00,22.967
347.00,23.555
348.00,24.060
349.00,24.536
350.00,25.007
351.00,25.421
352.00,25.769
353.00,26.204
354.00,26.490
355.00,26.842
356.00,27.151
357.00,27.374
358.00,27.683
359.00,27.942
360.00,28.183
361.00,28.324
362.00,28.474
363.00,28.688
364.00,28.793
365.00,28.883
366.00,29.048
367.00,29.119
368.00,29.189
369.00,29.219
370.00,29.302
371.00,29.313
372.00,29.301
373.00,29.292
374.00,29.321
375.00,29.299
376.00,29.223
377.00,29.163
378.00,29.093
379.00,28.972
380.00,28.961
381.00,29.007
382.00,28.967
383.00,28.954
384.00,28.991
385.00,29.044
386.00,29.045
387.00,29.169
388.00,29.215
389.00,29.222
390.00,29.263
391.00,29.252
392.00,29.298
393.00,29.318
394.00,29.349
395.00,29.397
396.00,29.348
397.00,29.364
398.00,29.373
399.00,29.386
400.00,29.374
401.00,29.398
402.00,29.406
403.00,29.357
404.00,29.356
405.00,29.339
406.00,29.319
407.00,29.273
408.00,29.309
409.00,29.255
410.00,29.126
411.00,29.188
412.00,29.128
413.00,29.196
414.00,29.080
415.00,29.087
416.00,29.155
417.00,29.125
418.00,29.186
419.00,29.225
420.00,29.232
421.00,29.294
422.00,29.303
423.00,29.315
424.00,29.355
425.00,29.425
426.00,29.436
427.00,29.423
428.00,29.505
429.00,29.497
430.00,29.622
431.00,29.632
432.00,29.677
433.00,29.752
434.00,29.739
435.00,29.880
436.00,29.886
437.00,29.971
438.00,30.118
439.00,30.195
440.00,30.132
441.00,30.206
442.00,30.274
443.00,30.346
444.00,30.413
445.00,30.461
446.00,30.589
447.00,30.680
448.00,30.740
449.00,30.868
450.00,30.921
451.00,31.067
452.00,31.134
453.00,31.299
454.00,31.374
455.00,31.480
456.00,31.656
457.00,31.689
458.00,31.774
459.00,31.889
460.00,31.990
461.00,32.132
462.00,32.222
463.00,32.339
464.00,32.431
465.00,32.597
466.00,32.723
467.00,32.834
468.00,32.903
469.00,32.996
470.00,33.059
471.00,33.178
472.00,33.298
473.00,33.352
474.00,33.452
475.00,33.530
476.00,33.632
477.00,33.729
478.00,33.853
479.00,34.002
480.00,34.097
481.00,34.236
482.00,34.377
483.00,34.481
484.00,34.672
485.00,34.771
486.00,34.914
487.00,35.046
488.00,35.167
489.00,35.342
490.00,35.441
491.00,35.550
492.00,35.787
493.00,35.880
494.00,35.835
495.00,36.017
496.00,36.095
497.00,36.187
498.00,36.341
499.00,36.446
500.00,36.507
501.00,36.581
502.00,36.663
503.00,36.919
504.00,36.943
505.00,37.030
506.00,37.226
507.00,37.270
508.00,37.340
509.00,37.430
510.00,37.601
511.00,37.681
512.00,37.726
513.00,37.884
514.00,37.922
515.00,38.174
516.00,38.279
517.00,38.309
518.00,38.462
519.00,38.534
520.00,38.495
521.00,38.587
522.00,38.699
523.00,38.736
524.00,38.829
525.00,38.888
526.00,38.985
527.00,39.125
528.00,39.079
529.00,39.282
530.00,39.372
531.00,39.487
532.00,39.534
533.00,39.619
534.00,39.713
535.00,39.787
536.00,39.805
537.00,39.876
538.00,39.911
539.00,39.949
540.00,40.023
541.00,40.041
542.00,40.075
543.00,40.161
544.00,40.222
545.00,40.265
546.00,40.276
547.00,40.401
548.00,40.493
549.00,40.536
550.00,40.568
551.00,40.660
552.00,40.777
553.00,40.777
554.00,40.867
555.00,40.866
556.00,40.921
557.00,40.997
558.00,41.012
559.00,41.052
560.00,41.085
561.00,41.184
562.00,41.283
563.00,41.226
564.00,41.281
565.00,41.335
566.00,41.288
567.00,41.327
568.00,41.375
569.00,41.412
570.00,41.409
571.00,41.495
572.00,41.515
573.00,41.457
574.00,41.473
575.00,41.559
576.00,41.519
577.00,41.577
578.00,41.676
579.00,41.765
580.00,41.729
581.00,41.846
582.00,41.949
583.00,41.944
584.00,41.993
585.00,42.118
586.00,42.072
587.00,42.152
588.00,42.204
589.00,42.116
590.00,42.201
591.00,42.235
592.00,42.217
593.00,42.080
594.00,42.227
595.00,42.460
596.00,42.468
597.00,42.557
598.00,42.609
599.00,42.527
600.00,42.518
601.00,42.593
602.00,42.587
603.00,42.632
604.00,42.675
605.00,42.779
606.00,42.728
607.00,42.735
608.00,42.915
609.00,42.862
610.00,42.749
611.00,42.935
612.00,42.934
613.00,43.024
614.00,43.019
615.00,43.045
616.00,43.166
617.00,43.148
618.00,43.144
619.00,43.186
620.00,43.274
621.00,43.249
622.00,43.351
623.00,43.378
624.00,43.483
625.00,43.485
626.00,43.497
627.00,43.558
628.00,43.574
629.00,43.566
630.00,43.634
631.00,43.656
632.00,43.725
633.00,43.812
634.00,43.859
635.00,43.950
636.00,44.026
637.00,44.027
638.00,44.050
639.00,44.162
640.00,44.161
641.00,44.199
642.00,44.178
643.00,44.324
644.00,44.414
645.00,44.459
646.00,44.619
647.00,44.571
648.00,44.742
649.00,44.729
650.00,44.597
651.00,44.694
652.00,44.785
653.00,44.800
654.00,44.796
655.00,45.039
656.00,45.152
657.00,45.142
658.00,45.117
659.00,45.196
660.00,45.227
661.00,45.226
662.00,45.284
663.00,45.359
664.00,46.056
665.00,45.843
666.00,45.681
667.00,45.730
668.00,45.757
669.00,45.940
670.00,46.137
671.00,46.137
672.00,46.232
673.00,46.160
674.00,46.163
675.00,46.261
676.00,46.420
677.00,46.566
678.00,46.349
679.00,46.500
680.00,46.560
681.00,46.716
682.00,46.709
683.00,46.758
684.00,46.991
685.00,47.006
686.00,46.832
687.00,46.935
688.00,47.017
689.00,46.952
690.00,47.219
691.00,47.444
692.00,47.255
693.00,47.219
694.00,47.228
695.00,47.343
696.00,47.519
697.00,47.451
698.00,47.573
699.00,47.788
700.00,47.796
701.00,47.778
702.00,47.878
703.00,48.076
704.00,48.059
705.00,47.910
706.00,48.139
707.00,48.102
708.00,47.883
709.00,48.254
710.00,48.538
711.00,48.169
712.00,48.260
713.00,48.267
714.00,48.393
715.00,48.464
716.00,48.385
717.00,48.361
718.00,48.582
719.00,48.573
720.00,48.519
721.00,53.378
722.00,53.277
723.00,53.293
724.00,53.216
725.00,53.200
726.00,53.297
727.00,53.250
728.00,53.209
729.00,53.146
730.00,53.312
731.00,53.300
732.00,53.236
733.00,53.280
734.00,53.235
735.00,53.308
736.00,53.306
737.00,53.294
738.00,53.392
739.00,53.376
740.00,53.378
741.00,53.327
742.00,53.396
743.00,53.349
744.00,53.331
745.00,53.337
746.00,53.364
747.00,53.363
748.00,53.349
749.00,53.317
750.00,53.298
751.00,53.227
752.00,53.215
753.00,53.255
754.00,53.184
755.00,53.211
756.00,53.266
757.00,53.252
758.00,53.239
759.00,53.183
760.00,53.202
761.00,53.181
762.00,53.166
763.00,53.269
764.00,53.217
765.00,53.138
766.00,53.179
767.00,53.160
768.00,53.207
769.00,53.130
770.00,53.280
771.00,53.175
772.00,53.229
773.00,53.181
774.00,53.102
775.00,53.156
776.00,53.187
777.00,53.205
778.00,53.129
779.00,53.178
780.00,53.211
781.00,53.234
782.00,53.208
783.00,53.069
784.00,53.113
785.00,53.026
786.00,53.019
787.00,53.041
788.00,53.045
789.00,53.033
790.00,52.981
791.00,53.048
792.00,52.943
793.00,52.934
794.00,52.919
795.00,52.912
796.00,52.936
797.00,52.873
798.00,52.911
799.00,52.831
800.00,52.779
801.00,52.791
802.00,52.801
803.00,52.774
804.00,52.779
805.00,52.816
806.00,52.712
807.00,52.771
808.00,52.662
809.00,52.657
810.00,52.631
811.00,52.671
812.00,52.629
813.00,52.618
814.00,52.567
815.00,52.524
816.00,52.650
817.00,52.574
818.00,52.446
819.00,52.440
820.00,52.427
821.00,52.429
822.00,52.450
823.00,52.398
824.00,52.314
825.00,52.371
826.00,52.383
827.00,52.331
828.00,52.363
829.00,52.256
830.00,52.373
831.00,54.931
832.00,54.917
833.00,54.862
834.00,54.852
835.00,54.811
836.00,54.822
837.00,54.784
838.00,54.827
839.00,54.805
840.00,54.776
841.00,54.800
842.00,54.718
843.00,54.725
844.00,54.714
845.00,54.643
846.00,54.653
847.00,54.663
848.00,54.649
849.00,54.554
850.00,54.561
851.00,54.485
852.00,54.501
853.00,54.454
854.00,54.435
855.00,54.387
856.00,54.362
857.00,54.354
858.00,54.312
859.00,54.294
860.00,54.314
861.00,54.324
862.00,54.256
863.00,54.253
864.00,54.188
865.00,54.233
866.00,54.190
867.00,54.204
868.00,54.192
869.00,54.200
870.00,54.116
871.00,54.229
872.00,54.182
873.00,54.124
874.00,54.192
875.00,54.137
876.00,54.167
877.00,54.078
878.00,54.188
879.00,54.090
880.00,54.073
881.00,54.060
882.00,54.114
883.00,54.035
884.00,53.983
885.00,53.988
886.00,53.989
887.00,53.934
888.00,53.928
889.00,53.882
890.00,53.908
891.00,54.010
892.00,53.855
893.00,53.760
894.00,53.934
895.00,53.807
896.00,53.790
897.00,53.760
898.00,53.727
899.00,53.726
900.00,53.717
901.00,53.687
902.00,53.738
903.00,53.664
904.00,53.678
905.00,53.675
906.00,53.646
907.00,53.621
908.00,53.600
909.00,53.612
910.00,53.553
911.00,53.567
912.00,53.540
913.00,53.523
914.00,53.378
915.00,53.469
916.00,53.436
917.00,53.392
918.00,53.515
919.00,53.376
920.00,53.368
921.00,53.343
922.00,53.354
923.00,53.315
924.00,53.302
925.00,53.271
926.00,53.276
927.00,53.269
928.00,53.219
929.00,53.252
930.00,53.190
931.00,53.185
932.00,53.089
933.00,53.194
934.00,53.150
935.00,53.113
936.00,53.077
937.00,53.088
938.00,53.076
939.00,53.054
940.00,53.033
941.00,53.025
942.00,52.997
943.00,52.991
944.00,52.953
945.00,52.976
946.00,52.963
947.00,52.906
948.00,52.903
949.00,52.886
950.00,52.858
951.00,52.840
952.00,52.826
953.00,52.768
954.00,52.754
955.00,52.727
956.00,52.690
957.00,52.632
958.00,52.679
959.00,52.615
960.00,52.615
961.00,52.647
962.00,52.624
963.00,52.552
964.00,52.603
965.00,52.592
966.00,52.569
967.00,52.555
968.00,52.525
969.00,52.553
970.00,52.511
971.00,52.532
972.00,52.487
973.00,52.536
974.00,52.535
975.00,52.551
976.00,52.547
977.00,52.511
978.00,52.584
979.00,52.628
980.00,52.534
981.00,52.559
982.00,52.502
983.00,52.514
984.00,52.505
985.00,52.525
986.00,52.496
987.00,52.501
988.00,52.481
989.00,52.472
990.00,52.479
991.00,52.463
992.00,52.459
993.00,52.416
994.00,52.416
995.00,52.434
996.00,52.426
997.00,52.404
998.00,52.373
999.00,52.414
1000.00,52.363
1001.00,52.347
1002.00,52.361
1003.00,52.322
1004.00,52.311
1005.00,52.270
1006.00,52.319
1007.00,52.283
1008.00,52.274
1009.00,52.270
1010.00,52.263
1011.00,52.250
1012.00,52.229
1013.00,52.237
1014.00,52.198
1015.00,52.206
1016.00,52.167
1017.00,52.156
1018.00,52.155
1019.00,52.122
1020.00,52.115
1021.00,52.095
1022.00,52.102
1023.00,52.043
1024.00,52.058
1025.00,52.070
1026.00,52.025
1027.00,52.005
1028.00,52.002
1029.00,51.993
1030.00,51.953
1031.00,51.969
1032.00,51.940
1033.00,51.943
1034.00,51.920
1035.00,51.888
1036.00,51.857
1037.00,51.852
1038.00,51.831
1039.00,51.792
1040.00,51.805
1041.00,51.758
1042.00,51.748
1043.00,51.735
1044.00,51.769
1045.00,51.745
1046.00,51.738
1047.00,51.759
1048.00,51.761
1049.00,51.773
1050.00,51.787
1051.00,51.814
1052.00,51.802
1053.00,51.818
1054.00,51.839
1055.00,51.846
1056.00,51.853
1057.00,51.853
1058.00,51.840
1059.00,51.840
1060.00,51.851
1061.00,51.842
1062.00,51.821
1063.00,51.821
1064.00,51.820
1065.00,51.817
1066.00,51.817
1067.00,51.803
1068.00,51.827
1069.00,51.790
1070.00,51.780
1071.00,51.750
1072.00,51.772
1073.00,51.747
1074.00,51.746
1075.00,51.726
1076.00,51.738
1077.00,51.729
1078.00,51.705
1079.00,51.729
1080.00,51.724
1081.00,51.697
1082.00,51.705
1083.00,51.693
1084.00,51.675
1085.00,51.692
1086.00,51.709
1087.00,51.676
1088.00,51.660
1089.00,51.656
1090.00,51.656
1091.00,51.659
1092.00,51.636
1093.00,51.636
1094.00,51.603
1095.00,51.600
1096.00,51.581
1097.00,51.578
1098.00,51.587
1099.00,51.582
1100.00,51.576
1101.00,51.587
1102.00,51.537
1103.00,51.516
1104.00,51.511
1105.00,51.519
1106.00,51.510
1107.00,51.520
1108.00,51.503
1109.00,51.509
1110.00,51.498
1111.00,51.486
1112.00,51.473
1113.00,51.457
1114.00,51.437
1115.00,51.455
1116.00,51.444
1117.00,51.424
1118.00,51.423
1119.00,51.431
1120.00,51.420
1121.00,51.421
1122.00,51.407
1123.00,51.384
1124.00,51.384
1125.00,51.378
1126.00,51.376
1127.00,51.383
1128.00,51.369
1129.00,51.347
1130.00,51.327
1131.00,51.349
1132.00,51.342
1133.00,51.328
1134.00,51.311
1135.00,51.307
1136.00,51.317
1137.00,51.325
1138.00,51.318
1139.00,51.322
1140.00,51.299
1141.00,51.290
1142.00,51.293
1143.00,51.302
1144.00,51.294
1145.00,51.284
1146.00,51.278
1147.00,51.296
1148.00,51.268
1149.00,51.295
1150.00,51.298
1151.00,51.301
1152.00,51.291
1153.00,51.309
1154.00,51.292
1155.00,51.292
1156.00,51.271
1157.00,51.283
1158.00,51.258
1159.00,51.265
1160.00,51.256
1161.00,51.279
1162.00,51.293
1163.00,51.265
1164.00,51.273
1165.00,51.254
1166.00,51.272
1167.00,51.254
1168.00,51.274
1169.00,51.265
1170.00,51.264
1171.00,51.266
1172.00,51.249
1173.00,51.249
1174.00,51.257
1175.00,51.259
1176.00,51.261
1177.00,51.242
1178.00,51.250
1179.00,51.259
1180.00,51.251
1181.00,51.260
1182.00,51.248
1183.00,51.243
1184.00,51.225
1185.00,51.245
1186.00,51.240
1187.00,51.240
1188.00,51.235
1189.00,51.233
1190.00,51.236
1191.00,51.222
1192.00,51.250
1193.00,51.243
1194.00,51.249
1195.00,51.231
1196.00,51.248
1197.00,51.262
1198.00,51.243
1199.00,51.243
1200.00,51.246
1201.00,51.271
1202.00,51.244
1203.00,51.244
1204.00,51.233
1205.00,51.247
1206.00,51.226
1207.00,51.244
1208.00,51.256
1209.00,51.238
1210.00,51.229
1211.00,51.228
1212.00,51.256
1213.00,51.213
1214.00,51.239
1215.00,51.226
1216.00,51.230
1217.00,51.239
1218.00,51.223
1219.00,51.240
1220.00,51.228
1221.00,51.240
1222.00,51.223
1223.00,51.268
1224.00,51.241
1225.00,51.222
1226.00,51.229
1227.00,51.226
1228.00,51.248
1229.00,51.240
1230.00,51.285
1231.00,51.281
1232.00,51.294
1233.00,51.288
1234.00,51.287
1235.00,51.280
1236.00,51.277
1237.00,51.294
1238.00,51.285
1239.00,51.294
1240.00,51.265
1241.00,51.285
1242.00,51.283
1243.00,51.292
1244.00,51.272
1245.00,51.295
1246.00,51.292
1247.00,51.287
1248.00,51.291
1249.00,51.302
1250.00,51.319
1251.00,51.315
1252.00,51.341
1253.00,51.332
1254.00,51.357
1255.00,51.343
1256.00,51.328
1257.00,51.321
1258.00,51.371
1259.00,51.350
1260.00,51.356
1261.00,51.352
1262.00,51.358
1263.00,51.352
1264.00,51.360
1265.00,51.375
1266.00,51.365
1267.00,51.377
1268.00,51.382
1269.00,51.400
1270.00,51.413
1271.00,51.410
1272.00,51.412
1273.00,51.420
1274.00,51.419
1275.00,51.420
1276.00,51.417
1277.00,51.423
1278.00,51.425
1279.00,51.433
1280.00,51.417
1281.00,51.448
1282.00,51.452
1283.00,51.457
1284.00,51.452
1285.00,51.454
1286.00,51.482
1287.00,51.482
1288.00,51.502
1289.00,51.480
1290.00,51.510
1291.00,51.494
1292.00,51.482
1293.00,51.490
1294.00,51.503
1295.00,51.517
1296.00,51.524
1297.00,51.537
1298.00,51.578
1299.00,51.537
1300.00,51.569
1301.00,51.548
1302.00,51.576
1303.00,51.581
1304.00,51.562
1305.00,51.591
1306.00,51.566
1307.00,51.582
1308.00,51.583
1309.00,51.588
1310.00,51.598
1311.00,51.574
1312.00,51.594
1313.00,51.570
1314.00,51.626
1315.00,51.636
1316.00,51.615
1317.00,51.633
1318.00,51.640
1319.00,51.645
1320.00,51.638
1321.00,51.855
1322.00,51.817
1323.00,51.823
1324.00,51.792
1325.00,51.781
1326.00,51.790
1327.00,51.789
1328.00,51.828
1329.00,51.775
1330.00,51.756
1331.00,51.795
1332.00,51.781
1333.00,51.774
1334.00,51.817
1335.00,51.839
1336.00,51.853
1337.00,51.888
1338.00,51.932
1339.00,51.998
1340.00,52.057
1341.00,52.102
1342.00,52.187
1343.00,52.209
1344.00,52.263
1345.00,52.348
1346.00,52.367
1347.00,52.388
1348.00,52.427
1349.00,52.431
1350.00,52.450
1351.00,52.477
1352.00,52.488
1353.00,52.540
1354.00,52.493
1355.00,52.427
1356.00,52.492
1357.00,52.484
1358.00,52.539
1359.00,52.521
1360.00,52.459
1361.00,52.535
1362.00,52.560
1363.00,52.552
1364.00,52.516
1365.00,52.489
1366.00,52.508
1367.00,52.459
1368.00,52.524
1369.00,52.556
1370.00,52.555
1371.00,52.475
1372.00,52.490
1373.00,52.485
1374.00,52.504
1375.00,52.516
1376.00,52.470
1377.00,52.404
1378.00,52.572
1379.00,52.536
1380.00,52.494
1381.00,52.584
1382.00,52.480
1383.00,52.554
1384.00,52.439
1385.00,52.366
1386.00,52.520
1387.00,52.531
1388.00,52.341
1389.00,52.325
1390.00,52.380
1391.00,52.515
1392.00,52.487
1393.00,52.452
1394.00,52.478
1395.00,52.476
1396.00,52.417
1397.00,52.487
1398.00,52.488
1399.00,52.477
1400.00,52.542
1401.00,52.439
1402.00,52.536
1403.00,52.491
1404.00,52.456
1405.00,52.506
1406.00,52.521
1407.00,52.478
1408.00,52.569
1409.00,52.484
1410.00,52.523
1411.00,52.475
1412.00,52.595
1413.00,52.476
1414.00,52.473
1415.00,52.505
1416.00,52.576
1417.00,52.623
1418.00,52.543
1419.00,52.553
1420.00,52.588
1421.00,52.646
1422.00,52.635
1423.00,52.631
1424.00,52.628
1425.00,52.655
1426.00,52.662
1427.00,52.722
1428.00,52.678
1429.00,52.674
1430.00,52.699
1431.00,52.725
1432.00,52.738
1433.00,52.757
1434.00,52.735
1435.00,52.786
1436.00,52.802
1437.00,52.765
1438.00,52.809
1439.00,52.842
1440.00,52.846
1441.00,52.859
1442.00,52.867
1443.00,52.864
1444.00,52.949
1445.00,52.868
1446.00,52.879
1447.00,52.950
1448.00,52.979
1449.00,52.998
1450.00,53.013
1451.00,53.022
1452.00,53.013
1453.00,53.011
1454.00,53.026
1455.00,53.066
1456.00,53.053
1457.00,53.055
1458.00,53.090
1459.00,53.089
1460.00,53.127
1461.00,53.114
1462.00,53.141
1463.00,53.146
1464.00,53.176
1465.00,53.180
1466.00,53.177
1467.00,53.196
1468.00,53.245
1469.00,53.228
1470.00,53.237
1471.00,53.277
1472.00,53.282
1473.00,53.256
1474.00,53.297
1475.00,53.308
1476.00,53.299
1477.00,53.298
1478.00,53.321
1479.00,53.348
1480.00,53.354
1481.00,53.348
1482.00,53.403
1483.00,53.397
1484.00,53.393
1485.00,53.413
1486.00,53.424
1487.00,53.431
1488.00,53.472
1489.00,53.441
1490.00,53.457
1491.00,53.471
1492.00,53.486
1493.00,53.472
1494.00,53.515
1495.00,53.482
1496.00,53.529
1497.00,53.509
1498.00,53.515
1499.00,53.557
1500.00,53.558
1501.00, 
1502.00, 
1503.00, 
1504.00, 
1505.00, 
1506.00, 
1507.00, 
1508.00, 
1509.00, 
1510.00, 
1511.00, 
1512.00, 
1513.00, 
1514.00, 
1515.00, 
1516.00, 
1517.00, 
1518.00, 
1519.00, 
1520.00, 
1521.00, 
1522.00, 
1523.00, 
1524.00, 
1525.00, 
1526.00, 
1527.00, 
1528.00, 
1529.00, 
1530.00, 
1531.00, 
1532.00, 
1533.00, 
1534.00, 
1535.00, 
1536.00, 
1537.00, 
1538.00, 
1539.00, 
1540.00, 
1541.00, 
1542.00, 
1543.00, 
1544.00, 
1545.00, 
1546.00, 
1547.00, 
1548.00, 
1549.00, 
1550.00, 
1551.00, 
1552.00, 
1553.00, 
1554.00, 
1555.00, 
1556.00, 
1557.00, 
1558.00, 
1559.00, 
1560.00, 
1561.00, 
1562.00, 
1563.00, 
1564.00, 
1565.00, 
1566.00, 
1567.00, 
1568.00, 
1569.00, 
1570.00, 
1571.00, 
1572.00, 
1573.00, 
1574.00, 
1575.00, 
1576.00, 
1577.00, 
1578.00, 
1579.00, 
1580.00, 
1581.00, 
1582.00, 
1583.00, 
1584.00, 
1585.00, 
1586.00, 
1587.00, 
1588.00, 
1589.00, 
1590.00, 
1591.00, 
1592.00, 
1593.00, 
1594.00, 
1595.00, 
1596.00, 
1597.00, 
1598.00, 
1599.00, 
1600.00, 
1601.00, 
1602.00, 
1603.00, 
1604.00, 
1605.00, 
1606.00, 
1607.00, 
1608.00, 
1609.00, 
1610.00, 
1611.00, 
1612.00, 
1613.00, 
1614.00, 
1615.00, 
1616.00, 
1617.00, 
1618.00, 
1619.00, 
1620.00, 
1621.00, 
1622.00, 
1623.00, 
1624.00, 
1625.00, 
1626.00, 
1627.00, 
1628.00, 
1629.00, 
1630.00, 
1631.00, 
1632.00, 
1633.00, 
1634.00, 
1635.00, 
1636.00, 
1637.00, 
1638.00, 
1639.00, 
1640.00, 
1641.00, 
1642.00, 
1643.00, 
1644.00, 
1645.00, 
1646.00, 
1647.00, 
1648.00, 
1649.00, 
1650.00, 
1651.00, 
1652.00, 
1653.00, 
1654.00, 
1655.00, 
1656.00, 
1657.00, 
1658.00, 
1659.00, 
1660.00, 
1661.00, 
1662.00, 
1663.00, 
1664.00, 
1665.00, 
1666.00, 
1667.00, 
1668.00, 
1669.00, 
1670.00, 
1671.00, 
1672.00, 
1673.00, 
1674.00, 
1675.00, 
1676.00, 
1677.00, 
1678.00, 
1679.00, 
1680.00, 
1681.00, 
1682.00, 
1683.00, 
1684.00, 
1685.00, 
1686.00, 
1687.00, 
1688.00, 
1689.00, 
1690.00, 
1691.00, 
1692.00, 
1693.00, 
1694.00, 
1695.00, 
1696.00, 
1697.00, 
1698.00, 
1699.00, 
1700.00, 
1701.00, 
1702.00, 
1703.00, 
1704.00, 
1705.00, 
1706.00, 
1707.00, 
1708.00, 
1709.00, 
1710.00, 
1711.00, 
1712.00, 
1713.00, 
1714.00, 
1715.00, 
1716.00, 
1717.00, 
1718.00, 
1719.00, 
1720.00, 
1721.00, 
1722.00, 
1723.00, 
1724.00, 
1725.00, 
1726.00, 
1727.00, 
1728.00, 
1729.00, 
1730.00, 
1731.00, 
1732.00, 
1733.00, 
1734.00, 
1735.00, 
1736.00, 
1737.00, 
1738.00, 
1739.00, 
1740.00, 
1741.00, 
1742.00, 
1743.00, 
1744.00, 
1745.00, 
1746.00, 
1747.00, 
1748.00, 
1749.00, 
1750.00, 
1751.00, 
1752.00, 
1753.00, 
1754.00, 
1755.00, 
1756.00, 
1757.00, 
1758.00, 
1759.00, 
1760.00, 
1761.00, 
1762.00, 
1763.00, 
1764.00, 
1765.00, 
1766.00, 
1767.00, 
1768.00, 
1769.00, 
1770.00, 
1771.00, 
1772.00, 
1773.00, 
1774.00, 
1775.00, 
1776.00, 
1777.00, 
1778.00, 
1779.00, 
1780.00, 
1781.00, 
1782.00, 
1783.00, 
1784.00, 
1785.00, 
1786.00, 
1787.00, 
1788.00, 
1789.00, 
1790.00, 
1791.00, 
1792.00, 
1793.00, 
1794.00, 
1795.00, 
1796.00, 
1797.00, 
1798.00, 
1799.00, 
1800.00, 
1801.00, 
1802.00, 
1803.00, 
1804.00, 
1805.00, 
1806.00, 
1807.00, 
1808.00, 
1809.00, 
1810.00, 
1811.00, 
1812.00, 
1813.00, 
1814.00, 
1815.00, 
1816.00, 
1817.00, 
1818.00, 
1819.00, 
1820.00, 
1821.00, 
1822.00, 
1823.00, 
1824.00, 
1825.00, 
1826.00, 
1827.00, 
1828.00, 
1829.00, 
1830.00, 
1831.00, 
1832.00, 
1833.00, 
1834.00, 
1835.00, 
1836.00, 
1837.00, 
1838.00, 
1839.00, 
1840.00, 
1841.00, 
1842.00, 
1843.00, 
1844.00, 
1845.00, 
1846.00, 
1847.00, 
1848.00, 
1849.00, 
1850.00, 
1851.00, 
1852.00, 
1853.00, 
1854.00, 
1855.00, 
1856.00, 
1857.00, 
1858.00, 
1859.00, 
1860.00, 
1861.00, 
1862.00, 
1863.00, 
1864.00, 
1865.00, 
1866.00, 
1867.00, 
1868.00, 
1869.00, 
1870.00, 
1871.00, 
1872.00, 
1873.00, 
1874.00, 
1875.00, 
1876.00, 
1877.00, 
1878.00, 
1879.00, 
1880.00, 
1881.00, 
1882.00, 
1883.00, 
1884.00, 
1885.00, 
1886.00, 
1887.00, 
1888.00, 
1889.00, 
1890.00, 
1891.00, 
1892.00, 
1893.00, 
1894.00, 
1895.00, 
1896.00, 
1897.00, 
1898.00, 
1899.00, 
1900.00, 
1901.00, 
1902.00, 
1903.00, 
1904.00, 
1905.00, 
1906.00, 
1907.00, 
1908.00, 
1909.00, 
1910.00, 
1911.00, 
1912.00, 
1913.00, 
1914.00, 
1915.00, 
1916.00, 
1917.00, 
1918.00, 
1919.00, 
1920.00, 
1921.00, 
1922.00, 
1923.00, 
1924.00, 
1925.00, 
1926.00, 
1927.00, 
1928.00, 
1929.00, 
1930.00, 
1931.00, 
1932.00, 
1933.00, 
1934.00, 
1935.00, 
1936.00, 
1937.00, 
1938.00, 
1939.00, 
1940.00, 
1941.00, 
1942.00, 
1943.00, 
1944.00, 
1945.00, 
1946.00, 
1947.00, 
1948.00, 
1949.00, 
1950.00, 
1951.00, 
1952.00, 
1953.00, 
1954.00, 
1955.00, 
1956.00, 
1957.00, 
1958.00, 
1959.00, 
1960.00, 
1961.00, 
1962.00, 
1963.00, 
1964.00, 
1965.00, 
1966.00, 
1967.00, 
1968.00, 
1969.00, 
1970.00, 
1971.00, 
1972.00, 
1973.00, 
1974.00, 
1975.00, 
1976.00, 
1977.00, 
1978.00, 
1979.00, 
1980.00, 
1981.00, 
1982.00, 
1983.00, 
1984.00, 
1985.00, 
1986.00, 
1987.00, 
1988.00, 
1989.00, 
1990.00, 
1991.00, 
1992.00, 
1993.00, 
1994.00, 
1995.00, 
1996.00, 
1997.00, 
1998.00, 
1999.00, 
2000.00, 
2001.00, 
2002.00, 
2003.00, 
2004.00, 
2005.00, 
2006.00, 
2007.00, 
2008.00, 
2009.00, 
2010.00, 
2011.00, 
2012.00, 
2013.00, 
2014.00, 
2015.00, 
2016.00, 
2017.00, 
2018.00, 
2019.00, 
2020.00, 
2021.00, 
2022.00, 
2023.00, 
2024.00, 
2025.00, 
2026.00, 
2027.00, 
2028.00, 
2029.00, 
2030.00, 
2031.00, 
2032.00, 
2033.00, 
2034.00, 
2035.00, 
2036.00, 
2037.00, 
2038.00, 
2039.00, 
2040.00, 
2041.00, 
2042.00, 
2043.00, 
2044.00, 
2045.00, 
2046.00, 
2047.00, 
2048.00, 
2049.00, 
2050.00, 
2051.00, 
2052.00, 
2053.00, 
2054.00, 
2055.00, 
2056.00, 
2057.00, 
2058.00, 
2059.00, 
2060.00, 
2061.00, 
2062.00, 
2063.00, 
2064.00, 
2065.00, 
2066.00, 
2067.00, 
2068.00, 
2069.00, 
2070.00, 
2071.00, 
2072.00, 
2073.00, 
2074.00, 
2075.00, 
2076.00, 
2077.00, 
2078.00, 
2079.00, 
2080.00, 
2081.00, 
2082.00, 
2083.00, 
2084.00, 
2085.00, 
2086.00, 
2087.00, 
2088.00, 
2089.00, 
2090.00, 
2091.00, 
2092.00, 
2093.00, 
2094.00, 
2095.00, 
2096.00, 
2097.00, 
2098.00, 
2099.00, 
2100.00, 
2101.00, 
2102.00, 
2103.00, 
2104.00, 
2105.00, 
2106.00, 
2107.00, 
2108.00, 
2109.00, 
2110.00, 
2111.00, 
2112.00, 
2113.00, 
2114.00, 
2115.00, 
2116.00, 
2117.00, 
2118.00, 
2119.00, 
2120.00, 
2121.00, 
2122.00, 
2123.00, 
2124.00, 
2125.00, 
2126.00, 
2127.00, 
2128.00, 
2129.00, 
2130.00, 
2131.00, 
2132.00, 
2133.00, 
2134.00, 
2135.00, 
2136.00, 
2137.00, 
2138.00, 
2139.00, 
2140.00, 
2141.00, 
2142.00, 
2143.00, 
2144.00, 
2145.00, 
2146.00, 
2147.00, 
2148.00, 
2149.00, 
2150.00, 
2151.00, 
2152.00, 
2153.00, 
2154.00, 
2155.00, 
2156.00, 
2157.00, 
2158.00, 
2159.00, 
2160.00, 
2161.00, 
2162.00, 
2163.00, 
2164.00, 
2165.00, 
2166.00, 
2167.00, 
2168.00, 
2169.00, 
2170.00, 
2171.00, 
2172.00, 
2173.00, 
2174.00, 
2175.00, 
2176.00, 
2177.00, 
2178.00, 
2179.00, 
2180.00, 
2181.00, 
2182.00, 
2183.00, 
2184.00, 
2185.00, 
2186.00, 
2187.00, 
2188.00, 
2189.00, 
2190.00, 
2191.00, 
2192.00, 
2193.00, 
2194.00, 
2195.00, 
2196.00, 
2197.00, 
2198.00, 
2199.00, 
2200.00, 
2201.00, 
2202.00, 
2203.00, 
2204.00, 
2205.00, 
2206.00, 
2207.00, 
2208.00, 
2209.00, 
2210.00, 
2211.00, 
2212.00, 
2213.00, 
2214.00, 
2215.00, 
2216.00, 
2217.00, 
2218.00, 
2219.00, 
2220.00, 
2221.00, 
2222.00, 
2223.00, 
2224.00, 
2225.00, 
2226.00, 
2227.00, 
2228.00, 
2229.00, 
2230.00, 
2231.00, 
2232.00, 
2233.00, 
2234.00, 
2235.00, 
2236.00, 
2237.00, 
2238.00, 
2239.00, 
2240.00, 
2241.00, 
2242.00, 
2243.00, 
2244.00, 
2245.00, 
2246.00, 
2247.00, 
2248.00, 
2249.00, 
2250.00, 
2251.00, 
2252.00, 
2253.00, 
2254.00, 
2255.00, 
2256.00, 
2257.00, 
2258.00, 
2259.00, 
2260.00, 
2261.00, 
2262.00, 
2263.00, 
2264.00, 
2265.00, 
2266.00, 
2267.00, 
2268.00, 
2269.00, 
2270.00, 
2271.00, 
2272.00, 
2273.00, 
2274.00, 
2275.00, 
2276.00, 
2277.00, 
2278.00, 
2279.00, 
2280.00, 
2281.00, 
2282.00, 
2283.00, 
2284.00, 
2285.00, 
2286.00, 
2287.00, 
2288.00, 
2289.00, 
2290.00, 
2291.00, 
2292.00, 
2293.00, 
2294.00, 
2295.00, 
2296.00, 
2297.00, 
2298.00, 
2299.00, 
2300.00, 
2301.00, 
2302.00, 
2303.00, 
2304.00, 
2305.00, 
2306.00, 
2307.00, 
2308.00, 
2309.00, 
2310.00, 
2311.00, 
2312.00, 
2313.00, 
2314.00, 
2315.00, 
2316.00, 
2317.00, 
2318.00, 
2319.00, 
2320.00, 
2321.00, 
2322.00, 
2323.00, 
2324.00, 
2325.00, 
2326.00, 
2327.00, 
2328.00, 
2329.00, 
2330.00, 
2331.00, 
2332.00, 
2333.00, 
2334.00, 
2335.00, 
2336.00, 
2337.00, 
2338.00, 
2339.00, 
2340.00, 
2341.00, 
2342.00, 
2343.00, 
2344.00, 
2345.00, 
2346.00, 
2347.00, 
2348.00, 
2349.00, 
2350.00, 
2351.00, 
2352.00, 
2353.00, 
2354.00, 
2355.00, 
2356.00, 
2357.00, 
2358.00, 
2359.00, 
2360.00, 
2361.00, 
2362.00, 
2363.00, 
2364.00, 
2365.00, 
2366.00, 
2367.00, 
2368.00, 
2369.00, 
2370.00, 
2371.00, 
2372.00, 
2373.00, 
2374.00, 
2375.00, 
2376.00, 
2377.00, 
2378.00, 
2379.00, 
2380.00, 
2381.00, 
2382.00, 
2383.00, 
2384.00, 
2385.00, 
2386.00, 
2387.00, 
2388.00, 
2389.00, 
2390.00, 
2391.00, 
2392.00, 
2393.00, 
2394.00, 
2395.00, 
2396.00, 
2397.00, 
2398.00, 
2399.00, 
2400.00, 
2401.00, 
2402.00, 
2403.00, 
2404.00, 
2405.00, 
2406.00, 
2407.00, 
2408.00, 
2409.00, 
2410.00, 
2411.00, 
2412.00, 
2413.00, 
2414.00, 
2415.00, 
2416.00, 
2417.00, 
2418.00, 
2419.00, 
2420.00, 
2421.00, 
2422.00, 
2423.00, 
2424.00, 
2425.00, 
2426.00, 
2427.00, 
2428.00, 
2429.00, 
2430.00, 
2431.00, 
2432.00, 
2433.00, 
2434.00, 
2435.00, 
2436.00, 
2437.00, 
2438.00, 
2439.00, 
2440.00, 
2441.00, 
2442.00, 
2443.00, 
2444.00, 
2445.00, 
2446.00, 
2447.00, 
2448.00, 
2449.00, 
2450.00, 
2451.00, 
2452.00, 
2453.00, 
2454.00, 
2455.00, 
2456.00, 
2457.00, 
2458.00, 
2459.00, 
2460.00, 
2461.00, 
2462.00, 
2463.00, 
2464.00, 
2465.00, 
2466.00, 
2467.00, 
2468.00, 
2469.00, 
2470.00, 
2471.00, 
2472.00, 
2473.00, 
2474.00, 
2475.00, 
2476.00, 
2477.00, 
2478.00, 
2479.00, 
2480.00, 
2481.00, 
2482.00, 
2483.00, 
2484.00, 
2485.00, 
2486.00, 
2487.00, 
2488.00, 
2489.00, 
2490.00, 
2491.00, 
2492.00, 
2493.00, 
2494.00, 
2495.00, 
2496.00, 
2497.00, 
2498.00, 
2499.00, 
2500.00, 
2501.00, 
2502.00, 
2503.00, 
2504.00, 
2505.00, 
2506.00, 
2507.00, 
2508.00, 
2509.00, 
2510.00, 
2511.00, 
2512.00, 
2513.00, 
2514.00, 
2515.00, 
2516.00, 
2517.00, 
2518.00, 
2519.00, 
2520.00, 
2521.00, 
2522.00, 
2523.00, 
2524.00, 
2525.00, 
2526.00, 
2527.00, 
2528.00, 
2529.00, 
2530.00, 
2531.00, 
2532.00, 
2533.00, 
2534.00, 
2535.00, 
2536.00, 
2537.00, 
2538.00, 
2539.00, 
2540.00, 
2541.00, 
2542.00, 
2543.00, 
2544.00, 
2545.00, 
2546.00, 
2547.00, 
2548.00, 
2549.00, 
2550.00, 
2551.00, 
2552.00, 
2553.00, 
2554.00, 
2555.00, 
2556.00, 
2557.00, 
2558.00, 
2559.00, 
2560.00, 
2561.00, 
2562.00, 
2563.00, 
2564.00, 
2565.00, 
2566.00, 
2567.00, 
2568.00, 
2569.00, 
2570.00, 
2571.00, 
2572.00, 
2573.00, 
2574.00, 
2575.00, 
2576.00, 
2577.00, 
2578.00, 
2579.00, 
2580.00, 
2581.00, 
2582.00, 
2583.00, 
2584.00, 
2585.00, 
2586.00, 
2587.00, 
2588.00, 
2589.00, 
2590.00, 
2591.00, 
2592.00, 
2593.00, 
2594.00, 
2595.00, 
2596.00, 
2597.00, 
2598.00, 
2599.00, 
2600.00, 
