"2aP5 - RawData"
"Wavelength nm.","T%"
200.00,-0.002
201.00,-0.000
202.00,0.002
203.00,-0.001
204.00,0.002
205.00,0.003
206.00,0.001
207.00,0.001
208.00,0.001
209.00,0.000
210.00,-0.001
211.00,0.003
212.00,0.000
213.00,0.001
214.00,0.001
215.00,0.001
216.00,0.003
217.00,0.004
218.00,0.002
219.00,0.002
220.00,-0.000
221.00,0.002
222.00,0.003
223.00,-0.002
224.00,0.001
225.00,0.000
226.00,0.000
227.00,0.002
228.00,0.000
229.00,0.003
230.00,0.001
231.00,0.001
232.00,0.003
233.00,0.001
234.00,0.001
235.00,0.001
236.00,0.001
237.00,0.004
238.00,-0.001
239.00,0.001
240.00,0.001
241.00,-0.000
242.00,0.001
243.00,0.001
244.00,0.002
245.00,0.000
246.00,-0.001
247.00,0.001
248.00,0.001
249.00,-0.001
250.00,-0.000
251.00,0.000
252.00,-0.000
253.00,0.000
254.00,0.002
255.00,0.003
256.00,-0.001
257.00,0.000
258.00,-0.001
259.00,-0.000
260.00,0.001
261.00,0.001
262.00,-0.001
263.00,0.001
264.00,0.001
265.00,0.001
266.00,0.001
267.00,0.000
268.00,-0.001
269.00,-0.001
270.00,0.001
271.00,0.001
272.00,0.002
273.00,-0.000
274.00,-0.000
275.00,-0.000
276.00,-0.002
277.00,-0.001
278.00,0.001
279.00,0.002
280.00,0.001
281.00,0.001
282.00,-0.001
283.00,0.001
284.00,0.001
285.00,-0.001
286.00,0.001
287.00,0.000
288.00,0.001
289.00,0.001
290.00,0.001
291.00,0.000
292.00,0.000
293.00,0.002
294.00,0.000
295.00,-0.001
296.00,-0.001
297.00,0.000
298.00,0.000
299.00,0.001
300.00,0.002
301.00,0.004
302.00,0.004
303.00,0.005
304.00,0.010
305.00,0.016
306.00,0.024
307.00,0.036
308.00,0.059
309.00,0.089
310.00,0.122
311.00,0.165
312.00,0.230
313.00,0.312
314.00,0.403
315.00,0.522
316.00,0.652
317.00,0.838
318.00,1.022
319.00,1.258
320.00,1.521
321.00,1.833
322.00,2.177
323.00,2.555
324.00,2.961
325.00,3.347
326.00,3.768
327.00,4.273
328.00,4.770
329.00,5.250
330.00,5.796
331.00,6.312
332.00,6.855
333.00,7.435
334.00,7.973
335.00,8.526
336.00,9.064
337.00,9.653
338.00,10.193
339.00,10.656
340.00,11.151
341.00,11.679
342.00,12.170
343.00,12.605
344.00,13.043
345.00,13.502
346.00,13.858
347.00,14.193
348.00,14.557
349.00,14.882
350.00,15.183
351.00,15.440
352.00,15.696
353.00,15.983
354.00,16.201
355.00,16.453
356.00,16.662
357.00,16.795
358.00,16.976
359.00,17.182
360.00,17.343
361.00,17.454
362.00,17.582
363.00,17.709
364.00,17.759
365.00,17.814
366.00,17.923
367.00,17.945
368.00,18.004
369.00,18.010
370.00,18.076
371.00,18.099
372.00,18.062
373.00,18.035
374.00,18.072
375.00,18.057
376.00,18.004
377.00,17.955
378.00,17.861
379.00,17.826
380.00,17.795
381.00,17.817
382.00,17.760
383.00,17.812
384.00,17.771
385.00,17.818
386.00,17.796
387.00,17.827
388.00,17.879
389.00,17.853
390.00,17.849
391.00,17.855
392.00,17.877
393.00,17.919
394.00,17.861
395.00,17.884
396.00,17.842
397.00,17.895
398.00,17.895
399.00,17.882
400.00,17.882
401.00,17.873
402.00,17.867
403.00,17.861
404.00,17.845
405.00,17.838
406.00,17.813
407.00,17.799
408.00,17.801
409.00,17.758
410.00,17.725
411.00,17.758
412.00,17.686
413.00,17.734
414.00,17.689
415.00,17.711
416.00,17.761
417.00,17.737
418.00,17.792
419.00,17.825
420.00,17.885
421.00,17.909
422.00,17.912
423.00,17.962
424.00,18.014
425.00,18.037
426.00,18.057
427.00,18.121
428.00,18.167
429.00,18.201
430.00,18.262
431.00,18.309
432.00,18.356
433.00,18.434
434.00,18.480
435.00,18.546
436.00,18.620
437.00,18.679
438.00,18.799
439.00,18.883
440.00,18.866
441.00,18.955
442.00,19.017
443.00,19.144
444.00,19.218
445.00,19.317
446.00,19.413
447.00,19.508
448.00,19.616
449.00,19.726
450.00,19.807
451.00,19.870
452.00,20.029
453.00,20.129
454.00,20.260
455.00,20.383
456.00,20.540
457.00,20.596
458.00,20.708
459.00,20.845
460.00,20.969
461.00,21.091
462.00,21.224
463.00,21.363
464.00,21.472
465.00,21.636
466.00,21.795
467.00,21.891
468.00,21.986
469.00,22.202
470.00,22.214
471.00,22.368
472.00,22.497
473.00,22.599
474.00,22.707
475.00,22.855
476.00,22.981
477.00,23.102
478.00,23.240
479.00,23.428
480.00,23.564
481.00,23.677
482.00,23.834
483.00,23.980
484.00,24.179
485.00,24.313
486.00,24.473
487.00,24.657
488.00,24.750
489.00,24.934
490.00,25.069
491.00,25.220
492.00,25.451
493.00,25.600
494.00,25.618
495.00,25.790
496.00,25.865
497.00,26.035
498.00,26.197
499.00,26.349
500.00,26.499
501.00,26.607
502.00,26.763
503.00,26.925
504.00,26.997
505.00,27.130
506.00,27.287
507.00,27.388
508.00,27.532
509.00,27.651
510.00,27.793
511.00,27.912
512.00,28.055
513.00,28.216
514.00,28.311
515.00,28.476
516.00,28.606
517.00,28.698
518.00,28.855
519.00,28.919
520.00,28.997
521.00,29.125
522.00,29.225
523.00,29.290
524.00,29.403
525.00,29.540
526.00,29.628
527.00,29.710
528.00,29.793
529.00,29.986
530.00,30.093
531.00,30.223
532.00,30.303
533.00,30.414
534.00,30.504
535.00,30.634
536.00,30.715
537.00,30.737
538.00,30.823
539.00,30.892
540.00,30.956
541.00,31.026
542.00,31.134
543.00,31.211
544.00,31.256
545.00,31.330
546.00,31.406
547.00,31.485
548.00,31.577
549.00,31.621
550.00,31.642
551.00,31.868
552.00,31.920
553.00,31.866
554.00,31.972
555.00,32.135
556.00,32.212
557.00,32.312
558.00,32.311
559.00,32.410
560.00,32.415
561.00,32.496
562.00,32.620
563.00,32.569
564.00,32.654
565.00,32.707
566.00,32.757
567.00,32.795
568.00,32.824
569.00,32.909
570.00,32.951
571.00,32.999
572.00,33.046
573.00,33.076
574.00,33.113
575.00,33.145
576.00,33.137
577.00,33.219
578.00,33.307
579.00,33.365
580.00,33.402
581.00,33.559
582.00,33.596
583.00,33.631
584.00,33.709
585.00,33.769
586.00,33.806
587.00,33.938
588.00,33.943
589.00,33.934
590.00,34.045
591.00,34.051
592.00,34.014
593.00,34.081
594.00,34.198
595.00,34.242
596.00,34.374
597.00,34.390
598.00,34.409
599.00,34.417
600.00,34.570
601.00,34.606
602.00,34.580
603.00,34.660
604.00,34.715
605.00,34.778
606.00,34.826
607.00,34.898
608.00,35.033
609.00,35.147
610.00,35.032
611.00,35.075
612.00,35.149
613.00,35.231
614.00,35.232
615.00,35.321
616.00,35.478
617.00,35.458
618.00,35.454
619.00,35.575
620.00,35.611
621.00,35.665
622.00,35.752
623.00,35.809
624.00,35.961
625.00,36.026
626.00,36.074
627.00,36.161
628.00,36.176
629.00,36.248
630.00,36.271
631.00,36.311
632.00,36.465
633.00,36.517
634.00,36.644
635.00,36.750
636.00,36.770
637.00,36.780
638.00,37.026
639.00,37.256
640.00,37.168
641.00,37.186
642.00,37.292
643.00,37.454
644.00,37.452
645.00,37.552
646.00,37.780
647.00,37.842
648.00,37.988
649.00,38.072
650.00,38.001
651.00,38.161
652.00,38.240
653.00,38.350
654.00,38.425
655.00,38.606
656.00,38.872
657.00,38.848
658.00,38.883
659.00,39.044
660.00,39.050
661.00,39.122
662.00,39.218
663.00,39.450
664.00,39.948
665.00,39.874
666.00,39.776
667.00,39.864
668.00,39.998
669.00,40.284
670.00,40.521
671.00,40.415
672.00,40.556
673.00,40.654
674.00,40.760
675.00,40.892
676.00,41.048
677.00,41.276
678.00,41.049
679.00,41.215
680.00,41.422
681.00,41.643
682.00,41.592
683.00,41.750
684.00,41.955
685.00,41.963
686.00,41.929
687.00,42.124
688.00,42.262
689.00,42.353
690.00,42.594
691.00,42.893
692.00,42.518
693.00,42.452
694.00,42.956
695.00,43.346
696.00,43.288
697.00,43.203
698.00,43.404
699.00,43.618
700.00,43.680
701.00,43.764
702.00,43.934
703.00,44.167
704.00,44.126
705.00,44.206
706.00,44.343
707.00,44.407
708.00,44.267
709.00,44.674
710.00,45.096
711.00,44.641
712.00,44.826
713.00,44.950
714.00,45.141
715.00,45.128
716.00,45.158
717.00,45.313
718.00,45.460
719.00,45.539
720.00,45.589
721.00,50.108
722.00,50.139
723.00,50.132
724.00,50.129
725.00,50.181
726.00,50.320
727.00,50.349
728.00,50.328
729.00,50.337
730.00,50.526
731.00,50.586
732.00,50.611
733.00,50.663
734.00,50.711
735.00,50.795
736.00,50.847
737.00,50.934
738.00,51.020
739.00,51.046
740.00,51.112
741.00,51.136
742.00,51.204
743.00,51.266
744.00,51.309
745.00,51.272
746.00,51.319
747.00,51.350
748.00,51.389
749.00,51.415
750.00,51.450
751.00,51.474
752.00,51.490
753.00,51.531
754.00,51.420
755.00,51.516
756.00,51.600
757.00,51.606
758.00,51.661
759.00,51.646
760.00,51.695
761.00,51.702
762.00,51.732
763.00,51.838
764.00,51.792
765.00,51.894
766.00,51.844
767.00,51.893
768.00,51.975
769.00,51.940
770.00,52.085
771.00,52.127
772.00,52.106
773.00,52.040
774.00,52.111
775.00,52.091
776.00,52.139
777.00,52.161
778.00,52.145
779.00,52.264
780.00,52.283
781.00,52.287
782.00,52.295
783.00,52.266
784.00,52.311
785.00,52.240
786.00,52.282
787.00,52.353
788.00,52.337
789.00,52.320
790.00,52.274
791.00,52.395
792.00,52.289
793.00,52.345
794.00,52.334
795.00,52.324
796.00,52.398
797.00,52.283
798.00,52.353
799.00,52.326
800.00,52.344
801.00,52.281
802.00,52.274
803.00,52.285
804.00,52.299
805.00,52.350
806.00,52.289
807.00,52.232
808.00,52.254
809.00,52.291
810.00,52.337
811.00,52.321
812.00,52.376
813.00,52.271
814.00,52.283
815.00,52.267
816.00,52.317
817.00,52.273
818.00,52.162
819.00,52.129
820.00,52.176
821.00,52.173
822.00,52.224
823.00,52.153
824.00,52.127
825.00,52.155
826.00,52.158
827.00,52.204
828.00,52.227
829.00,52.096
830.00,52.259
831.00,54.358
832.00,54.362
833.00,54.311
834.00,54.316
835.00,54.262
836.00,54.286
837.00,54.262
838.00,54.234
839.00,54.260
840.00,54.268
841.00,54.259
842.00,54.207
843.00,54.199
844.00,54.184
845.00,54.169
846.00,54.159
847.00,54.159
848.00,54.168
849.00,54.106
850.00,54.101
851.00,54.024
852.00,54.053
853.00,54.001
854.00,53.958
855.00,53.942
856.00,53.930
857.00,53.914
858.00,53.864
859.00,53.781
860.00,53.972
861.00,53.884
862.00,53.833
863.00,53.823
864.00,53.777
865.00,53.827
866.00,53.753
867.00,53.787
868.00,53.763
869.00,53.759
870.00,53.735
871.00,53.771
872.00,53.790
873.00,53.730
874.00,53.755
875.00,53.864
876.00,53.722
877.00,53.700
878.00,53.690
879.00,53.678
880.00,53.668
881.00,53.663
882.00,53.714
883.00,53.641
884.00,53.617
885.00,53.612
886.00,53.626
887.00,53.541
888.00,53.538
889.00,53.520
890.00,53.504
891.00,53.462
892.00,53.467
893.00,53.451
894.00,53.463
895.00,53.429
896.00,53.415
897.00,53.370
898.00,53.373
899.00,53.340
900.00,53.355
901.00,53.342
902.00,53.351
903.00,53.297
904.00,53.314
905.00,53.311
906.00,53.279
907.00,53.263
908.00,53.257
909.00,53.246
910.00,53.190
911.00,53.189
912.00,53.183
913.00,53.189
914.00,53.008
915.00,53.195
916.00,53.082
917.00,53.083
918.00,53.074
919.00,53.036
920.00,53.018
921.00,53.027
922.00,53.006
923.00,52.994
924.00,52.944
925.00,52.945
926.00,52.959
927.00,52.951
928.00,52.878
929.00,52.881
930.00,52.847
931.00,52.846
932.00,52.796
933.00,52.809
934.00,52.791
935.00,52.753
936.00,52.733
937.00,52.728
938.00,52.680
939.00,52.708
940.00,52.669
941.00,52.656
942.00,52.632
943.00,52.642
944.00,52.602
945.00,52.603
946.00,52.604
947.00,52.547
948.00,52.542
949.00,52.495
950.00,52.510
951.00,52.482
952.00,52.455
953.00,52.431
954.00,52.414
955.00,52.361
956.00,52.352
957.00,52.329
958.00,52.336
959.00,52.255
960.00,52.266
961.00,52.277
962.00,52.273
963.00,52.219
964.00,52.225
965.00,52.217
966.00,52.193
967.00,52.209
968.00,52.169
969.00,52.216
970.00,52.181
971.00,52.173
972.00,52.152
973.00,52.214
974.00,52.187
975.00,52.170
976.00,52.245
977.00,52.179
978.00,52.231
979.00,52.177
980.00,52.185
981.00,52.196
982.00,52.128
983.00,52.178
984.00,52.134
985.00,52.151
986.00,52.151
987.00,52.148
988.00,52.113
989.00,52.111
990.00,52.116
991.00,52.106
992.00,52.108
993.00,52.071
994.00,52.052
995.00,52.043
996.00,52.018
997.00,52.015
998.00,51.992
999.00,52.010
1000.00,51.971
1001.00,51.958
1002.00,51.967
1003.00,51.947
1004.00,51.923
1005.00,51.902
1006.00,51.953
1007.00,51.921
1008.00,51.915
1009.00,51.888
1010.00,51.880
1011.00,51.871
1012.00,51.828
1013.00,51.837
1014.00,51.801
1015.00,51.800
1016.00,51.775
1017.00,51.771
1018.00,51.756
1019.00,51.722
1020.00,51.719
1021.00,51.708
1022.00,51.700
1023.00,51.642
1024.00,51.648
1025.00,51.608
1026.00,51.618
1027.00,51.591
1028.00,51.592
1029.00,51.570
1030.00,51.550
1031.00,51.562
1032.00,51.516
1033.00,51.533
1034.00,51.499
1035.00,51.463
1036.00,51.440
1037.00,51.412
1038.00,51.405
1039.00,51.374
1040.00,51.364
1041.00,51.337
1042.00,51.329
1043.00,51.305
1044.00,51.338
1045.00,51.305
1046.00,51.306
1047.00,51.338
1048.00,51.327
1049.00,51.350
1050.00,51.343
1051.00,51.375
1052.00,51.393
1053.00,51.397
1054.00,51.391
1055.00,51.418
1056.00,51.424
1057.00,51.412
1058.00,51.400
1059.00,51.401
1060.00,51.413
1061.00,51.383
1062.00,51.362
1063.00,51.375
1064.00,51.366
1065.00,51.345
1066.00,51.353
1067.00,51.335
1068.00,51.357
1069.00,51.313
1070.00,51.304
1071.00,51.280
1072.00,51.304
1073.00,51.261
1074.00,51.277
1075.00,51.256
1076.00,51.254
1077.00,51.242
1078.00,51.215
1079.00,51.232
1080.00,51.236
1081.00,51.210
1082.00,51.234
1083.00,51.215
1084.00,51.197
1085.00,51.208
1086.00,51.185
1087.00,51.188
1088.00,51.170
1089.00,51.165
1090.00,51.157
1091.00,51.161
1092.00,51.134
1093.00,51.128
1094.00,51.103
1095.00,51.074
1096.00,51.069
1097.00,51.078
1098.00,51.067
1099.00,51.066
1100.00,51.043
1101.00,51.045
1102.00,51.033
1103.00,51.030
1104.00,51.028
1105.00,51.012
1106.00,50.986
1107.00,51.003
1108.00,50.969
1109.00,50.962
1110.00,50.968
1111.00,50.957
1112.00,50.942
1113.00,50.945
1114.00,50.919
1115.00,50.944
1116.00,50.932
1117.00,50.905
1118.00,50.894
1119.00,50.893
1120.00,50.887
1121.00,50.898
1122.00,50.876
1123.00,50.861
1124.00,50.863
1125.00,50.846
1126.00,50.840
1127.00,50.854
1128.00,50.830
1129.00,50.810
1130.00,50.773
1131.00,50.793
1132.00,50.789
1133.00,50.798
1134.00,50.769
1135.00,50.756
1136.00,50.746
1137.00,50.753
1138.00,50.751
1139.00,50.743
1140.00,50.740
1141.00,50.728
1142.00,50.720
1143.00,50.758
1144.00,50.706
1145.00,50.715
1146.00,50.723
1147.00,50.694
1148.00,50.699
1149.00,50.717
1150.00,50.708
1151.00,50.717
1152.00,50.697
1153.00,50.702
1154.00,50.692
1155.00,50.689
1156.00,50.672
1157.00,50.683
1158.00,50.660
1159.00,50.667
1160.00,50.670
1161.00,50.669
1162.00,50.672
1163.00,50.663
1164.00,50.674
1165.00,50.683
1166.00,50.683
1167.00,50.663
1168.00,50.690
1169.00,50.658
1170.00,50.652
1171.00,50.624
1172.00,50.622
1173.00,50.623
1174.00,50.630
1175.00,50.616
1176.00,50.625
1177.00,50.606
1178.00,50.617
1179.00,50.634
1180.00,50.613
1181.00,50.642
1182.00,50.620
1183.00,50.612
1184.00,50.613
1185.00,50.616
1186.00,50.597
1187.00,50.611
1188.00,50.608
1189.00,50.615
1190.00,50.606
1191.00,50.574
1192.00,50.610
1193.00,50.595
1194.00,50.589
1195.00,50.569
1196.00,50.591
1197.00,50.604
1198.00,50.588
1199.00,50.588
1200.00,50.586
1201.00,50.614
1202.00,50.590
1203.00,50.602
1204.00,50.600
1205.00,50.587
1206.00,50.583
1207.00,50.576
1208.00,50.551
1209.00,50.565
1210.00,50.565
1211.00,50.573
1212.00,50.586
1213.00,50.537
1214.00,50.564
1215.00,50.541
1216.00,50.573
1217.00,50.568
1218.00,50.571
1219.00,50.593
1220.00,50.551
1221.00,50.560
1222.00,50.544
1223.00,50.573
1224.00,50.557
1225.00,50.552
1226.00,50.556
1227.00,50.538
1228.00,50.567
1229.00,50.558
1230.00,50.589
1231.00,50.592
1232.00,50.603
1233.00,50.605
1234.00,50.608
1235.00,50.590
1236.00,50.602
1237.00,50.604
1238.00,50.586
1239.00,50.613
1240.00,50.577
1241.00,50.591
1242.00,50.612
1243.00,50.613
1244.00,50.584
1245.00,50.619
1246.00,50.620
1247.00,50.622
1248.00,50.616
1249.00,50.635
1250.00,50.668
1251.00,50.631
1252.00,50.630
1253.00,50.626
1254.00,50.649
1255.00,50.624
1256.00,50.604
1257.00,50.571
1258.00,50.636
1259.00,50.608
1260.00,50.628
1261.00,50.638
1262.00,50.622
1263.00,50.625
1264.00,50.631
1265.00,50.648
1266.00,50.659
1267.00,50.680
1268.00,50.671
1269.00,50.670
1270.00,50.680
1271.00,50.669
1272.00,50.688
1273.00,50.689
1274.00,50.683
1275.00,50.706
1276.00,50.703
1277.00,50.709
1278.00,50.727
1279.00,50.725
1280.00,50.709
1281.00,50.725
1282.00,50.732
1283.00,50.744
1284.00,50.744
1285.00,50.730
1286.00,50.767
1287.00,50.747
1288.00,50.756
1289.00,50.747
1290.00,50.754
1291.00,50.754
1292.00,50.730
1293.00,50.740
1294.00,50.754
1295.00,50.775
1296.00,50.803
1297.00,50.789
1298.00,50.821
1299.00,50.794
1300.00,50.815
1301.00,50.801
1302.00,50.824
1303.00,50.826
1304.00,50.797
1305.00,50.846
1306.00,50.841
1307.00,50.841
1308.00,50.852
1309.00,50.859
1310.00,50.857
1311.00,50.852
1312.00,50.864
1313.00,50.869
1314.00,50.882
1315.00,50.880
1316.00,50.868
1317.00,50.894
1318.00,50.891
1319.00,50.906
1320.00,50.907
1321.00,51.076
1322.00,51.077
1323.00,51.062
1324.00,51.065
1325.00,51.038
1326.00,51.047
1327.00,51.030
1328.00,51.031
1329.00,51.019
1330.00,51.021
1331.00,51.041
1332.00,51.027
1333.00,51.042
1334.00,51.075
1335.00,51.073
1336.00,51.100
1337.00,51.123
1338.00,51.167
1339.00,51.225
1340.00,51.298
1341.00,51.361
1342.00,51.437
1343.00,51.463
1344.00,51.520
1345.00,51.599
1346.00,51.610
1347.00,51.621
1348.00,51.674
1349.00,51.677
1350.00,51.702
1351.00,51.711
1352.00,51.708
1353.00,51.777
1354.00,51.714
1355.00,51.655
1356.00,51.743
1357.00,51.735
1358.00,51.765
1359.00,51.773
1360.00,51.755
1361.00,51.733
1362.00,51.776
1363.00,51.811
1364.00,51.819
1365.00,51.756
1366.00,51.829
1367.00,51.895
1368.00,51.788
1369.00,51.742
1370.00,51.779
1371.00,51.689
1372.00,51.718
1373.00,51.714
1374.00,51.739
1375.00,51.739
1376.00,51.719
1377.00,51.699
1378.00,51.830
1379.00,51.770
1380.00,51.751
1381.00,51.801
1382.00,51.629
1383.00,51.736
1384.00,51.694
1385.00,51.676
1386.00,51.749
1387.00,51.779
1388.00,51.683
1389.00,51.731
1390.00,51.723
1391.00,51.823
1392.00,51.761
1393.00,51.692
1394.00,51.736
1395.00,51.727
1396.00,51.661
1397.00,51.761
1398.00,51.814
1399.00,51.730
1400.00,51.751
1401.00,51.726
1402.00,51.735
1403.00,51.743
1404.00,51.766
1405.00,51.781
1406.00,51.801
1407.00,51.772
1408.00,51.845
1409.00,51.761
1410.00,51.802
1411.00,51.809
1412.00,51.849
1413.00,51.781
1414.00,51.802
1415.00,51.832
1416.00,51.900
1417.00,51.975
1418.00,51.928
1419.00,51.862
1420.00,51.879
1421.00,51.937
1422.00,51.926
1423.00,51.911
1424.00,51.924
1425.00,51.947
1426.00,51.942
1427.00,51.969
1428.00,51.958
1429.00,51.961
1430.00,51.995
1431.00,52.008
1432.00,52.026
1433.00,52.044
1434.00,52.025
1435.00,52.092
1436.00,52.088
1437.00,52.074
1438.00,52.099
1439.00,52.117
1440.00,52.113
1441.00,52.138
1442.00,52.167
1443.00,52.190
1444.00,52.245
1445.00,52.164
1446.00,52.206
1447.00,52.254
1448.00,52.280
1449.00,52.278
1450.00,52.261
1451.00,52.270
1452.00,52.306
1453.00,52.305
1454.00,52.330
1455.00,52.372
1456.00,52.374
1457.00,52.384
1458.00,52.409
1459.00,52.418
1460.00,52.446
1461.00,52.430
1462.00,52.471
1463.00,52.488
1464.00,52.487
1465.00,52.497
1466.00,52.489
1467.00,52.511
1468.00,52.570
1469.00,52.538
1470.00,52.544
1471.00,52.591
1472.00,52.603
1473.00,52.594
1474.00,52.631
1475.00,52.637
1476.00,52.638
1477.00,52.638
1478.00,52.675
1479.00,52.714
1480.00,52.711
1481.00,52.700
1482.00,52.747
1483.00,52.731
1484.00,52.763
1485.00,52.776
1486.00,52.777
1487.00,52.803
1488.00,52.829
1489.00,52.813
1490.00,52.839
1491.00,52.837
1492.00,52.856
1493.00,52.841
1494.00,52.876
1495.00,52.860
1496.00,52.888
1497.00,52.868
1498.00,52.886
1499.00,52.902
1500.00,52.915
1501.00, 
1502.00, 
1503.00, 
1504.00, 
1505.00, 
1506.00, 
1507.00, 
1508.00, 
1509.00, 
1510.00, 
1511.00, 
1512.00, 
1513.00, 
1514.00, 
1515.00, 
1516.00, 
1517.00, 
1518.00, 
1519.00, 
1520.00, 
1521.00, 
1522.00, 
1523.00, 
1524.00, 
1525.00, 
1526.00, 
1527.00, 
1528.00, 
1529.00, 
1530.00, 
1531.00, 
1532.00, 
1533.00, 
1534.00, 
1535.00, 
1536.00, 
1537.00, 
1538.00, 
1539.00, 
1540.00, 
1541.00, 
1542.00, 
1543.00, 
1544.00, 
1545.00, 
1546.00, 
1547.00, 
1548.00, 
1549.00, 
1550.00, 
1551.00, 
1552.00, 
1553.00, 
1554.00, 
1555.00, 
1556.00, 
1557.00, 
1558.00, 
1559.00, 
1560.00, 
1561.00, 
1562.00, 
1563.00, 
1564.00, 
1565.00, 
1566.00, 
1567.00, 
1568.00, 
1569.00, 
1570.00, 
1571.00, 
1572.00, 
1573.00, 
1574.00, 
1575.00, 
1576.00, 
1577.00, 
1578.00, 
1579.00, 
1580.00, 
1581.00, 
1582.00, 
1583.00, 
1584.00, 
1585.00, 
1586.00, 
1587.00, 
1588.00, 
1589.00, 
1590.00, 
1591.00, 
1592.00, 
1593.00, 
1594.00, 
1595.00, 
1596.00, 
1597.00, 
1598.00, 
1599.00, 
1600.00, 
1601.00, 
1602.00, 
1603.00, 
1604.00, 
1605.00, 
1606.00, 
1607.00, 
1608.00, 
1609.00, 
1610.00, 
1611.00, 
1612.00, 
1613.00, 
1614.00, 
1615.00, 
1616.00, 
1617.00, 
1618.00, 
1619.00, 
1620.00, 
1621.00, 
1622.00, 
1623.00, 
1624.00, 
1625.00, 
1626.00, 
1627.00, 
1628.00, 
1629.00, 
1630.00, 
1631.00, 
1632.00, 
1633.00, 
1634.00, 
1635.00, 
1636.00, 
1637.00, 
1638.00, 
1639.00, 
1640.00, 
1641.00, 
1642.00, 
1643.00, 
1644.00, 
1645.00, 
1646.00, 
1647.00, 
1648.00, 
1649.00, 
1650.00, 
1651.00, 
1652.00, 
1653.00, 
1654.00, 
1655.00, 
1656.00, 
1657.00, 
1658.00, 
1659.00, 
1660.00, 
1661.00, 
1662.00, 
1663.00, 
1664.00, 
1665.00, 
1666.00, 
1667.00, 
1668.00, 
1669.00, 
1670.00, 
1671.00, 
1672.00, 
1673.00, 
1674.00, 
1675.00, 
1676.00, 
1677.00, 
1678.00, 
1679.00, 
1680.00, 
1681.00, 
1682.00, 
1683.00, 
1684.00, 
1685.00, 
1686.00, 
1687.00, 
1688.00, 
1689.00, 
1690.00, 
1691.00, 
1692.00, 
1693.00, 
1694.00, 
1695.00, 
1696.00, 
1697.00, 
1698.00, 
1699.00, 
1700.00, 
1701.00, 
1702.00, 
1703.00, 
1704.00, 
1705.00, 
1706.00, 
1707.00, 
1708.00, 
1709.00, 
1710.00, 
1711.00, 
1712.00, 
1713.00, 
1714.00, 
1715.00, 
1716.00, 
1717.00, 
1718.00, 
1719.00, 
1720.00, 
1721.00, 
1722.00, 
1723.00, 
1724.00, 
1725.00, 
1726.00, 
1727.00, 
1728.00, 
1729.00, 
1730.00, 
1731.00, 
1732.00, 
1733.00, 
1734.00, 
1735.00, 
1736.00, 
1737.00, 
1738.00, 
1739.00, 
1740.00, 
1741.00, 
1742.00, 
1743.00, 
1744.00, 
1745.00, 
1746.00, 
1747.00, 
1748.00, 
1749.00, 
1750.00, 
1751.00, 
1752.00, 
1753.00, 
1754.00, 
1755.00, 
1756.00, 
1757.00, 
1758.00, 
1759.00, 
1760.00, 
1761.00, 
1762.00, 
1763.00, 
1764.00, 
1765.00, 
1766.00, 
1767.00, 
1768.00, 
1769.00, 
1770.00, 
1771.00, 
1772.00, 
1773.00, 
1774.00, 
1775.00, 
1776.00, 
1777.00, 
1778.00, 
1779.00, 
1780.00, 
1781.00, 
1782.00, 
1783.00, 
1784.00, 
1785.00, 
1786.00, 
1787.00, 
1788.00, 
1789.00, 
1790.00, 
1791.00, 
1792.00, 
1793.00, 
1794.00, 
1795.00, 
1796.00, 
1797.00, 
1798.00, 
1799.00, 
1800.00, 
1801.00, 
1802.00, 
1803.00, 
1804.00, 
1805.00, 
1806.00, 
1807.00, 
1808.00, 
1809.00, 
1810.00, 
1811.00, 
1812.00, 
1813.00, 
1814.00, 
1815.00, 
1816.00, 
1817.00, 
1818.00, 
1819.00, 
1820.00, 
1821.00, 
1822.00, 
1823.00, 
1824.00, 
1825.00, 
1826.00, 
1827.00, 
1828.00, 
1829.00, 
1830.00, 
1831.00, 
1832.00, 
1833.00, 
1834.00, 
1835.00, 
1836.00, 
1837.00, 
1838.00, 
1839.00, 
1840.00, 
1841.00, 
1842.00, 
1843.00, 
1844.00, 
1845.00, 
1846.00, 
1847.00, 
1848.00, 
1849.00, 
1850.00, 
1851.00, 
1852.00, 
1853.00, 
1854.00, 
1855.00, 
1856.00, 
1857.00, 
1858.00, 
1859.00, 
1860.00, 
1861.00, 
1862.00, 
1863.00, 
1864.00, 
1865.00, 
1866.00, 
1867.00, 
1868.00, 
1869.00, 
1870.00, 
1871.00, 
1872.00, 
1873.00, 
1874.00, 
1875.00, 
1876.00, 
1877.00, 
1878.00, 
1879.00, 
1880.00, 
1881.00, 
1882.00, 
1883.00, 
1884.00, 
1885.00, 
1886.00, 
1887.00, 
1888.00, 
1889.00, 
1890.00, 
1891.00, 
1892.00, 
1893.00, 
1894.00, 
1895.00, 
1896.00, 
1897.00, 
1898.00, 
1899.00, 
1900.00, 
1901.00, 
1902.00, 
1903.00, 
1904.00, 
1905.00, 
1906.00, 
1907.00, 
1908.00, 
1909.00, 
1910.00, 
1911.00, 
1912.00, 
1913.00, 
1914.00, 
1915.00, 
1916.00, 
1917.00, 
1918.00, 
1919.00, 
1920.00, 
1921.00, 
1922.00, 
1923.00, 
1924.00, 
1925.00, 
1926.00, 
1927.00, 
1928.00, 
1929.00, 
1930.00, 
1931.00, 
1932.00, 
1933.00, 
1934.00, 
1935.00, 
1936.00, 
1937.00, 
1938.00, 
1939.00, 
1940.00, 
1941.00, 
1942.00, 
1943.00, 
1944.00, 
1945.00, 
1946.00, 
1947.00, 
1948.00, 
1949.00, 
1950.00, 
1951.00, 
1952.00, 
1953.00, 
1954.00, 
1955.00, 
1956.00, 
1957.00, 
1958.00, 
1959.00, 
1960.00, 
1961.00, 
1962.00, 
1963.00, 
1964.00, 
1965.00, 
1966.00, 
1967.00, 
1968.00, 
1969.00, 
1970.00, 
1971.00, 
1972.00, 
1973.00, 
1974.00, 
1975.00, 
1976.00, 
1977.00, 
1978.00, 
1979.00, 
1980.00, 
1981.00, 
1982.00, 
1983.00, 
1984.00, 
1985.00, 
1986.00, 
1987.00, 
1988.00, 
1989.00, 
1990.00, 
1991.00, 
1992.00, 
1993.00, 
1994.00, 
1995.00, 
1996.00, 
1997.00, 
1998.00, 
1999.00, 
2000.00, 
2001.00, 
2002.00, 
2003.00, 
2004.00, 
2005.00, 
2006.00, 
2007.00, 
2008.00, 
2009.00, 
2010.00, 
2011.00, 
2012.00, 
2013.00, 
2014.00, 
2015.00, 
2016.00, 
2017.00, 
2018.00, 
2019.00, 
2020.00, 
2021.00, 
2022.00, 
2023.00, 
2024.00, 
2025.00, 
2026.00, 
2027.00, 
2028.00, 
2029.00, 
2030.00, 
2031.00, 
2032.00, 
2033.00, 
2034.00, 
2035.00, 
2036.00, 
2037.00, 
2038.00, 
2039.00, 
2040.00, 
2041.00, 
2042.00, 
2043.00, 
2044.00, 
2045.00, 
2046.00, 
2047.00, 
2048.00, 
2049.00, 
2050.00, 
2051.00, 
2052.00, 
2053.00, 
2054.00, 
2055.00, 
2056.00, 
2057.00, 
2058.00, 
2059.00, 
2060.00, 
2061.00, 
2062.00, 
2063.00, 
2064.00, 
2065.00, 
2066.00, 
2067.00, 
2068.00, 
2069.00, 
2070.00, 
2071.00, 
2072.00, 
2073.00, 
2074.00, 
2075.00, 
2076.00, 
2077.00, 
2078.00, 
2079.00, 
2080.00, 
2081.00, 
2082.00, 
2083.00, 
2084.00, 
2085.00, 
2086.00, 
2087.00, 
2088.00, 
2089.00, 
2090.00, 
2091.00, 
2092.00, 
2093.00, 
2094.00, 
2095.00, 
2096.00, 
2097.00, 
2098.00, 
2099.00, 
2100.00, 
2101.00, 
2102.00, 
2103.00, 
2104.00, 
2105.00, 
2106.00, 
2107.00, 
2108.00, 
2109.00, 
2110.00, 
2111.00, 
2112.00, 
2113.00, 
2114.00, 
2115.00, 
2116.00, 
2117.00, 
2118.00, 
2119.00, 
2120.00, 
2121.00, 
2122.00, 
2123.00, 
2124.00, 
2125.00, 
2126.00, 
2127.00, 
2128.00, 
2129.00, 
2130.00, 
2131.00, 
2132.00, 
2133.00, 
2134.00, 
2135.00, 
2136.00, 
2137.00, 
2138.00, 
2139.00, 
2140.00, 
2141.00, 
2142.00, 
2143.00, 
2144.00, 
2145.00, 
2146.00, 
2147.00, 
2148.00, 
2149.00, 
2150.00, 
2151.00, 
2152.00, 
2153.00, 
2154.00, 
2155.00, 
2156.00, 
2157.00, 
2158.00, 
2159.00, 
2160.00, 
2161.00, 
2162.00, 
2163.00, 
2164.00, 
2165.00, 
2166.00, 
2167.00, 
2168.00, 
2169.00, 
2170.00, 
2171.00, 
2172.00, 
2173.00, 
2174.00, 
2175.00, 
2176.00, 
2177.00, 
2178.00, 
2179.00, 
2180.00, 
2181.00, 
2182.00, 
2183.00, 
2184.00, 
2185.00, 
2186.00, 
2187.00, 
2188.00, 
2189.00, 
2190.00, 
2191.00, 
2192.00, 
2193.00, 
2194.00, 
2195.00, 
2196.00, 
2197.00, 
2198.00, 
2199.00, 
2200.00, 
2201.00, 
2202.00, 
2203.00, 
2204.00, 
2205.00, 
2206.00, 
2207.00, 
2208.00, 
2209.00, 
2210.00, 
2211.00, 
2212.00, 
2213.00, 
2214.00, 
2215.00, 
2216.00, 
2217.00, 
2218.00, 
2219.00, 
2220.00, 
2221.00, 
2222.00, 
2223.00, 
2224.00, 
2225.00, 
2226.00, 
2227.00, 
2228.00, 
2229.00, 
2230.00, 
2231.00, 
2232.00, 
2233.00, 
2234.00, 
2235.00, 
2236.00, 
2237.00, 
2238.00, 
2239.00, 
2240.00, 
2241.00, 
2242.00, 
2243.00, 
2244.00, 
2245.00, 
2246.00, 
2247.00, 
2248.00, 
2249.00, 
2250.00, 
2251.00, 
2252.00, 
2253.00, 
2254.00, 
2255.00, 
2256.00, 
2257.00, 
2258.00, 
2259.00, 
2260.00, 
2261.00, 
2262.00, 
2263.00, 
2264.00, 
2265.00, 
2266.00, 
2267.00, 
2268.00, 
2269.00, 
2270.00, 
2271.00, 
2272.00, 
2273.00, 
2274.00, 
2275.00, 
2276.00, 
2277.00, 
2278.00, 
2279.00, 
2280.00, 
2281.00, 
2282.00, 
2283.00, 
2284.00, 
2285.00, 
2286.00, 
2287.00, 
2288.00, 
2289.00, 
2290.00, 
2291.00, 
2292.00, 
2293.00, 
2294.00, 
2295.00, 
2296.00, 
2297.00, 
2298.00, 
2299.00, 
2300.00, 
2301.00, 
2302.00, 
2303.00, 
2304.00, 
2305.00, 
2306.00, 
2307.00, 
2308.00, 
2309.00, 
2310.00, 
2311.00, 
2312.00, 
2313.00, 
2314.00, 
2315.00, 
2316.00, 
2317.00, 
2318.00, 
2319.00, 
2320.00, 
2321.00, 
2322.00, 
2323.00, 
2324.00, 
2325.00, 
2326.00, 
2327.00, 
2328.00, 
2329.00, 
2330.00, 
2331.00, 
2332.00, 
2333.00, 
2334.00, 
2335.00, 
2336.00, 
2337.00, 
2338.00, 
2339.00, 
2340.00, 
2341.00, 
2342.00, 
2343.00, 
2344.00, 
2345.00, 
2346.00, 
2347.00, 
2348.00, 
2349.00, 
2350.00, 
2351.00, 
2352.00, 
2353.00, 
2354.00, 
2355.00, 
2356.00, 
2357.00, 
2358.00, 
2359.00, 
2360.00, 
2361.00, 
2362.00, 
2363.00, 
2364.00, 
2365.00, 
2366.00, 
2367.00, 
2368.00, 
2369.00, 
2370.00, 
2371.00, 
2372.00, 
2373.00, 
2374.00, 
2375.00, 
2376.00, 
2377.00, 
2378.00, 
2379.00, 
2380.00, 
2381.00, 
2382.00, 
2383.00, 
2384.00, 
2385.00, 
2386.00, 
2387.00, 
2388.00, 
2389.00, 
2390.00, 
2391.00, 
2392.00, 
2393.00, 
2394.00, 
2395.00, 
2396.00, 
2397.00, 
2398.00, 
2399.00, 
2400.00, 
2401.00, 
2402.00, 
2403.00, 
2404.00, 
2405.00, 
2406.00, 
2407.00, 
2408.00, 
2409.00, 
2410.00, 
2411.00, 
2412.00, 
2413.00, 
2414.00, 
2415.00, 
2416.00, 
2417.00, 
2418.00, 
2419.00, 
2420.00, 
2421.00, 
2422.00, 
2423.00, 
2424.00, 
2425.00, 
2426.00, 
2427.00, 
2428.00, 
2429.00, 
2430.00, 
2431.00, 
2432.00, 
2433.00, 
2434.00, 
2435.00, 
2436.00, 
2437.00, 
2438.00, 
2439.00, 
2440.00, 
2441.00, 
2442.00, 
2443.00, 
2444.00, 
2445.00, 
2446.00, 
2447.00, 
2448.00, 
2449.00, 
2450.00, 
2451.00, 
2452.00, 
2453.00, 
2454.00, 
2455.00, 
2456.00, 
2457.00, 
2458.00, 
2459.00, 
2460.00, 
2461.00, 
2462.00, 
2463.00, 
2464.00, 
2465.00, 
2466.00, 
2467.00, 
2468.00, 
2469.00, 
2470.00, 
2471.00, 
2472.00, 
2473.00, 
2474.00, 
2475.00, 
2476.00, 
2477.00, 
2478.00, 
2479.00, 
2480.00, 
2481.00, 
2482.00, 
2483.00, 
2484.00, 
2485.00, 
2486.00, 
2487.00, 
2488.00, 
2489.00, 
2490.00, 
2491.00, 
2492.00, 
2493.00, 
2494.00, 
2495.00, 
2496.00, 
2497.00, 
2498.00, 
2499.00, 
2500.00, 
2501.00, 
2502.00, 
2503.00, 
2504.00, 
2505.00, 
2506.00, 
2507.00, 
2508.00, 
2509.00, 
2510.00, 
2511.00, 
2512.00, 
2513.00, 
2514.00, 
2515.00, 
2516.00, 
2517.00, 
2518.00, 
2519.00, 
2520.00, 
2521.00, 
2522.00, 
2523.00, 
2524.00, 
2525.00, 
2526.00, 
2527.00, 
2528.00, 
2529.00, 
2530.00, 
2531.00, 
2532.00, 
2533.00, 
2534.00, 
2535.00, 
2536.00, 
2537.00, 
2538.00, 
2539.00, 
2540.00, 
2541.00, 
2542.00, 
2543.00, 
2544.00, 
2545.00, 
2546.00, 
2547.00, 
2548.00, 
2549.00, 
2550.00, 
2551.00, 
2552.00, 
2553.00, 
2554.00, 
2555.00, 
2556.00, 
2557.00, 
2558.00, 
2559.00, 
2560.00, 
2561.00, 
2562.00, 
2563.00, 
2564.00, 
2565.00, 
2566.00, 
2567.00, 
2568.00, 
2569.00, 
2570.00, 
2571.00, 
2572.00, 
2573.00, 
2574.00, 
2575.00, 
2576.00, 
2577.00, 
2578.00, 
2579.00, 
2580.00, 
2581.00, 
2582.00, 
2583.00, 
2584.00, 
2585.00, 
2586.00, 
2587.00, 
2588.00, 
2589.00, 
2590.00, 
2591.00, 
2592.00, 
2593.00, 
2594.00, 
2595.00, 
2596.00, 
2597.00, 
2598.00, 
2599.00, 
2600.00, 
