"2cP2 - RawData"
"Wavelength nm.","T%"
200.00,0.004
201.00,0.000
202.00,0.001
203.00,0.001
204.00,0.001
205.00,0.001
206.00,0.003
207.00,-0.004
208.00,0.003
209.00,0.001
210.00,0.005
211.00,0.000
212.00,0.002
213.00,0.001
214.00,0.001
215.00,0.002
216.00,0.003
217.00,0.002
218.00,0.001
219.00,0.001
220.00,0.001
221.00,0.000
222.00,0.000
223.00,0.000
224.00,0.002
225.00,0.001
226.00,0.000
227.00,0.001
228.00,0.002
229.00,0.001
230.00,0.002
231.00,-0.001
232.00,0.002
233.00,0.001
234.00,-0.002
235.00,0.001
236.00,0.002
237.00,0.001
238.00,0.001
239.00,-0.001
240.00,0.001
241.00,0.000
242.00,0.002
243.00,0.001
244.00,-0.000
245.00,-0.000
246.00,0.001
247.00,0.001
248.00,-0.000
249.00,0.002
250.00,0.002
251.00,-0.001
252.00,-0.000
253.00,0.001
254.00,0.000
255.00,-0.000
256.00,-0.001
257.00,-0.001
258.00,0.001
259.00,0.001
260.00,0.002
261.00,0.002
262.00,-0.000
263.00,0.001
264.00,0.001
265.00,-0.001
266.00,0.000
267.00,0.001
268.00,-0.000
269.00,-0.000
270.00,-0.001
271.00,0.001
272.00,0.001
273.00,-0.000
274.00,0.001
275.00,-0.000
276.00,-0.000
277.00,0.001
278.00,0.002
279.00,0.000
280.00,0.001
281.00,0.000
282.00,0.000
283.00,-0.001
284.00,0.000
285.00,-0.000
286.00,-0.001
287.00,-0.001
288.00,-0.000
289.00,0.001
290.00,0.001
291.00,-0.000
292.00,-0.001
293.00,-0.000
294.00,-0.001
295.00,0.001
296.00,0.001
297.00,0.000
298.00,0.002
299.00,0.001
300.00,0.003
301.00,0.008
302.00,0.009
303.00,0.013
304.00,0.019
305.00,0.031
306.00,0.046
307.00,0.069
308.00,0.108
309.00,0.172
310.00,0.238
311.00,0.317
312.00,0.439
313.00,0.600
314.00,0.796
315.00,1.046
316.00,1.344
317.00,1.683
318.00,2.079
319.00,2.538
320.00,3.094
321.00,3.738
322.00,4.419
323.00,5.217
324.00,6.060
325.00,6.906
326.00,7.754
327.00,8.762
328.00,9.847
329.00,10.864
330.00,12.008
331.00,13.062
332.00,14.245
333.00,15.494
334.00,16.653
335.00,17.867
336.00,18.767
337.00,20.196
338.00,21.352
339.00,22.434
340.00,23.488
341.00,24.535
342.00,25.595
343.00,26.649
344.00,27.581
345.00,28.504
346.00,29.244
347.00,30.157
348.00,31.025
349.00,31.761
350.00,32.407
351.00,33.095
352.00,33.711
353.00,34.335
354.00,34.890
355.00,35.445
356.00,35.994
357.00,36.459
358.00,36.877
359.00,37.353
360.00,37.690
361.00,38.053
362.00,38.419
363.00,38.750
364.00,39.026
365.00,39.270
366.00,39.635
367.00,39.800
368.00,39.931
369.00,40.153
370.00,40.272
371.00,40.444
372.00,40.507
373.00,40.606
374.00,40.625
375.00,40.641
376.00,40.683
377.00,40.683
378.00,40.647
379.00,40.623
380.00,40.654
381.00,40.748
382.00,40.717
383.00,40.819
384.00,40.961
385.00,41.118
386.00,41.160
387.00,41.312
388.00,41.479
389.00,41.588
390.00,41.677
391.00,41.797
392.00,41.896
393.00,41.936
394.00,42.024
395.00,42.084
396.00,42.115
397.00,42.159
398.00,42.237
399.00,42.354
400.00,42.341
401.00,42.406
402.00,42.430
403.00,42.433
404.00,42.459
405.00,42.497
406.00,42.496
407.00,42.481
408.00,42.481
409.00,42.390
410.00,42.344
411.00,42.341
412.00,42.293
413.00,42.316
414.00,42.322
415.00,42.340
416.00,42.345
417.00,42.326
418.00,42.401
419.00,42.368
420.00,42.372
421.00,42.537
422.00,42.567
423.00,42.552
424.00,42.572
425.00,42.553
426.00,42.603
427.00,42.624
428.00,42.614
429.00,42.717
430.00,42.672
431.00,42.586
432.00,42.747
433.00,42.824
434.00,42.802
435.00,42.862
436.00,42.903
437.00,42.991
438.00,43.030
439.00,43.143
440.00,43.002
441.00,43.076
442.00,43.084
443.00,43.112
444.00,43.226
445.00,43.190
446.00,43.294
447.00,43.398
448.00,43.435
449.00,43.518
450.00,43.566
451.00,43.603
452.00,43.706
453.00,43.729
454.00,43.861
455.00,43.892
456.00,44.050
457.00,44.003
458.00,44.065
459.00,44.104
460.00,44.193
461.00,44.249
462.00,44.332
463.00,44.391
464.00,44.454
465.00,44.517
466.00,44.584
467.00,44.600
468.00,44.602
469.00,44.708
470.00,44.729
471.00,44.799
472.00,44.792
473.00,44.807
474.00,44.839
475.00,44.893
476.00,44.920
477.00,45.021
478.00,45.029
479.00,45.145
480.00,45.276
481.00,45.327
482.00,45.416
483.00,45.463
484.00,45.579
485.00,45.682
486.00,45.719
487.00,45.843
488.00,45.889
489.00,46.004
490.00,46.031
491.00,46.134
492.00,46.248
493.00,46.285
494.00,46.243
495.00,46.307
496.00,46.307
497.00,46.424
498.00,46.478
499.00,46.618
500.00,46.633
501.00,46.704
502.00,46.759
503.00,46.827
504.00,46.851
505.00,46.956
506.00,47.014
507.00,47.053
508.00,47.079
509.00,47.079
510.00,47.175
511.00,47.214
512.00,47.313
513.00,47.352
514.00,47.440
515.00,47.533
516.00,47.544
517.00,47.583
518.00,47.694
519.00,47.723
520.00,47.713
521.00,47.712
522.00,47.826
523.00,47.879
524.00,47.815
525.00,47.864
526.00,47.927
527.00,47.994
528.00,47.989
529.00,48.066
530.00,48.081
531.00,48.253
532.00,48.292
533.00,48.325
534.00,48.390
535.00,48.414
536.00,48.514
537.00,48.517
538.00,48.539
539.00,48.562
540.00,48.572
541.00,48.641
542.00,48.641
543.00,48.704
544.00,48.764
545.00,48.755
546.00,48.760
547.00,48.873
548.00,48.860
549.00,48.825
550.00,48.996
551.00,49.064
552.00,49.129
553.00,49.138
554.00,49.215
555.00,49.188
556.00,49.269
557.00,49.258
558.00,49.247
559.00,49.204
560.00,49.306
561.00,49.326
562.00,49.378
563.00,49.326
564.00,49.339
565.00,49.248
566.00,49.391
567.00,49.436
568.00,49.440
569.00,49.442
570.00,49.417
571.00,49.528
572.00,49.513
573.00,49.489
574.00,49.558
575.00,49.620
576.00,49.532
577.00,49.614
578.00,49.651
579.00,49.695
580.00,49.748
581.00,49.834
582.00,49.871
583.00,49.912
584.00,49.983
585.00,50.009
586.00,50.007
587.00,50.067
588.00,50.092
589.00,50.165
590.00,50.190
591.00,50.145
592.00,50.100
593.00,50.131
594.00,50.208
595.00,50.128
596.00,50.263
597.00,50.256
598.00,50.288
599.00,50.327
600.00,50.292
601.00,50.348
602.00,50.433
603.00,50.409
604.00,50.393
605.00,50.439
606.00,50.458
607.00,50.463
608.00,50.555
609.00,50.467
610.00,50.463
611.00,50.514
612.00,50.581
613.00,50.525
614.00,50.512
615.00,50.506
616.00,50.547
617.00,50.577
618.00,50.567
619.00,50.594
620.00,50.673
621.00,50.581
622.00,50.634
623.00,50.627
624.00,50.663
625.00,50.715
626.00,50.699
627.00,50.763
628.00,50.736
629.00,50.810
630.00,50.752
631.00,50.729
632.00,50.767
633.00,50.798
634.00,50.757
635.00,50.788
636.00,50.870
637.00,50.896
638.00,50.868
639.00,50.892
640.00,50.867
641.00,50.816
642.00,50.835
643.00,50.949
644.00,50.965
645.00,50.998
646.00,51.053
647.00,50.980
648.00,51.092
649.00,51.146
650.00,51.004
651.00,51.073
652.00,50.969
653.00,50.972
654.00,51.007
655.00,50.998
656.00,51.068
657.00,51.091
658.00,51.093
659.00,51.041
660.00,51.078
661.00,51.038
662.00,51.090
663.00,51.056
664.00,51.542
665.00,51.291
666.00,51.248
667.00,51.252
668.00,51.299
669.00,51.383
670.00,51.390
671.00,51.411
672.00,51.407
673.00,51.348
674.00,51.396
675.00,51.291
676.00,51.398
677.00,51.401
678.00,51.437
679.00,51.250
680.00,51.289
681.00,51.448
682.00,51.298
683.00,51.364
684.00,51.562
685.00,51.505
686.00,51.342
687.00,51.377
688.00,51.462
689.00,51.374
690.00,51.476
691.00,51.566
692.00,51.428
693.00,51.446
694.00,51.312
695.00,51.359
696.00,51.505
697.00,51.422
698.00,51.519
699.00,51.643
700.00,51.489
701.00,51.435
702.00,51.561
703.00,51.503
704.00,51.496
705.00,51.580
706.00,51.614
707.00,51.367
708.00,51.235
709.00,51.610
710.00,51.723
711.00,51.456
712.00,51.489
713.00,51.428
714.00,51.416
715.00,51.455
716.00,51.502
717.00,51.421
718.00,51.440
719.00,51.459
720.00,51.438
721.00,55.735
722.00,55.782
723.00,55.697
724.00,55.552
725.00,55.582
726.00,55.585
727.00,55.417
728.00,55.413
729.00,55.271
730.00,55.322
731.00,55.308
732.00,55.252
733.00,55.108
734.00,55.141
735.00,55.113
736.00,55.082
737.00,55.066
738.00,55.047
739.00,55.054
740.00,54.977
741.00,54.950
742.00,54.961
743.00,54.889
744.00,54.801
745.00,54.780
746.00,54.787
747.00,54.704
748.00,54.631
749.00,54.562
750.00,54.562
751.00,54.485
752.00,54.387
753.00,54.331
754.00,54.261
755.00,54.274
756.00,54.246
757.00,54.208
758.00,54.099
759.00,54.185
760.00,54.115
761.00,54.067
762.00,53.997
763.00,54.052
764.00,53.960
765.00,53.922
766.00,53.965
767.00,53.838
768.00,53.862
769.00,53.795
770.00,53.925
771.00,53.830
772.00,53.729
773.00,53.691
774.00,53.651
775.00,53.675
776.00,53.682
777.00,53.606
778.00,53.558
779.00,53.585
780.00,53.522
781.00,53.548
782.00,53.518
783.00,53.375
784.00,53.483
785.00,53.321
786.00,53.309
787.00,53.317
788.00,53.259
789.00,53.232
790.00,53.182
791.00,53.181
792.00,53.112
793.00,53.088
794.00,53.033
795.00,52.941
796.00,52.978
797.00,52.899
798.00,52.893
799.00,52.848
800.00,52.870
801.00,52.711
802.00,52.727
803.00,52.722
804.00,52.709
805.00,52.672
806.00,52.613
807.00,52.583
808.00,52.576
809.00,52.537
810.00,52.561
811.00,52.502
812.00,52.422
813.00,52.380
814.00,52.345
815.00,52.266
816.00,52.378
817.00,52.237
818.00,52.166
819.00,52.106
820.00,52.183
821.00,52.141
822.00,52.123
823.00,52.021
824.00,51.975
825.00,52.013
826.00,52.091
827.00,52.031
828.00,51.950
829.00,51.893
830.00,51.911
831.00,54.487
832.00,54.461
833.00,54.427
834.00,54.409
835.00,54.362
836.00,54.308
837.00,54.343
838.00,54.280
839.00,54.258
840.00,54.225
841.00,54.249
842.00,54.163
843.00,54.148
844.00,54.109
845.00,54.023
846.00,54.049
847.00,54.053
848.00,53.944
849.00,53.950
850.00,53.903
851.00,53.823
852.00,53.808
853.00,53.770
854.00,53.725
855.00,53.685
856.00,53.648
857.00,53.627
858.00,53.573
859.00,53.520
860.00,53.562
861.00,53.544
862.00,53.456
863.00,53.470
864.00,53.583
865.00,53.440
866.00,53.379
867.00,53.400
868.00,53.364
869.00,53.350
870.00,53.323
871.00,53.321
872.00,53.299
873.00,53.243
874.00,53.258
875.00,53.223
876.00,53.221
877.00,53.208
878.00,53.187
879.00,53.152
880.00,53.146
881.00,53.124
882.00,53.159
883.00,53.096
884.00,53.033
885.00,53.018
886.00,53.021
887.00,52.963
888.00,52.929
889.00,52.923
890.00,52.907
891.00,52.852
892.00,52.841
893.00,52.823
894.00,52.818
895.00,52.772
896.00,52.760
897.00,52.727
898.00,52.723
899.00,52.676
900.00,52.706
901.00,52.673
902.00,52.680
903.00,52.615
904.00,52.633
905.00,52.615
906.00,52.545
907.00,52.618
908.00,52.526
909.00,52.503
910.00,52.463
911.00,52.445
912.00,52.462
913.00,52.421
914.00,52.268
915.00,52.349
916.00,52.338
917.00,52.305
918.00,52.231
919.00,52.361
920.00,52.226
921.00,52.222
922.00,52.209
923.00,52.176
924.00,52.163
925.00,52.123
926.00,52.131
927.00,52.115
928.00,52.040
929.00,52.045
930.00,52.017
931.00,52.016
932.00,51.972
933.00,51.975
934.00,52.110
935.00,51.937
936.00,51.903
937.00,51.874
938.00,51.850
939.00,51.841
940.00,51.801
941.00,51.814
942.00,51.772
943.00,51.768
944.00,51.741
945.00,51.734
946.00,51.715
947.00,51.670
948.00,51.663
949.00,51.627
950.00,51.620
951.00,51.587
952.00,51.554
953.00,51.525
954.00,51.496
955.00,51.466
956.00,51.449
957.00,51.406
958.00,51.441
959.00,51.371
960.00,51.367
961.00,51.347
962.00,51.354
963.00,51.312
964.00,51.294
965.00,51.273
966.00,51.283
967.00,51.284
968.00,51.232
969.00,51.280
970.00,51.236
971.00,51.241
972.00,51.225
973.00,51.243
974.00,51.240
975.00,51.234
976.00,51.257
977.00,51.243
978.00,51.266
979.00,51.187
980.00,51.233
981.00,51.245
982.00,51.202
983.00,51.218
984.00,51.196
985.00,51.219
986.00,51.183
987.00,51.190
988.00,51.172
989.00,51.149
990.00,51.149
991.00,51.135
992.00,51.133
993.00,51.094
994.00,51.067
995.00,51.106
996.00,51.053
997.00,51.047
998.00,51.008
999.00,51.037
1000.00,50.998
1001.00,50.985
1002.00,51.013
1003.00,50.973
1004.00,50.945
1005.00,50.915
1006.00,50.948
1007.00,50.925
1008.00,50.910
1009.00,50.883
1010.00,50.875
1011.00,50.866
1012.00,50.829
1013.00,50.843
1014.00,50.795
1015.00,50.809
1016.00,50.772
1017.00,50.769
1018.00,50.762
1019.00,50.730
1020.00,50.718
1021.00,50.701
1022.00,50.700
1023.00,50.654
1024.00,50.654
1025.00,50.621
1026.00,50.625
1027.00,50.604
1028.00,50.591
1029.00,50.587
1030.00,50.552
1031.00,50.568
1032.00,50.540
1033.00,50.531
1034.00,50.509
1035.00,50.477
1036.00,50.434
1037.00,50.417
1038.00,50.411
1039.00,50.372
1040.00,50.380
1041.00,50.333
1042.00,50.323
1043.00,50.295
1044.00,50.329
1045.00,50.301
1046.00,50.296
1047.00,50.299
1048.00,50.314
1049.00,50.352
1050.00,50.347
1051.00,50.361
1052.00,50.385
1053.00,50.384
1054.00,50.382
1055.00,50.427
1056.00,50.404
1057.00,50.397
1058.00,50.386
1059.00,50.387
1060.00,50.392
1061.00,50.385
1062.00,50.363
1063.00,50.373
1064.00,50.355
1065.00,50.351
1066.00,50.344
1067.00,50.326
1068.00,50.345
1069.00,50.300
1070.00,50.295
1071.00,50.269
1072.00,50.282
1073.00,50.254
1074.00,50.260
1075.00,50.237
1076.00,50.238
1077.00,50.232
1078.00,50.206
1079.00,50.205
1080.00,50.202
1081.00,50.177
1082.00,50.190
1083.00,50.167
1084.00,50.165
1085.00,50.165
1086.00,50.160
1087.00,50.163
1088.00,50.136
1089.00,50.125
1090.00,50.114
1091.00,50.105
1092.00,50.098
1093.00,50.085
1094.00,50.070
1095.00,50.057
1096.00,50.060
1097.00,50.035
1098.00,50.040
1099.00,50.033
1100.00,50.008
1101.00,49.997
1102.00,49.986
1103.00,49.976
1104.00,49.975
1105.00,49.956
1106.00,49.951
1107.00,49.946
1108.00,49.937
1109.00,49.938
1110.00,49.945
1111.00,49.922
1112.00,49.923
1113.00,49.905
1114.00,49.895
1115.00,49.906
1116.00,49.887
1117.00,49.883
1118.00,49.884
1119.00,49.873
1120.00,49.871
1121.00,49.860
1122.00,49.845
1123.00,49.830
1124.00,49.826
1125.00,49.798
1126.00,49.810
1127.00,49.797
1128.00,49.783
1129.00,49.777
1130.00,49.754
1131.00,49.767
1132.00,49.751
1133.00,49.753
1134.00,49.750
1135.00,49.723
1136.00,49.717
1137.00,49.727
1138.00,49.724
1139.00,49.721
1140.00,49.715
1141.00,49.700
1142.00,49.698
1143.00,49.723
1144.00,49.681
1145.00,49.690
1146.00,49.684
1147.00,49.676
1148.00,49.684
1149.00,49.678
1150.00,49.682
1151.00,49.684
1152.00,49.661
1153.00,49.662
1154.00,49.647
1155.00,49.649
1156.00,49.643
1157.00,49.648
1158.00,49.638
1159.00,49.626
1160.00,49.623
1161.00,49.637
1162.00,49.637
1163.00,49.642
1164.00,49.631
1165.00,49.618
1166.00,49.621
1167.00,49.632
1168.00,49.626
1169.00,49.616
1170.00,49.621
1171.00,49.594
1172.00,49.606
1173.00,49.602
1174.00,49.604
1175.00,49.588
1176.00,49.592
1177.00,49.589
1178.00,49.594
1179.00,49.593
1180.00,49.584
1181.00,49.608
1182.00,49.594
1183.00,49.587
1184.00,49.574
1185.00,49.584
1186.00,49.570
1187.00,49.579
1188.00,49.563
1189.00,49.555
1190.00,49.553
1191.00,49.545
1192.00,49.575
1193.00,49.560
1194.00,49.568
1195.00,49.545
1196.00,49.555
1197.00,49.568
1198.00,49.574
1199.00,49.550
1200.00,49.585
1201.00,49.564
1202.00,49.543
1203.00,49.548
1204.00,49.541
1205.00,49.560
1206.00,49.551
1207.00,49.550
1208.00,49.538
1209.00,49.537
1210.00,49.545
1211.00,49.556
1212.00,49.557
1213.00,49.529
1214.00,49.562
1215.00,49.542
1216.00,49.552
1217.00,49.548
1218.00,49.539
1219.00,49.552
1220.00,49.543
1221.00,49.556
1222.00,49.525
1223.00,49.536
1224.00,49.532
1225.00,49.535
1226.00,49.536
1227.00,49.528
1228.00,49.556
1229.00,49.551
1230.00,49.591
1231.00,49.580
1232.00,49.589
1233.00,49.577
1234.00,49.581
1235.00,49.570
1236.00,49.579
1237.00,49.567
1238.00,49.566
1239.00,49.580
1240.00,49.561
1241.00,49.581
1242.00,49.592
1243.00,49.596
1244.00,49.575
1245.00,49.591
1246.00,49.599
1247.00,49.608
1248.00,49.594
1249.00,49.606
1250.00,49.614
1251.00,49.606
1252.00,49.621
1253.00,49.612
1254.00,49.620
1255.00,49.621
1256.00,49.598
1257.00,49.581
1258.00,49.634
1259.00,49.615
1260.00,49.638
1261.00,49.640
1262.00,49.636
1263.00,49.634
1264.00,49.641
1265.00,49.641
1266.00,49.638
1267.00,49.644
1268.00,49.665
1269.00,49.660
1270.00,49.665
1271.00,49.670
1272.00,49.688
1273.00,49.684
1274.00,49.693
1275.00,49.687
1276.00,49.691
1277.00,49.696
1278.00,49.705
1279.00,49.710
1280.00,49.707
1281.00,49.712
1282.00,49.719
1283.00,49.715
1284.00,49.726
1285.00,49.703
1286.00,49.724
1287.00,49.712
1288.00,49.733
1289.00,49.710
1290.00,49.743
1291.00,49.752
1292.00,49.746
1293.00,49.740
1294.00,49.765
1295.00,49.770
1296.00,49.774
1297.00,49.775
1298.00,49.786
1299.00,49.772
1300.00,49.778
1301.00,49.774
1302.00,49.794
1303.00,49.806
1304.00,49.801
1305.00,49.828
1306.00,49.817
1307.00,49.827
1308.00,49.820
1309.00,49.830
1310.00,49.842
1311.00,49.828
1312.00,49.831
1313.00,49.824
1314.00,49.836
1315.00,49.847
1316.00,49.853
1317.00,49.873
1318.00,49.868
1319.00,49.867
1320.00,49.883
1321.00,50.044
1322.00,50.062
1323.00,50.041
1324.00,50.035
1325.00,50.006
1326.00,50.072
1327.00,50.044
1328.00,50.039
1329.00,50.037
1330.00,50.049
1331.00,50.026
1332.00,50.047
1333.00,50.054
1334.00,50.091
1335.00,50.086
1336.00,50.116
1337.00,50.151
1338.00,50.196
1339.00,50.240
1340.00,50.309
1341.00,50.356
1342.00,50.450
1343.00,50.474
1344.00,50.511
1345.00,50.582
1346.00,50.627
1347.00,50.636
1348.00,50.675
1349.00,50.702
1350.00,50.713
1351.00,50.740
1352.00,50.731
1353.00,50.761
1354.00,50.756
1355.00,50.683
1356.00,50.758
1357.00,50.757
1358.00,50.748
1359.00,50.802
1360.00,50.788
1361.00,50.683
1362.00,50.751
1363.00,50.845
1364.00,50.813
1365.00,50.770
1366.00,50.805
1367.00,50.745
1368.00,50.748
1369.00,50.765
1370.00,50.761
1371.00,50.695
1372.00,50.730
1373.00,50.736
1374.00,50.761
1375.00,50.748
1376.00,50.738
1377.00,50.680
1378.00,50.789
1379.00,50.746
1380.00,50.759
1381.00,50.779
1382.00,50.658
1383.00,50.746
1384.00,50.703
1385.00,50.673
1386.00,50.772
1387.00,50.728
1388.00,50.672
1389.00,50.686
1390.00,50.797
1391.00,50.728
1392.00,50.746
1393.00,50.717
1394.00,50.679
1395.00,50.695
1396.00,50.647
1397.00,50.735
1398.00,50.783
1399.00,50.721
1400.00,50.656
1401.00,50.728
1402.00,50.709
1403.00,50.717
1404.00,50.703
1405.00,50.760
1406.00,50.766
1407.00,50.820
1408.00,50.772
1409.00,50.715
1410.00,50.777
1411.00,50.788
1412.00,50.800
1413.00,50.731
1414.00,50.761
1415.00,50.792
1416.00,50.847
1417.00,50.862
1418.00,50.837
1419.00,50.825
1420.00,50.869
1421.00,50.886
1422.00,50.898
1423.00,50.886
1424.00,50.903
1425.00,50.907
1426.00,50.932
1427.00,50.956
1428.00,50.969
1429.00,50.969
1430.00,51.002
1431.00,51.012
1432.00,51.014
1433.00,51.063
1434.00,51.035
1435.00,51.080
1436.00,51.094
1437.00,51.080
1438.00,51.098
1439.00,51.144
1440.00,51.134
1441.00,51.147
1442.00,51.155
1443.00,51.184
1444.00,51.193
1445.00,51.181
1446.00,51.184
1447.00,51.245
1448.00,51.245
1449.00,51.249
1450.00,51.250
1451.00,51.263
1452.00,51.274
1453.00,51.300
1454.00,51.301
1455.00,51.336
1456.00,51.340
1457.00,51.341
1458.00,51.369
1459.00,51.390
1460.00,51.414
1461.00,51.429
1462.00,51.435
1463.00,51.449
1464.00,51.462
1465.00,51.482
1466.00,51.481
1467.00,51.496
1468.00,51.533
1469.00,51.546
1470.00,51.534
1471.00,51.566
1472.00,51.599
1473.00,51.580
1474.00,51.611
1475.00,51.606
1476.00,51.616
1477.00,51.625
1478.00,51.629
1479.00,51.645
1480.00,51.663
1481.00,51.658
1482.00,51.694
1483.00,51.707
1484.00,51.709
1485.00,51.722
1486.00,51.723
1487.00,51.727
1488.00,51.754
1489.00,51.754
1490.00,51.766
1491.00,51.788
1492.00,51.797
1493.00,51.804
1494.00,51.815
1495.00,51.824
1496.00,51.825
1497.00,51.842
1498.00,51.835
1499.00,51.871
1500.00,51.886
1501.00, 
1502.00, 
1503.00, 
1504.00, 
1505.00, 
1506.00, 
1507.00, 
1508.00, 
1509.00, 
1510.00, 
1511.00, 
1512.00, 
1513.00, 
1514.00, 
1515.00, 
1516.00, 
1517.00, 
1518.00, 
1519.00, 
1520.00, 
1521.00, 
1522.00, 
1523.00, 
1524.00, 
1525.00, 
1526.00, 
1527.00, 
1528.00, 
1529.00, 
1530.00, 
1531.00, 
1532.00, 
1533.00, 
1534.00, 
1535.00, 
1536.00, 
1537.00, 
1538.00, 
1539.00, 
1540.00, 
1541.00, 
1542.00, 
1543.00, 
1544.00, 
1545.00, 
1546.00, 
1547.00, 
1548.00, 
1549.00, 
1550.00, 
1551.00, 
1552.00, 
1553.00, 
1554.00, 
1555.00, 
1556.00, 
1557.00, 
1558.00, 
1559.00, 
1560.00, 
1561.00, 
1562.00, 
1563.00, 
1564.00, 
1565.00, 
1566.00, 
1567.00, 
1568.00, 
1569.00, 
1570.00, 
1571.00, 
1572.00, 
1573.00, 
1574.00, 
1575.00, 
1576.00, 
1577.00, 
1578.00, 
1579.00, 
1580.00, 
1581.00, 
1582.00, 
1583.00, 
1584.00, 
1585.00, 
1586.00, 
1587.00, 
1588.00, 
1589.00, 
1590.00, 
1591.00, 
1592.00, 
1593.00, 
1594.00, 
1595.00, 
1596.00, 
1597.00, 
1598.00, 
1599.00, 
1600.00, 
1601.00, 
1602.00, 
1603.00, 
1604.00, 
1605.00, 
1606.00, 
1607.00, 
1608.00, 
1609.00, 
1610.00, 
1611.00, 
1612.00, 
1613.00, 
1614.00, 
1615.00, 
1616.00, 
1617.00, 
1618.00, 
1619.00, 
1620.00, 
1621.00, 
1622.00, 
1623.00, 
1624.00, 
1625.00, 
1626.00, 
1627.00, 
1628.00, 
1629.00, 
1630.00, 
1631.00, 
1632.00, 
1633.00, 
1634.00, 
1635.00, 
1636.00, 
1637.00, 
1638.00, 
1639.00, 
1640.00, 
1641.00, 
1642.00, 
1643.00, 
1644.00, 
1645.00, 
1646.00, 
1647.00, 
1648.00, 
1649.00, 
1650.00, 
1651.00, 
1652.00, 
1653.00, 
1654.00, 
1655.00, 
1656.00, 
1657.00, 
1658.00, 
1659.00, 
1660.00, 
1661.00, 
1662.00, 
1663.00, 
1664.00, 
1665.00, 
1666.00, 
1667.00, 
1668.00, 
1669.00, 
1670.00, 
1671.00, 
1672.00, 
1673.00, 
1674.00, 
1675.00, 
1676.00, 
1677.00, 
1678.00, 
1679.00, 
1680.00, 
1681.00, 
1682.00, 
1683.00, 
1684.00, 
1685.00, 
1686.00, 
1687.00, 
1688.00, 
1689.00, 
1690.00, 
1691.00, 
1692.00, 
1693.00, 
1694.00, 
1695.00, 
1696.00, 
1697.00, 
1698.00, 
1699.00, 
1700.00, 
1701.00, 
1702.00, 
1703.00, 
1704.00, 
1705.00, 
1706.00, 
1707.00, 
1708.00, 
1709.00, 
1710.00, 
1711.00, 
1712.00, 
1713.00, 
1714.00, 
1715.00, 
1716.00, 
1717.00, 
1718.00, 
1719.00, 
1720.00, 
1721.00, 
1722.00, 
1723.00, 
1724.00, 
1725.00, 
1726.00, 
1727.00, 
1728.00, 
1729.00, 
1730.00, 
1731.00, 
1732.00, 
1733.00, 
1734.00, 
1735.00, 
1736.00, 
1737.00, 
1738.00, 
1739.00, 
1740.00, 
1741.00, 
1742.00, 
1743.00, 
1744.00, 
1745.00, 
1746.00, 
1747.00, 
1748.00, 
1749.00, 
1750.00, 
1751.00, 
1752.00, 
1753.00, 
1754.00, 
1755.00, 
1756.00, 
1757.00, 
1758.00, 
1759.00, 
1760.00, 
1761.00, 
1762.00, 
1763.00, 
1764.00, 
1765.00, 
1766.00, 
1767.00, 
1768.00, 
1769.00, 
1770.00, 
1771.00, 
1772.00, 
1773.00, 
1774.00, 
1775.00, 
1776.00, 
1777.00, 
1778.00, 
1779.00, 
1780.00, 
1781.00, 
1782.00, 
1783.00, 
1784.00, 
1785.00, 
1786.00, 
1787.00, 
1788.00, 
1789.00, 
1790.00, 
1791.00, 
1792.00, 
1793.00, 
1794.00, 
1795.00, 
1796.00, 
1797.00, 
1798.00, 
1799.00, 
1800.00, 
1801.00, 
1802.00, 
1803.00, 
1804.00, 
1805.00, 
1806.00, 
1807.00, 
1808.00, 
1809.00, 
1810.00, 
1811.00, 
1812.00, 
1813.00, 
1814.00, 
1815.00, 
1816.00, 
1817.00, 
1818.00, 
1819.00, 
1820.00, 
1821.00, 
1822.00, 
1823.00, 
1824.00, 
1825.00, 
1826.00, 
1827.00, 
1828.00, 
1829.00, 
1830.00, 
1831.00, 
1832.00, 
1833.00, 
1834.00, 
1835.00, 
1836.00, 
1837.00, 
1838.00, 
1839.00, 
1840.00, 
1841.00, 
1842.00, 
1843.00, 
1844.00, 
1845.00, 
1846.00, 
1847.00, 
1848.00, 
1849.00, 
1850.00, 
1851.00, 
1852.00, 
1853.00, 
1854.00, 
1855.00, 
1856.00, 
1857.00, 
1858.00, 
1859.00, 
1860.00, 
1861.00, 
1862.00, 
1863.00, 
1864.00, 
1865.00, 
1866.00, 
1867.00, 
1868.00, 
1869.00, 
1870.00, 
1871.00, 
1872.00, 
1873.00, 
1874.00, 
1875.00, 
1876.00, 
1877.00, 
1878.00, 
1879.00, 
1880.00, 
1881.00, 
1882.00, 
1883.00, 
1884.00, 
1885.00, 
1886.00, 
1887.00, 
1888.00, 
1889.00, 
1890.00, 
1891.00, 
1892.00, 
1893.00, 
1894.00, 
1895.00, 
1896.00, 
1897.00, 
1898.00, 
1899.00, 
1900.00, 
1901.00, 
1902.00, 
1903.00, 
1904.00, 
1905.00, 
1906.00, 
1907.00, 
1908.00, 
1909.00, 
1910.00, 
1911.00, 
1912.00, 
1913.00, 
1914.00, 
1915.00, 
1916.00, 
1917.00, 
1918.00, 
1919.00, 
1920.00, 
1921.00, 
1922.00, 
1923.00, 
1924.00, 
1925.00, 
1926.00, 
1927.00, 
1928.00, 
1929.00, 
1930.00, 
1931.00, 
1932.00, 
1933.00, 
1934.00, 
1935.00, 
1936.00, 
1937.00, 
1938.00, 
1939.00, 
1940.00, 
1941.00, 
1942.00, 
1943.00, 
1944.00, 
1945.00, 
1946.00, 
1947.00, 
1948.00, 
1949.00, 
1950.00, 
1951.00, 
1952.00, 
1953.00, 
1954.00, 
1955.00, 
1956.00, 
1957.00, 
1958.00, 
1959.00, 
1960.00, 
1961.00, 
1962.00, 
1963.00, 
1964.00, 
1965.00, 
1966.00, 
1967.00, 
1968.00, 
1969.00, 
1970.00, 
1971.00, 
1972.00, 
1973.00, 
1974.00, 
1975.00, 
1976.00, 
1977.00, 
1978.00, 
1979.00, 
1980.00, 
1981.00, 
1982.00, 
1983.00, 
1984.00, 
1985.00, 
1986.00, 
1987.00, 
1988.00, 
1989.00, 
1990.00, 
1991.00, 
1992.00, 
1993.00, 
1994.00, 
1995.00, 
1996.00, 
1997.00, 
1998.00, 
1999.00, 
2000.00, 
2001.00, 
2002.00, 
2003.00, 
2004.00, 
2005.00, 
2006.00, 
2007.00, 
2008.00, 
2009.00, 
2010.00, 
2011.00, 
2012.00, 
2013.00, 
2014.00, 
2015.00, 
2016.00, 
2017.00, 
2018.00, 
2019.00, 
2020.00, 
2021.00, 
2022.00, 
2023.00, 
2024.00, 
2025.00, 
2026.00, 
2027.00, 
2028.00, 
2029.00, 
2030.00, 
2031.00, 
2032.00, 
2033.00, 
2034.00, 
2035.00, 
2036.00, 
2037.00, 
2038.00, 
2039.00, 
2040.00, 
2041.00, 
2042.00, 
2043.00, 
2044.00, 
2045.00, 
2046.00, 
2047.00, 
2048.00, 
2049.00, 
2050.00, 
2051.00, 
2052.00, 
2053.00, 
2054.00, 
2055.00, 
2056.00, 
2057.00, 
2058.00, 
2059.00, 
2060.00, 
2061.00, 
2062.00, 
2063.00, 
2064.00, 
2065.00, 
2066.00, 
2067.00, 
2068.00, 
2069.00, 
2070.00, 
2071.00, 
2072.00, 
2073.00, 
2074.00, 
2075.00, 
2076.00, 
2077.00, 
2078.00, 
2079.00, 
2080.00, 
2081.00, 
2082.00, 
2083.00, 
2084.00, 
2085.00, 
2086.00, 
2087.00, 
2088.00, 
2089.00, 
2090.00, 
2091.00, 
2092.00, 
2093.00, 
2094.00, 
2095.00, 
2096.00, 
2097.00, 
2098.00, 
2099.00, 
2100.00, 
2101.00, 
2102.00, 
2103.00, 
2104.00, 
2105.00, 
2106.00, 
2107.00, 
2108.00, 
2109.00, 
2110.00, 
2111.00, 
2112.00, 
2113.00, 
2114.00, 
2115.00, 
2116.00, 
2117.00, 
2118.00, 
2119.00, 
2120.00, 
2121.00, 
2122.00, 
2123.00, 
2124.00, 
2125.00, 
2126.00, 
2127.00, 
2128.00, 
2129.00, 
2130.00, 
2131.00, 
2132.00, 
2133.00, 
2134.00, 
2135.00, 
2136.00, 
2137.00, 
2138.00, 
2139.00, 
2140.00, 
2141.00, 
2142.00, 
2143.00, 
2144.00, 
2145.00, 
2146.00, 
2147.00, 
2148.00, 
2149.00, 
2150.00, 
2151.00, 
2152.00, 
2153.00, 
2154.00, 
2155.00, 
2156.00, 
2157.00, 
2158.00, 
2159.00, 
2160.00, 
2161.00, 
2162.00, 
2163.00, 
2164.00, 
2165.00, 
2166.00, 
2167.00, 
2168.00, 
2169.00, 
2170.00, 
2171.00, 
2172.00, 
2173.00, 
2174.00, 
2175.00, 
2176.00, 
2177.00, 
2178.00, 
2179.00, 
2180.00, 
2181.00, 
2182.00, 
2183.00, 
2184.00, 
2185.00, 
2186.00, 
2187.00, 
2188.00, 
2189.00, 
2190.00, 
2191.00, 
2192.00, 
2193.00, 
2194.00, 
2195.00, 
2196.00, 
2197.00, 
2198.00, 
2199.00, 
2200.00, 
2201.00, 
2202.00, 
2203.00, 
2204.00, 
2205.00, 
2206.00, 
2207.00, 
2208.00, 
2209.00, 
2210.00, 
2211.00, 
2212.00, 
2213.00, 
2214.00, 
2215.00, 
2216.00, 
2217.00, 
2218.00, 
2219.00, 
2220.00, 
2221.00, 
2222.00, 
2223.00, 
2224.00, 
2225.00, 
2226.00, 
2227.00, 
2228.00, 
2229.00, 
2230.00, 
2231.00, 
2232.00, 
2233.00, 
2234.00, 
2235.00, 
2236.00, 
2237.00, 
2238.00, 
2239.00, 
2240.00, 
2241.00, 
2242.00, 
2243.00, 
2244.00, 
2245.00, 
2246.00, 
2247.00, 
2248.00, 
2249.00, 
2250.00, 
2251.00, 
2252.00, 
2253.00, 
2254.00, 
2255.00, 
2256.00, 
2257.00, 
2258.00, 
2259.00, 
2260.00, 
2261.00, 
2262.00, 
2263.00, 
2264.00, 
2265.00, 
2266.00, 
2267.00, 
2268.00, 
2269.00, 
2270.00, 
2271.00, 
2272.00, 
2273.00, 
2274.00, 
2275.00, 
2276.00, 
2277.00, 
2278.00, 
2279.00, 
2280.00, 
2281.00, 
2282.00, 
2283.00, 
2284.00, 
2285.00, 
2286.00, 
2287.00, 
2288.00, 
2289.00, 
2290.00, 
2291.00, 
2292.00, 
2293.00, 
2294.00, 
2295.00, 
2296.00, 
2297.00, 
2298.00, 
2299.00, 
2300.00, 
2301.00, 
2302.00, 
2303.00, 
2304.00, 
2305.00, 
2306.00, 
2307.00, 
2308.00, 
2309.00, 
2310.00, 
2311.00, 
2312.00, 
2313.00, 
2314.00, 
2315.00, 
2316.00, 
2317.00, 
2318.00, 
2319.00, 
2320.00, 
2321.00, 
2322.00, 
2323.00, 
2324.00, 
2325.00, 
2326.00, 
2327.00, 
2328.00, 
2329.00, 
2330.00, 
2331.00, 
2332.00, 
2333.00, 
2334.00, 
2335.00, 
2336.00, 
2337.00, 
2338.00, 
2339.00, 
2340.00, 
2341.00, 
2342.00, 
2343.00, 
2344.00, 
2345.00, 
2346.00, 
2347.00, 
2348.00, 
2349.00, 
2350.00, 
2351.00, 
2352.00, 
2353.00, 
2354.00, 
2355.00, 
2356.00, 
2357.00, 
2358.00, 
2359.00, 
2360.00, 
2361.00, 
2362.00, 
2363.00, 
2364.00, 
2365.00, 
2366.00, 
2367.00, 
2368.00, 
2369.00, 
2370.00, 
2371.00, 
2372.00, 
2373.00, 
2374.00, 
2375.00, 
2376.00, 
2377.00, 
2378.00, 
2379.00, 
2380.00, 
2381.00, 
2382.00, 
2383.00, 
2384.00, 
2385.00, 
2386.00, 
2387.00, 
2388.00, 
2389.00, 
2390.00, 
2391.00, 
2392.00, 
2393.00, 
2394.00, 
2395.00, 
2396.00, 
2397.00, 
2398.00, 
2399.00, 
2400.00, 
2401.00, 
2402.00, 
2403.00, 
2404.00, 
2405.00, 
2406.00, 
2407.00, 
2408.00, 
2409.00, 
2410.00, 
2411.00, 
2412.00, 
2413.00, 
2414.00, 
2415.00, 
2416.00, 
2417.00, 
2418.00, 
2419.00, 
2420.00, 
2421.00, 
2422.00, 
2423.00, 
2424.00, 
2425.00, 
2426.00, 
2427.00, 
2428.00, 
2429.00, 
2430.00, 
2431.00, 
2432.00, 
2433.00, 
2434.00, 
2435.00, 
2436.00, 
2437.00, 
2438.00, 
2439.00, 
2440.00, 
2441.00, 
2442.00, 
2443.00, 
2444.00, 
2445.00, 
2446.00, 
2447.00, 
2448.00, 
2449.00, 
2450.00, 
2451.00, 
2452.00, 
2453.00, 
2454.00, 
2455.00, 
2456.00, 
2457.00, 
2458.00, 
2459.00, 
2460.00, 
2461.00, 
2462.00, 
2463.00, 
2464.00, 
2465.00, 
2466.00, 
2467.00, 
2468.00, 
2469.00, 
2470.00, 
2471.00, 
2472.00, 
2473.00, 
2474.00, 
2475.00, 
2476.00, 
2477.00, 
2478.00, 
2479.00, 
2480.00, 
2481.00, 
2482.00, 
2483.00, 
2484.00, 
2485.00, 
2486.00, 
2487.00, 
2488.00, 
2489.00, 
2490.00, 
2491.00, 
2492.00, 
2493.00, 
2494.00, 
2495.00, 
2496.00, 
2497.00, 
2498.00, 
2499.00, 
2500.00, 
2501.00, 
2502.00, 
2503.00, 
2504.00, 
2505.00, 
2506.00, 
2507.00, 
2508.00, 
2509.00, 
2510.00, 
2511.00, 
2512.00, 
2513.00, 
2514.00, 
2515.00, 
2516.00, 
2517.00, 
2518.00, 
2519.00, 
2520.00, 
2521.00, 
2522.00, 
2523.00, 
2524.00, 
2525.00, 
2526.00, 
2527.00, 
2528.00, 
2529.00, 
2530.00, 
2531.00, 
2532.00, 
2533.00, 
2534.00, 
2535.00, 
2536.00, 
2537.00, 
2538.00, 
2539.00, 
2540.00, 
2541.00, 
2542.00, 
2543.00, 
2544.00, 
2545.00, 
2546.00, 
2547.00, 
2548.00, 
2549.00, 
2550.00, 
2551.00, 
2552.00, 
2553.00, 
2554.00, 
2555.00, 
2556.00, 
2557.00, 
2558.00, 
2559.00, 
2560.00, 
2561.00, 
2562.00, 
2563.00, 
2564.00, 
2565.00, 
2566.00, 
2567.00, 
2568.00, 
2569.00, 
2570.00, 
2571.00, 
2572.00, 
2573.00, 
2574.00, 
2575.00, 
2576.00, 
2577.00, 
2578.00, 
2579.00, 
2580.00, 
2581.00, 
2582.00, 
2583.00, 
2584.00, 
2585.00, 
2586.00, 
2587.00, 
2588.00, 
2589.00, 
2590.00, 
2591.00, 
2592.00, 
2593.00, 
2594.00, 
2595.00, 
2596.00, 
2597.00, 
2598.00, 
2599.00, 
2600.00, 
