"1aP2 - RawData"
"Wavelength nm.","T%"
200.00,0.003
201.00,-0.001
202.00,0.001
203.00,0.002
204.00,0.002
205.00,0.001
206.00,0.003
207.00,0.002
208.00,0.002
209.00,0.000
210.00,0.003
211.00,0.004
212.00,0.002
213.00,0.000
214.00,-0.001
215.00,0.002
216.00,0.001
217.00,0.001
218.00,0.002
219.00,0.001
220.00,0.005
221.00,0.000
222.00,-0.003
223.00,0.001
224.00,0.000
225.00,0.001
226.00,-0.000
227.00,-0.000
228.00,-0.001
229.00,0.000
230.00,-0.002
231.00,-0.002
232.00,0.001
233.00,0.001
234.00,0.000
235.00,-0.000
236.00,-0.001
237.00,0.002
238.00,0.001
239.00,0.001
240.00,0.000
241.00,-0.001
242.00,0.000
243.00,-0.001
244.00,0.002
245.00,0.001
246.00,-0.000
247.00,0.002
248.00,0.002
249.00,0.000
250.00,0.000
251.00,0.001
252.00,0.002
253.00,0.001
254.00,-0.002
255.00,-0.000
256.00,-0.001
257.00,0.000
258.00,0.001
259.00,0.001
260.00,0.001
261.00,-0.001
262.00,-0.002
263.00,0.002
264.00,0.000
265.00,0.002
266.00,-0.002
267.00,0.001
268.00,-0.000
269.00,0.002
270.00,0.000
271.00,0.001
272.00,-0.000
273.00,-0.001
274.00,0.001
275.00,-0.001
276.00,-0.000
277.00,-0.000
278.00,0.001
279.00,-0.001
280.00,0.001
281.00,0.002
282.00,0.002
283.00,0.001
284.00,-0.001
285.00,-0.001
286.00,0.000
287.00,-0.000
288.00,0.000
289.00,0.000
290.00,0.001
291.00,0.001
292.00,0.001
293.00,0.001
294.00,0.001
295.00,0.000
296.00,0.000
297.00,0.001
298.00,-0.002
299.00,0.001
300.00,0.004
301.00,0.004
302.00,0.007
303.00,0.012
304.00,0.016
305.00,0.027
306.00,0.041
307.00,0.064
308.00,0.098
309.00,0.146
310.00,0.203
311.00,0.271
312.00,0.369
313.00,0.499
314.00,0.657
315.00,0.851
316.00,1.069
317.00,1.340
318.00,1.636
319.00,1.986
320.00,2.410
321.00,2.841
322.00,3.351
323.00,3.912
324.00,4.508
325.00,5.078
326.00,5.681
327.00,6.280
328.00,7.047
329.00,7.731
330.00,8.490
331.00,9.229
332.00,9.949
333.00,10.687
334.00,11.442
335.00,12.170
336.00,12.905
337.00,13.608
338.00,14.291
339.00,14.928
340.00,15.567
341.00,16.199
342.00,16.771
343.00,17.345
344.00,17.912
345.00,18.392
346.00,18.913
347.00,19.319
348.00,19.767
349.00,20.129
350.00,20.506
351.00,20.846
352.00,21.144
353.00,21.446
354.00,21.755
355.00,21.976
356.00,22.211
357.00,22.374
358.00,22.609
359.00,22.777
360.00,22.945
361.00,23.088
362.00,23.218
363.00,23.391
364.00,23.478
365.00,23.566
366.00,23.657
367.00,23.681
368.00,23.758
369.00,23.749
370.00,23.799
371.00,23.794
372.00,23.720
373.00,23.753
374.00,23.721
375.00,23.708
376.00,23.633
377.00,23.562
378.00,23.510
379.00,23.440
380.00,23.389
381.00,23.395
382.00,23.359
383.00,23.351
384.00,23.367
385.00,23.387
386.00,23.379
387.00,23.447
388.00,23.465
389.00,23.491
390.00,23.490
391.00,23.486
392.00,23.514
393.00,23.525
394.00,23.516
395.00,23.524
396.00,23.507
397.00,23.551
398.00,23.492
399.00,23.509
400.00,23.482
401.00,23.421
402.00,23.521
403.00,23.482
404.00,23.554
405.00,23.572
406.00,23.549
407.00,23.450
408.00,23.457
409.00,23.427
410.00,23.356
411.00,23.344
412.00,23.345
413.00,23.339
414.00,23.296
415.00,23.318
416.00,23.342
417.00,23.334
418.00,23.361
419.00,23.424
420.00,23.421
421.00,23.423
422.00,23.455
423.00,23.512
424.00,23.514
425.00,23.571
426.00,23.584
427.00,23.652
428.00,23.669
429.00,23.735
430.00,23.777
431.00,23.843
432.00,23.797
433.00,23.852
434.00,23.965
435.00,24.049
436.00,24.110
437.00,24.172
438.00,24.265
439.00,24.290
440.00,24.382
441.00,24.482
442.00,24.600
443.00,24.606
444.00,24.744
445.00,24.718
446.00,24.819
447.00,25.032
448.00,25.127
449.00,25.196
450.00,25.326
451.00,25.411
452.00,25.529
453.00,25.630
454.00,25.766
455.00,25.864
456.00,25.982
457.00,26.128
458.00,26.204
459.00,26.369
460.00,26.482
461.00,26.647
462.00,26.738
463.00,26.820
464.00,26.986
465.00,27.108
466.00,27.239
467.00,27.366
468.00,27.515
469.00,27.633
470.00,27.731
471.00,27.824
472.00,27.948
473.00,28.045
474.00,28.125
475.00,28.308
476.00,28.371
477.00,28.534
478.00,28.618
479.00,28.828
480.00,28.987
481.00,29.102
482.00,29.246
483.00,29.420
484.00,29.550
485.00,29.749
486.00,29.897
487.00,30.057
488.00,30.182
489.00,30.328
490.00,30.437
491.00,30.573
492.00,30.732
493.00,30.926
494.00,31.032
495.00,31.121
496.00,31.288
497.00,31.396
498.00,31.551
499.00,31.732
500.00,31.864
501.00,31.915
502.00,32.066
503.00,32.238
504.00,32.321
505.00,32.398
506.00,32.540
507.00,32.669
508.00,32.763
509.00,32.946
510.00,33.064
511.00,33.178
512.00,33.318
513.00,33.447
514.00,33.640
515.00,33.690
516.00,33.812
517.00,33.914
518.00,34.051
519.00,34.123
520.00,34.190
521.00,34.340
522.00,34.436
523.00,34.481
524.00,34.562
525.00,34.669
526.00,34.779
527.00,34.841
528.00,34.886
529.00,35.023
530.00,35.133
531.00,35.277
532.00,35.363
533.00,35.398
534.00,35.572
535.00,35.664
536.00,35.708
537.00,35.776
538.00,35.906
539.00,35.945
540.00,36.038
541.00,36.049
542.00,36.053
543.00,36.146
544.00,36.217
545.00,36.293
546.00,36.346
547.00,36.446
548.00,36.462
549.00,36.605
550.00,36.720
551.00,36.769
552.00,36.815
553.00,36.884
554.00,36.953
555.00,36.944
556.00,37.026
557.00,37.102
558.00,37.135
559.00,37.207
560.00,37.293
561.00,37.371
562.00,37.385
563.00,37.399
564.00,37.455
565.00,37.528
566.00,37.550
567.00,37.599
568.00,37.628
569.00,37.665
570.00,37.694
571.00,37.773
572.00,37.820
573.00,37.777
574.00,37.797
575.00,37.849
576.00,37.852
577.00,37.865
578.00,37.947
579.00,38.053
580.00,38.141
581.00,38.204
582.00,38.284
583.00,38.376
584.00,38.443
585.00,38.450
586.00,38.505
587.00,38.583
588.00,38.597
589.00,38.615
590.00,38.628
591.00,38.703
592.00,38.683
593.00,38.741
594.00,38.814
595.00,38.848
596.00,38.896
597.00,38.977
598.00,39.049
599.00,39.041
600.00,39.163
601.00,39.181
602.00,39.185
603.00,39.247
604.00,39.249
605.00,39.326
606.00,39.362
607.00,39.390
608.00,39.463
609.00,39.472
610.00,39.542
611.00,39.547
612.00,39.560
613.00,39.594
614.00,39.677
615.00,39.613
616.00,39.745
617.00,39.808
618.00,39.915
619.00,39.868
620.00,39.831
621.00,40.040
622.00,40.115
623.00,40.207
624.00,40.263
625.00,40.299
626.00,40.333
627.00,40.504
628.00,40.494
629.00,40.466
630.00,40.538
631.00,40.610
632.00,40.744
633.00,40.819
634.00,40.859
635.00,40.937
636.00,41.085
637.00,41.115
638.00,41.183
639.00,41.252
640.00,41.264
641.00,41.358
642.00,41.433
643.00,41.479
644.00,41.568
645.00,41.634
646.00,41.799
647.00,41.838
648.00,41.855
649.00,41.999
650.00,42.024
651.00,42.071
652.00,42.151
653.00,42.254
654.00,42.293
655.00,42.349
656.00,42.496
657.00,42.686
658.00,42.787
659.00,42.813
660.00,42.845
661.00,42.786
662.00,43.021
663.00,43.131
664.00,43.242
665.00,43.404
666.00,43.463
667.00,43.553
668.00,43.520
669.00,43.742
670.00,43.913
671.00,43.991
672.00,44.039
673.00,44.138
674.00,44.318
675.00,44.261
676.00,44.437
677.00,44.482
678.00,44.540
679.00,44.663
680.00,44.771
681.00,44.905
682.00,45.069
683.00,45.062
684.00,45.252
685.00,45.363
686.00,45.205
687.00,45.329
688.00,45.477
689.00,45.445
690.00,45.545
691.00,45.812
692.00,45.845
693.00,45.806
694.00,45.916
695.00,46.032
696.00,46.076
697.00,46.238
698.00,46.313
699.00,46.594
700.00,46.482
701.00,46.465
702.00,46.893
703.00,46.900
704.00,46.895
705.00,46.961
706.00,47.056
707.00,47.326
708.00,47.028
709.00,47.246
710.00,47.583
711.00,47.500
712.00,47.422
713.00,47.629
714.00,47.594
715.00,47.709
716.00,47.851
717.00,47.810
718.00,47.982
719.00,48.020
720.00,48.165
721.00,52.279
722.00,52.200
723.00,52.309
724.00,52.237
725.00,52.345
726.00,52.348
727.00,52.360
728.00,52.479
729.00,52.486
730.00,52.529
731.00,52.558
732.00,52.617
733.00,52.672
734.00,52.707
735.00,52.693
736.00,52.708
737.00,52.740
738.00,52.766
739.00,52.796
740.00,52.899
741.00,52.885
742.00,52.994
743.00,52.967
744.00,52.899
745.00,52.942
746.00,52.950
747.00,53.024
748.00,52.979
749.00,53.036
750.00,53.028
751.00,52.978
752.00,53.090
753.00,53.032
754.00,53.116
755.00,53.113
756.00,53.132
757.00,53.107
758.00,53.102
759.00,53.133
760.00,53.182
761.00,53.213
762.00,53.165
763.00,53.287
764.00,53.214
765.00,53.236
766.00,53.249
767.00,53.287
768.00,53.236
769.00,53.309
770.00,53.312
771.00,53.297
772.00,53.372
773.00,53.370
774.00,53.385
775.00,53.410
776.00,53.407
777.00,53.464
778.00,53.369
779.00,53.503
780.00,53.480
781.00,53.454
782.00,53.425
783.00,53.438
784.00,53.510
785.00,53.365
786.00,53.446
787.00,53.476
788.00,53.367
789.00,53.485
790.00,53.358
791.00,53.462
792.00,53.353
793.00,53.407
794.00,53.417
795.00,53.364
796.00,53.469
797.00,53.416
798.00,53.477
799.00,53.340
800.00,53.339
801.00,53.347
802.00,53.374
803.00,53.362
804.00,53.268
805.00,53.328
806.00,53.299
807.00,53.295
808.00,53.284
809.00,53.221
810.00,53.354
811.00,53.267
812.00,53.301
813.00,53.238
814.00,53.275
815.00,53.154
816.00,53.227
817.00,53.263
818.00,53.089
819.00,53.178
820.00,53.182
821.00,53.122
822.00,53.145
823.00,53.046
824.00,53.181
825.00,53.057
826.00,53.196
827.00,53.023
828.00,53.135
829.00,53.041
830.00,53.065
831.00,55.667
832.00,55.654
833.00,55.651
834.00,55.636
835.00,55.611
836.00,55.627
837.00,55.590
838.00,55.603
839.00,55.570
840.00,55.527
841.00,55.555
842.00,55.523
843.00,55.536
844.00,55.535
845.00,55.482
846.00,55.479
847.00,55.479
848.00,55.466
849.00,55.388
850.00,55.376
851.00,55.325
852.00,55.345
853.00,55.288
854.00,55.238
855.00,55.216
856.00,55.213
857.00,55.179
858.00,55.186
859.00,55.178
860.00,55.172
861.00,55.167
862.00,55.127
863.00,55.136
864.00,55.131
865.00,55.140
866.00,55.108
867.00,55.121
868.00,55.149
869.00,55.116
870.00,55.133
871.00,55.072
872.00,55.111
873.00,55.073
874.00,55.088
875.00,55.060
876.00,55.066
877.00,55.056
878.00,55.066
879.00,55.028
880.00,55.012
881.00,55.013
882.00,55.059
883.00,54.986
884.00,54.956
885.00,54.948
886.00,54.919
887.00,54.901
888.00,54.870
889.00,54.908
890.00,54.856
891.00,54.837
892.00,54.850
893.00,54.827
894.00,54.803
895.00,54.785
896.00,54.777
897.00,54.777
898.00,54.731
899.00,54.737
900.00,54.715
901.00,54.733
902.00,54.719
903.00,54.648
904.00,54.628
905.00,54.657
906.00,54.641
907.00,54.621
908.00,54.578
909.00,54.578
910.00,54.549
911.00,54.565
912.00,54.536
913.00,54.498
914.00,54.520
915.00,54.488
916.00,54.485
917.00,54.427
918.00,54.414
919.00,54.398
920.00,54.368
921.00,54.397
922.00,54.384
923.00,54.350
924.00,54.235
925.00,54.335
926.00,54.312
927.00,54.297
928.00,54.274
929.00,54.251
930.00,54.217
931.00,54.205
932.00,54.178
933.00,54.204
934.00,54.157
935.00,54.141
936.00,54.113
937.00,54.112
938.00,54.119
939.00,54.083
940.00,54.054
941.00,54.044
942.00,54.030
943.00,54.032
944.00,53.999
945.00,53.969
946.00,54.070
947.00,53.961
948.00,53.944
949.00,53.956
950.00,53.941
951.00,53.911
952.00,53.888
953.00,53.856
954.00,53.814
955.00,53.786
956.00,53.754
957.00,53.730
958.00,53.744
959.00,53.689
960.00,53.685
961.00,53.738
962.00,53.676
963.00,53.650
964.00,53.643
965.00,53.638
966.00,53.645
967.00,53.630
968.00,53.627
969.00,53.642
970.00,53.613
971.00,53.621
972.00,53.567
973.00,53.636
974.00,53.693
975.00,53.611
976.00,53.603
977.00,53.620
978.00,53.629
979.00,53.603
980.00,53.638
981.00,53.637
982.00,53.612
983.00,53.617
984.00,53.593
985.00,53.617
986.00,53.584
987.00,53.614
988.00,53.565
989.00,53.540
990.00,53.539
991.00,53.533
992.00,53.525
993.00,53.512
994.00,53.500
995.00,53.486
996.00,53.506
997.00,53.476
998.00,53.465
999.00,53.464
1000.00,53.416
1001.00,53.426
1002.00,53.428
1003.00,53.423
1004.00,53.388
1005.00,53.363
1006.00,53.391
1007.00,53.403
1008.00,53.361
1009.00,53.343
1010.00,53.354
1011.00,53.310
1012.00,53.292
1013.00,53.293
1014.00,53.265
1015.00,53.292
1016.00,53.249
1017.00,53.235
1018.00,53.227
1019.00,53.215
1020.00,53.192
1021.00,53.187
1022.00,53.173
1023.00,53.118
1024.00,53.151
1025.00,53.130
1026.00,53.152
1027.00,53.104
1028.00,53.089
1029.00,53.082
1030.00,53.046
1031.00,53.071
1032.00,53.041
1033.00,53.042
1034.00,53.008
1035.00,52.979
1036.00,52.946
1037.00,52.939
1038.00,52.922
1039.00,52.870
1040.00,52.879
1041.00,52.847
1042.00,52.850
1043.00,52.829
1044.00,52.856
1045.00,52.821
1046.00,52.811
1047.00,52.814
1048.00,52.856
1049.00,52.843
1050.00,52.850
1051.00,52.890
1052.00,52.907
1053.00,52.914
1054.00,52.914
1055.00,52.921
1056.00,52.936
1057.00,52.956
1058.00,52.933
1059.00,52.935
1060.00,52.941
1061.00,52.916
1062.00,52.919
1063.00,52.911
1064.00,52.917
1065.00,52.918
1066.00,52.896
1067.00,52.910
1068.00,52.937
1069.00,52.883
1070.00,52.869
1071.00,52.868
1072.00,52.887
1073.00,52.874
1074.00,52.855
1075.00,52.842
1076.00,52.855
1077.00,52.818
1078.00,52.804
1079.00,52.810
1080.00,52.820
1081.00,52.797
1082.00,52.805
1083.00,52.795
1084.00,52.781
1085.00,52.793
1086.00,52.783
1087.00,52.801
1088.00,52.770
1089.00,52.745
1090.00,52.770
1091.00,52.767
1092.00,52.767
1093.00,52.729
1094.00,52.700
1095.00,52.698
1096.00,52.679
1097.00,52.682
1098.00,52.674
1099.00,52.654
1100.00,52.663
1101.00,52.656
1102.00,52.631
1103.00,52.614
1104.00,52.611
1105.00,52.579
1106.00,52.592
1107.00,52.576
1108.00,52.581
1109.00,52.593
1110.00,52.583
1111.00,52.574
1112.00,52.563
1113.00,52.562
1114.00,52.562
1115.00,52.572
1116.00,52.553
1117.00,52.546
1118.00,52.530
1119.00,52.525
1120.00,52.535
1121.00,52.513
1122.00,52.496
1123.00,52.492
1124.00,52.491
1125.00,52.509
1126.00,52.499
1127.00,52.481
1128.00,52.477
1129.00,52.462
1130.00,52.456
1131.00,52.460
1132.00,52.447
1133.00,52.437
1134.00,52.445
1135.00,52.423
1136.00,52.441
1137.00,52.439
1138.00,52.434
1139.00,52.448
1140.00,52.420
1141.00,52.426
1142.00,52.414
1143.00,52.413
1144.00,52.418
1145.00,52.415
1146.00,52.383
1147.00,52.383
1148.00,52.381
1149.00,52.395
1150.00,52.408
1151.00,52.401
1152.00,52.403
1153.00,52.393
1154.00,52.364
1155.00,52.386
1156.00,52.371
1157.00,52.379
1158.00,52.379
1159.00,52.379
1160.00,52.365
1161.00,52.402
1162.00,52.388
1163.00,52.382
1164.00,52.382
1165.00,52.367
1166.00,52.367
1167.00,52.368
1168.00,52.376
1169.00,52.378
1170.00,52.371
1171.00,52.346
1172.00,52.366
1173.00,52.346
1174.00,52.364
1175.00,52.354
1176.00,52.360
1177.00,52.345
1178.00,52.354
1179.00,52.364
1180.00,52.352
1181.00,52.371
1182.00,52.352
1183.00,52.364
1184.00,52.331
1185.00,52.352
1186.00,52.360
1187.00,52.350
1188.00,52.344
1189.00,52.355
1190.00,52.342
1191.00,52.343
1192.00,52.352
1193.00,52.329
1194.00,52.336
1195.00,52.318
1196.00,52.342
1197.00,52.357
1198.00,52.341
1199.00,52.329
1200.00,52.346
1201.00,52.339
1202.00,52.359
1203.00,52.362
1204.00,52.367
1205.00,52.383
1206.00,52.327
1207.00,52.339
1208.00,52.326
1209.00,52.343
1210.00,52.333
1211.00,52.341
1212.00,52.348
1213.00,52.323
1214.00,52.359
1215.00,52.319
1216.00,52.356
1217.00,52.340
1218.00,52.336
1219.00,52.361
1220.00,52.347
1221.00,52.384
1222.00,52.344
1223.00,52.371
1224.00,52.366
1225.00,52.348
1226.00,52.333
1227.00,52.344
1228.00,52.363
1229.00,52.369
1230.00,52.395
1231.00,52.373
1232.00,52.399
1233.00,52.408
1234.00,52.399
1235.00,52.416
1236.00,52.403
1237.00,52.378
1238.00,52.384
1239.00,52.369
1240.00,52.372
1241.00,52.394
1242.00,52.395
1243.00,52.402
1244.00,52.391
1245.00,52.401
1246.00,52.438
1247.00,52.433
1248.00,52.416
1249.00,52.453
1250.00,52.412
1251.00,52.443
1252.00,52.467
1253.00,52.437
1254.00,52.450
1255.00,52.433
1256.00,52.424
1257.00,52.441
1258.00,52.475
1259.00,52.457
1260.00,52.479
1261.00,52.464
1262.00,52.475
1263.00,52.472
1264.00,52.472
1265.00,52.477
1266.00,52.478
1267.00,52.481
1268.00,52.500
1269.00,52.493
1270.00,52.522
1271.00,52.531
1272.00,52.534
1273.00,52.535
1274.00,52.539
1275.00,52.546
1276.00,52.553
1277.00,52.561
1278.00,52.566
1279.00,52.579
1280.00,52.538
1281.00,52.569
1282.00,52.596
1283.00,52.553
1284.00,52.572
1285.00,52.579
1286.00,52.582
1287.00,52.578
1288.00,52.591
1289.00,52.590
1290.00,52.628
1291.00,52.609
1292.00,52.600
1293.00,52.636
1294.00,52.631
1295.00,52.644
1296.00,52.656
1297.00,52.654
1298.00,52.679
1299.00,52.666
1300.00,52.680
1301.00,52.685
1302.00,52.699
1303.00,52.698
1304.00,52.691
1305.00,52.716
1306.00,52.712
1307.00,52.727
1308.00,52.725
1309.00,52.716
1310.00,52.727
1311.00,52.705
1312.00,52.728
1313.00,52.721
1314.00,52.740
1315.00,52.757
1316.00,52.747
1317.00,52.775
1318.00,52.793
1319.00,52.783
1320.00,52.777
1321.00,52.961
1322.00,52.944
1323.00,52.926
1324.00,52.933
1325.00,52.896
1326.00,52.920
1327.00,52.912
1328.00,52.919
1329.00,52.920
1330.00,52.926
1331.00,52.912
1332.00,52.931
1333.00,52.917
1334.00,52.953
1335.00,52.967
1336.00,52.991
1337.00,53.003
1338.00,53.073
1339.00,53.116
1340.00,53.217
1341.00,53.263
1342.00,53.297
1343.00,53.359
1344.00,53.414
1345.00,53.444
1346.00,53.501
1347.00,53.507
1348.00,53.543
1349.00,53.566
1350.00,53.609
1351.00,53.601
1352.00,53.584
1353.00,53.584
1354.00,53.596
1355.00,53.542
1356.00,53.638
1357.00,53.602
1358.00,53.629
1359.00,53.631
1360.00,53.674
1361.00,53.663
1362.00,53.663
1363.00,53.721
1364.00,53.710
1365.00,53.671
1366.00,53.650
1367.00,53.657
1368.00,53.580
1369.00,53.596
1370.00,53.619
1371.00,53.594
1372.00,53.610
1373.00,53.649
1374.00,53.662
1375.00,53.639
1376.00,53.630
1377.00,53.603
1378.00,53.722
1379.00,53.672
1380.00,53.638
1381.00,53.684
1382.00,53.671
1383.00,53.665
1384.00,53.615
1385.00,53.561
1386.00,53.578
1387.00,53.617
1388.00,53.587
1389.00,53.612
1390.00,53.616
1391.00,53.621
1392.00,53.621
1393.00,53.661
1394.00,53.658
1395.00,53.632
1396.00,53.590
1397.00,53.619
1398.00,53.620
1399.00,53.709
1400.00,53.637
1401.00,53.631
1402.00,53.462
1403.00,53.667
1404.00,53.634
1405.00,53.681
1406.00,53.684
1407.00,53.658
1408.00,53.666
1409.00,53.676
1410.00,53.690
1411.00,53.628
1412.00,53.765
1413.00,53.725
1414.00,53.686
1415.00,53.706
1416.00,53.754
1417.00,53.786
1418.00,53.741
1419.00,53.735
1420.00,53.771
1421.00,53.796
1422.00,53.776
1423.00,53.809
1424.00,53.808
1425.00,53.829
1426.00,53.836
1427.00,53.865
1428.00,53.853
1429.00,53.893
1430.00,53.870
1431.00,53.911
1432.00,53.919
1433.00,53.936
1434.00,53.938
1435.00,53.985
1436.00,53.986
1437.00,53.972
1438.00,53.986
1439.00,54.034
1440.00,54.046
1441.00,54.053
1442.00,54.083
1443.00,54.090
1444.00,54.131
1445.00,54.117
1446.00,54.121
1447.00,54.156
1448.00,54.176
1449.00,54.191
1450.00,54.190
1451.00,54.199
1452.00,54.211
1453.00,54.232
1454.00,54.225
1455.00,54.251
1456.00,54.278
1457.00,54.278
1458.00,54.286
1459.00,54.302
1460.00,54.323
1461.00,54.339
1462.00,54.376
1463.00,54.381
1464.00,54.400
1465.00,54.397
1466.00,54.394
1467.00,54.426
1468.00,54.469
1469.00,54.441
1470.00,54.459
1471.00,54.476
1472.00,54.487
1473.00,54.509
1474.00,54.528
1475.00,54.557
1476.00,54.543
1477.00,54.539
1478.00,54.568
1479.00,54.577
1480.00,54.576
1481.00,54.595
1482.00,54.610
1483.00,54.632
1484.00,54.620
1485.00,54.630
1486.00,54.649
1487.00,54.665
1488.00,54.684
1489.00,54.685
1490.00,54.695
1491.00,54.707
1492.00,54.719
1493.00,54.707
1494.00,54.751
1495.00,54.724
1496.00,54.778
1497.00,54.763
1498.00,54.764
1499.00,54.776
1500.00,54.778
1501.00, 
1502.00, 
1503.00, 
1504.00, 
1505.00, 
1506.00, 
1507.00, 
1508.00, 
1509.00, 
1510.00, 
1511.00, 
1512.00, 
1513.00, 
1514.00, 
1515.00, 
1516.00, 
1517.00, 
1518.00, 
1519.00, 
1520.00, 
1521.00, 
1522.00, 
1523.00, 
1524.00, 
1525.00, 
1526.00, 
1527.00, 
1528.00, 
1529.00, 
1530.00, 
1531.00, 
1532.00, 
1533.00, 
1534.00, 
1535.00, 
1536.00, 
1537.00, 
1538.00, 
1539.00, 
1540.00, 
1541.00, 
1542.00, 
1543.00, 
1544.00, 
1545.00, 
1546.00, 
1547.00, 
1548.00, 
1549.00, 
1550.00, 
1551.00, 
1552.00, 
1553.00, 
1554.00, 
1555.00, 
1556.00, 
1557.00, 
1558.00, 
1559.00, 
1560.00, 
1561.00, 
1562.00, 
1563.00, 
1564.00, 
1565.00, 
1566.00, 
1567.00, 
1568.00, 
1569.00, 
1570.00, 
1571.00, 
1572.00, 
1573.00, 
1574.00, 
1575.00, 
1576.00, 
1577.00, 
1578.00, 
1579.00, 
1580.00, 
1581.00, 
1582.00, 
1583.00, 
1584.00, 
1585.00, 
1586.00, 
1587.00, 
1588.00, 
1589.00, 
1590.00, 
1591.00, 
1592.00, 
1593.00, 
1594.00, 
1595.00, 
1596.00, 
1597.00, 
1598.00, 
1599.00, 
1600.00, 
1601.00, 
1602.00, 
1603.00, 
1604.00, 
1605.00, 
1606.00, 
1607.00, 
1608.00, 
1609.00, 
1610.00, 
1611.00, 
1612.00, 
1613.00, 
1614.00, 
1615.00, 
1616.00, 
1617.00, 
1618.00, 
1619.00, 
1620.00, 
1621.00, 
1622.00, 
1623.00, 
1624.00, 
1625.00, 
1626.00, 
1627.00, 
1628.00, 
1629.00, 
1630.00, 
1631.00, 
1632.00, 
1633.00, 
1634.00, 
1635.00, 
1636.00, 
1637.00, 
1638.00, 
1639.00, 
1640.00, 
1641.00, 
1642.00, 
1643.00, 
1644.00, 
1645.00, 
1646.00, 
1647.00, 
1648.00, 
1649.00, 
1650.00, 
1651.00, 
1652.00, 
1653.00, 
1654.00, 
1655.00, 
1656.00, 
1657.00, 
1658.00, 
1659.00, 
1660.00, 
1661.00, 
1662.00, 
1663.00, 
1664.00, 
1665.00, 
1666.00, 
1667.00, 
1668.00, 
1669.00, 
1670.00, 
1671.00, 
1672.00, 
1673.00, 
1674.00, 
1675.00, 
1676.00, 
1677.00, 
1678.00, 
1679.00, 
1680.00, 
1681.00, 
1682.00, 
1683.00, 
1684.00, 
1685.00, 
1686.00, 
1687.00, 
1688.00, 
1689.00, 
1690.00, 
1691.00, 
1692.00, 
1693.00, 
1694.00, 
1695.00, 
1696.00, 
1697.00, 
1698.00, 
1699.00, 
1700.00, 
1701.00, 
1702.00, 
1703.00, 
1704.00, 
1705.00, 
1706.00, 
1707.00, 
1708.00, 
1709.00, 
1710.00, 
1711.00, 
1712.00, 
1713.00, 
1714.00, 
1715.00, 
1716.00, 
1717.00, 
1718.00, 
1719.00, 
1720.00, 
1721.00, 
1722.00, 
1723.00, 
1724.00, 
1725.00, 
1726.00, 
1727.00, 
1728.00, 
1729.00, 
1730.00, 
1731.00, 
1732.00, 
1733.00, 
1734.00, 
1735.00, 
1736.00, 
1737.00, 
1738.00, 
1739.00, 
1740.00, 
1741.00, 
1742.00, 
1743.00, 
1744.00, 
1745.00, 
1746.00, 
1747.00, 
1748.00, 
1749.00, 
1750.00, 
1751.00, 
1752.00, 
1753.00, 
1754.00, 
1755.00, 
1756.00, 
1757.00, 
1758.00, 
1759.00, 
1760.00, 
1761.00, 
1762.00, 
1763.00, 
1764.00, 
1765.00, 
1766.00, 
1767.00, 
1768.00, 
1769.00, 
1770.00, 
1771.00, 
1772.00, 
1773.00, 
1774.00, 
1775.00, 
1776.00, 
1777.00, 
1778.00, 
1779.00, 
1780.00, 
1781.00, 
1782.00, 
1783.00, 
1784.00, 
1785.00, 
1786.00, 
1787.00, 
1788.00, 
1789.00, 
1790.00, 
1791.00, 
1792.00, 
1793.00, 
1794.00, 
1795.00, 
1796.00, 
1797.00, 
1798.00, 
1799.00, 
1800.00, 
1801.00, 
1802.00, 
1803.00, 
1804.00, 
1805.00, 
1806.00, 
1807.00, 
1808.00, 
1809.00, 
1810.00, 
1811.00, 
1812.00, 
1813.00, 
1814.00, 
1815.00, 
1816.00, 
1817.00, 
1818.00, 
1819.00, 
1820.00, 
1821.00, 
1822.00, 
1823.00, 
1824.00, 
1825.00, 
1826.00, 
1827.00, 
1828.00, 
1829.00, 
1830.00, 
1831.00, 
1832.00, 
1833.00, 
1834.00, 
1835.00, 
1836.00, 
1837.00, 
1838.00, 
1839.00, 
1840.00, 
1841.00, 
1842.00, 
1843.00, 
1844.00, 
1845.00, 
1846.00, 
1847.00, 
1848.00, 
1849.00, 
1850.00, 
1851.00, 
1852.00, 
1853.00, 
1854.00, 
1855.00, 
1856.00, 
1857.00, 
1858.00, 
1859.00, 
1860.00, 
1861.00, 
1862.00, 
1863.00, 
1864.00, 
1865.00, 
1866.00, 
1867.00, 
1868.00, 
1869.00, 
1870.00, 
1871.00, 
1872.00, 
1873.00, 
1874.00, 
1875.00, 
1876.00, 
1877.00, 
1878.00, 
1879.00, 
1880.00, 
1881.00, 
1882.00, 
1883.00, 
1884.00, 
1885.00, 
1886.00, 
1887.00, 
1888.00, 
1889.00, 
1890.00, 
1891.00, 
1892.00, 
1893.00, 
1894.00, 
1895.00, 
1896.00, 
1897.00, 
1898.00, 
1899.00, 
1900.00, 
1901.00, 
1902.00, 
1903.00, 
1904.00, 
1905.00, 
1906.00, 
1907.00, 
1908.00, 
1909.00, 
1910.00, 
1911.00, 
1912.00, 
1913.00, 
1914.00, 
1915.00, 
1916.00, 
1917.00, 
1918.00, 
1919.00, 
1920.00, 
1921.00, 
1922.00, 
1923.00, 
1924.00, 
1925.00, 
1926.00, 
1927.00, 
1928.00, 
1929.00, 
1930.00, 
1931.00, 
1932.00, 
1933.00, 
1934.00, 
1935.00, 
1936.00, 
1937.00, 
1938.00, 
1939.00, 
1940.00, 
1941.00, 
1942.00, 
1943.00, 
1944.00, 
1945.00, 
1946.00, 
1947.00, 
1948.00, 
1949.00, 
1950.00, 
1951.00, 
1952.00, 
1953.00, 
1954.00, 
1955.00, 
1956.00, 
1957.00, 
1958.00, 
1959.00, 
1960.00, 
1961.00, 
1962.00, 
1963.00, 
1964.00, 
1965.00, 
1966.00, 
1967.00, 
1968.00, 
1969.00, 
1970.00, 
1971.00, 
1972.00, 
1973.00, 
1974.00, 
1975.00, 
1976.00, 
1977.00, 
1978.00, 
1979.00, 
1980.00, 
1981.00, 
1982.00, 
1983.00, 
1984.00, 
1985.00, 
1986.00, 
1987.00, 
1988.00, 
1989.00, 
1990.00, 
1991.00, 
1992.00, 
1993.00, 
1994.00, 
1995.00, 
1996.00, 
1997.00, 
1998.00, 
1999.00, 
2000.00, 
2001.00, 
2002.00, 
2003.00, 
2004.00, 
2005.00, 
2006.00, 
2007.00, 
2008.00, 
2009.00, 
2010.00, 
2011.00, 
2012.00, 
2013.00, 
2014.00, 
2015.00, 
2016.00, 
2017.00, 
2018.00, 
2019.00, 
2020.00, 
2021.00, 
2022.00, 
2023.00, 
2024.00, 
2025.00, 
2026.00, 
2027.00, 
2028.00, 
2029.00, 
2030.00, 
2031.00, 
2032.00, 
2033.00, 
2034.00, 
2035.00, 
2036.00, 
2037.00, 
2038.00, 
2039.00, 
2040.00, 
2041.00, 
2042.00, 
2043.00, 
2044.00, 
2045.00, 
2046.00, 
2047.00, 
2048.00, 
2049.00, 
2050.00, 
2051.00, 
2052.00, 
2053.00, 
2054.00, 
2055.00, 
2056.00, 
2057.00, 
2058.00, 
2059.00, 
2060.00, 
2061.00, 
2062.00, 
2063.00, 
2064.00, 
2065.00, 
2066.00, 
2067.00, 
2068.00, 
2069.00, 
2070.00, 
2071.00, 
2072.00, 
2073.00, 
2074.00, 
2075.00, 
2076.00, 
2077.00, 
2078.00, 
2079.00, 
2080.00, 
2081.00, 
2082.00, 
2083.00, 
2084.00, 
2085.00, 
2086.00, 
2087.00, 
2088.00, 
2089.00, 
2090.00, 
2091.00, 
2092.00, 
2093.00, 
2094.00, 
2095.00, 
2096.00, 
2097.00, 
2098.00, 
2099.00, 
2100.00, 
2101.00, 
2102.00, 
2103.00, 
2104.00, 
2105.00, 
2106.00, 
2107.00, 
2108.00, 
2109.00, 
2110.00, 
2111.00, 
2112.00, 
2113.00, 
2114.00, 
2115.00, 
2116.00, 
2117.00, 
2118.00, 
2119.00, 
2120.00, 
2121.00, 
2122.00, 
2123.00, 
2124.00, 
2125.00, 
2126.00, 
2127.00, 
2128.00, 
2129.00, 
2130.00, 
2131.00, 
2132.00, 
2133.00, 
2134.00, 
2135.00, 
2136.00, 
2137.00, 
2138.00, 
2139.00, 
2140.00, 
2141.00, 
2142.00, 
2143.00, 
2144.00, 
2145.00, 
2146.00, 
2147.00, 
2148.00, 
2149.00, 
2150.00, 
2151.00, 
2152.00, 
2153.00, 
2154.00, 
2155.00, 
2156.00, 
2157.00, 
2158.00, 
2159.00, 
2160.00, 
2161.00, 
2162.00, 
2163.00, 
2164.00, 
2165.00, 
2166.00, 
2167.00, 
2168.00, 
2169.00, 
2170.00, 
2171.00, 
2172.00, 
2173.00, 
2174.00, 
2175.00, 
2176.00, 
2177.00, 
2178.00, 
2179.00, 
2180.00, 
2181.00, 
2182.00, 
2183.00, 
2184.00, 
2185.00, 
2186.00, 
2187.00, 
2188.00, 
2189.00, 
2190.00, 
2191.00, 
2192.00, 
2193.00, 
2194.00, 
2195.00, 
2196.00, 
2197.00, 
2198.00, 
2199.00, 
2200.00, 
2201.00, 
2202.00, 
2203.00, 
2204.00, 
2205.00, 
2206.00, 
2207.00, 
2208.00, 
2209.00, 
2210.00, 
2211.00, 
2212.00, 
2213.00, 
2214.00, 
2215.00, 
2216.00, 
2217.00, 
2218.00, 
2219.00, 
2220.00, 
2221.00, 
2222.00, 
2223.00, 
2224.00, 
2225.00, 
2226.00, 
2227.00, 
2228.00, 
2229.00, 
2230.00, 
2231.00, 
2232.00, 
2233.00, 
2234.00, 
2235.00, 
2236.00, 
2237.00, 
2238.00, 
2239.00, 
2240.00, 
2241.00, 
2242.00, 
2243.00, 
2244.00, 
2245.00, 
2246.00, 
2247.00, 
2248.00, 
2249.00, 
2250.00, 
2251.00, 
2252.00, 
2253.00, 
2254.00, 
2255.00, 
2256.00, 
2257.00, 
2258.00, 
2259.00, 
2260.00, 
2261.00, 
2262.00, 
2263.00, 
2264.00, 
2265.00, 
2266.00, 
2267.00, 
2268.00, 
2269.00, 
2270.00, 
2271.00, 
2272.00, 
2273.00, 
2274.00, 
2275.00, 
2276.00, 
2277.00, 
2278.00, 
2279.00, 
2280.00, 
2281.00, 
2282.00, 
2283.00, 
2284.00, 
2285.00, 
2286.00, 
2287.00, 
2288.00, 
2289.00, 
2290.00, 
2291.00, 
2292.00, 
2293.00, 
2294.00, 
2295.00, 
2296.00, 
2297.00, 
2298.00, 
2299.00, 
2300.00, 
2301.00, 
2302.00, 
2303.00, 
2304.00, 
2305.00, 
2306.00, 
2307.00, 
2308.00, 
2309.00, 
2310.00, 
2311.00, 
2312.00, 
2313.00, 
2314.00, 
2315.00, 
2316.00, 
2317.00, 
2318.00, 
2319.00, 
2320.00, 
2321.00, 
2322.00, 
2323.00, 
2324.00, 
2325.00, 
2326.00, 
2327.00, 
2328.00, 
2329.00, 
2330.00, 
2331.00, 
2332.00, 
2333.00, 
2334.00, 
2335.00, 
2336.00, 
2337.00, 
2338.00, 
2339.00, 
2340.00, 
2341.00, 
2342.00, 
2343.00, 
2344.00, 
2345.00, 
2346.00, 
2347.00, 
2348.00, 
2349.00, 
2350.00, 
2351.00, 
2352.00, 
2353.00, 
2354.00, 
2355.00, 
2356.00, 
2357.00, 
2358.00, 
2359.00, 
2360.00, 
2361.00, 
2362.00, 
2363.00, 
2364.00, 
2365.00, 
2366.00, 
2367.00, 
2368.00, 
2369.00, 
2370.00, 
2371.00, 
2372.00, 
2373.00, 
2374.00, 
2375.00, 
2376.00, 
2377.00, 
2378.00, 
2379.00, 
2380.00, 
2381.00, 
2382.00, 
2383.00, 
2384.00, 
2385.00, 
2386.00, 
2387.00, 
2388.00, 
2389.00, 
2390.00, 
2391.00, 
2392.00, 
2393.00, 
2394.00, 
2395.00, 
2396.00, 
2397.00, 
2398.00, 
2399.00, 
2400.00, 
2401.00, 
2402.00, 
2403.00, 
2404.00, 
2405.00, 
2406.00, 
2407.00, 
2408.00, 
2409.00, 
2410.00, 
2411.00, 
2412.00, 
2413.00, 
2414.00, 
2415.00, 
2416.00, 
2417.00, 
2418.00, 
2419.00, 
2420.00, 
2421.00, 
2422.00, 
2423.00, 
2424.00, 
2425.00, 
2426.00, 
2427.00, 
2428.00, 
2429.00, 
2430.00, 
2431.00, 
2432.00, 
2433.00, 
2434.00, 
2435.00, 
2436.00, 
2437.00, 
2438.00, 
2439.00, 
2440.00, 
2441.00, 
2442.00, 
2443.00, 
2444.00, 
2445.00, 
2446.00, 
2447.00, 
2448.00, 
2449.00, 
2450.00, 
2451.00, 
2452.00, 
2453.00, 
2454.00, 
2455.00, 
2456.00, 
2457.00, 
2458.00, 
2459.00, 
2460.00, 
2461.00, 
2462.00, 
2463.00, 
2464.00, 
2465.00, 
2466.00, 
2467.00, 
2468.00, 
2469.00, 
2470.00, 
2471.00, 
2472.00, 
2473.00, 
2474.00, 
2475.00, 
2476.00, 
2477.00, 
2478.00, 
2479.00, 
2480.00, 
2481.00, 
2482.00, 
2483.00, 
2484.00, 
2485.00, 
2486.00, 
2487.00, 
2488.00, 
2489.00, 
2490.00, 
2491.00, 
2492.00, 
2493.00, 
2494.00, 
2495.00, 
2496.00, 
2497.00, 
2498.00, 
2499.00, 
2500.00, 
2501.00, 
2502.00, 
2503.00, 
2504.00, 
2505.00, 
2506.00, 
2507.00, 
2508.00, 
2509.00, 
2510.00, 
2511.00, 
2512.00, 
2513.00, 
2514.00, 
2515.00, 
2516.00, 
2517.00, 
2518.00, 
2519.00, 
2520.00, 
2521.00, 
2522.00, 
2523.00, 
2524.00, 
2525.00, 
2526.00, 
2527.00, 
2528.00, 
2529.00, 
2530.00, 
2531.00, 
2532.00, 
2533.00, 
2534.00, 
2535.00, 
2536.00, 
2537.00, 
2538.00, 
2539.00, 
2540.00, 
2541.00, 
2542.00, 
2543.00, 
2544.00, 
2545.00, 
2546.00, 
2547.00, 
2548.00, 
2549.00, 
2550.00, 
2551.00, 
2552.00, 
2553.00, 
2554.00, 
2555.00, 
2556.00, 
2557.00, 
2558.00, 
2559.00, 
2560.00, 
2561.00, 
2562.00, 
2563.00, 
2564.00, 
2565.00, 
2566.00, 
2567.00, 
2568.00, 
2569.00, 
2570.00, 
2571.00, 
2572.00, 
2573.00, 
2574.00, 
2575.00, 
2576.00, 
2577.00, 
2578.00, 
2579.00, 
2580.00, 
2581.00, 
2582.00, 
2583.00, 
2584.00, 
2585.00, 
2586.00, 
2587.00, 
2588.00, 
2589.00, 
2590.00, 
2591.00, 
2592.00, 
2593.00, 
2594.00, 
2595.00, 
2596.00, 
2597.00, 
2598.00, 
2599.00, 
2600.00, 
