"1cP1 - RawData"
"Wavelength nm.","T%"
200.00,-0.002
201.00,0.003
202.00,0.003
203.00,-0.002
204.00,0.003
205.00,0.001
206.00,-0.001
207.00,-0.000
208.00,0.002
209.00,0.000
210.00,0.001
211.00,0.002
212.00,0.000
213.00,-0.001
214.00,0.001
215.00,0.003
216.00,0.000
217.00,0.002
218.00,0.000
219.00,0.003
220.00,-0.000
221.00,0.000
222.00,0.003
223.00,-0.002
224.00,0.002
225.00,-0.000
226.00,-0.002
227.00,0.002
228.00,0.002
229.00,0.002
230.00,0.000
231.00,-0.001
232.00,0.001
233.00,0.001
234.00,-0.001
235.00,0.002
236.00,-0.001
237.00,0.001
238.00,0.001
239.00,-0.001
240.00,0.001
241.00,0.001
242.00,0.001
243.00,0.001
244.00,-0.001
245.00,0.002
246.00,-0.001
247.00,0.002
248.00,0.000
249.00,-0.000
250.00,-0.000
251.00,-0.000
252.00,0.001
253.00,-0.001
254.00,-0.001
255.00,0.004
256.00,-0.000
257.00,-0.000
258.00,0.001
259.00,0.001
260.00,0.000
261.00,-0.000
262.00,0.001
263.00,0.001
264.00,-0.000
265.00,-0.001
266.00,-0.002
267.00,-0.000
268.00,0.001
269.00,0.000
270.00,-0.000
271.00,0.000
272.00,0.000
273.00,0.001
274.00,0.000
275.00,-0.000
276.00,-0.001
277.00,0.000
278.00,0.001
279.00,-0.000
280.00,0.001
281.00,-0.000
282.00,0.002
283.00,-0.000
284.00,-0.001
285.00,0.002
286.00,-0.000
287.00,-0.001
288.00,-0.001
289.00,0.002
290.00,0.000
291.00,-0.000
292.00,0.000
293.00,0.001
294.00,0.002
295.00,-0.001
296.00,0.002
297.00,0.000
298.00,-0.002
299.00,-0.001
300.00,-0.001
301.00,-0.000
302.00,-0.000
303.00,0.000
304.00,0.001
305.00,0.001
306.00,0.003
307.00,0.002
308.00,0.006
309.00,0.008
310.00,0.015
311.00,0.024
312.00,0.035
313.00,0.052
314.00,0.081
315.00,0.117
316.00,0.171
317.00,0.237
318.00,0.328
319.00,0.444
320.00,0.588
321.00,0.767
322.00,0.968
323.00,1.226
324.00,1.522
325.00,1.834
326.00,2.178
327.00,2.578
328.00,3.013
329.00,3.474
330.00,3.985
331.00,4.501
332.00,5.067
333.00,5.677
334.00,6.245
335.00,6.870
336.00,7.491
337.00,8.104
338.00,8.730
339.00,9.338
340.00,9.934
341.00,10.541
342.00,11.094
343.00,11.649
344.00,12.237
345.00,12.742
346.00,13.232
347.00,13.687
348.00,14.170
349.00,14.555
350.00,14.962
351.00,15.326
352.00,15.648
353.00,16.016
354.00,16.300
355.00,16.576
356.00,16.825
357.00,17.047
358.00,17.292
359.00,17.552
360.00,17.753
361.00,17.867
362.00,18.052
363.00,18.183
364.00,18.302
365.00,18.364
366.00,18.485
367.00,18.555
368.00,18.612
369.00,18.597
370.00,18.685
371.00,18.674
372.00,18.634
373.00,18.667
374.00,18.639
375.00,18.559
376.00,18.508
377.00,18.437
378.00,18.291
379.00,18.266
380.00,18.210
381.00,18.205
382.00,18.193
383.00,18.226
384.00,18.232
385.00,18.311
386.00,18.301
387.00,18.396
388.00,18.449
389.00,18.455
390.00,18.492
391.00,18.496
392.00,18.537
393.00,18.553
394.00,18.579
395.00,18.564
396.00,18.561
397.00,18.557
398.00,18.546
399.00,18.534
400.00,18.524
401.00,18.499
402.00,18.561
403.00,18.566
404.00,18.559
405.00,18.509
406.00,18.536
407.00,18.426
408.00,18.495
409.00,18.446
410.00,18.376
411.00,18.364
412.00,18.342
413.00,18.315
414.00,18.278
415.00,18.288
416.00,18.331
417.00,18.281
418.00,18.312
419.00,18.387
420.00,18.408
421.00,18.363
422.00,18.395
423.00,18.442
424.00,18.450
425.00,18.485
426.00,18.484
427.00,18.558
428.00,18.582
429.00,18.587
430.00,18.645
431.00,18.719
432.00,18.719
433.00,18.810
434.00,18.829
435.00,18.895
436.00,18.932
437.00,18.998
438.00,19.069
439.00,19.117
440.00,19.190
441.00,19.264
442.00,19.332
443.00,19.391
444.00,19.495
445.00,19.576
446.00,19.645
447.00,19.742
448.00,19.813
449.00,19.899
450.00,20.037
451.00,20.073
452.00,20.206
453.00,20.320
454.00,20.435
455.00,20.538
456.00,20.655
457.00,20.761
458.00,20.860
459.00,20.998
460.00,21.142
461.00,21.294
462.00,21.346
463.00,21.488
464.00,21.591
465.00,21.739
466.00,21.863
467.00,21.994
468.00,22.084
469.00,22.208
470.00,22.300
471.00,22.386
472.00,22.536
473.00,22.627
474.00,22.736
475.00,22.869
476.00,22.966
477.00,23.118
478.00,23.244
479.00,23.426
480.00,23.560
481.00,23.682
482.00,23.834
483.00,23.995
484.00,24.164
485.00,24.270
486.00,24.411
487.00,24.546
488.00,24.696
489.00,24.886
490.00,24.993
491.00,25.132
492.00,25.251
493.00,25.475
494.00,25.622
495.00,25.652
496.00,25.792
497.00,25.883
498.00,26.049
499.00,26.226
500.00,26.412
501.00,26.465
502.00,26.580
503.00,26.760
504.00,26.823
505.00,26.934
506.00,27.105
507.00,27.210
508.00,27.360
509.00,27.535
510.00,27.626
511.00,27.723
512.00,27.904
513.00,28.013
514.00,28.156
515.00,28.283
516.00,28.399
517.00,28.530
518.00,28.689
519.00,28.694
520.00,28.728
521.00,28.926
522.00,29.045
523.00,29.087
524.00,29.183
525.00,29.320
526.00,29.403
527.00,29.466
528.00,29.566
529.00,29.694
530.00,29.850
531.00,29.966
532.00,30.092
533.00,30.168
534.00,30.269
535.00,30.394
536.00,30.424
537.00,30.575
538.00,30.643
539.00,30.716
540.00,30.818
541.00,30.841
542.00,30.912
543.00,31.000
544.00,31.085
545.00,31.177
546.00,31.203
547.00,31.335
548.00,31.423
549.00,31.473
550.00,31.564
551.00,31.698
552.00,31.729
553.00,31.805
554.00,31.872
555.00,31.912
556.00,32.001
557.00,32.065
558.00,32.138
559.00,32.240
560.00,32.281
561.00,32.369
562.00,32.449
563.00,32.458
564.00,32.516
565.00,32.574
566.00,32.567
567.00,32.588
568.00,32.659
569.00,32.749
570.00,32.815
571.00,32.844
572.00,32.916
573.00,32.872
574.00,32.898
575.00,32.974
576.00,32.957
577.00,33.049
578.00,33.133
579.00,33.188
580.00,33.241
581.00,33.367
582.00,33.471
583.00,33.493
584.00,33.575
585.00,33.619
586.00,33.681
587.00,33.740
588.00,33.740
589.00,33.744
590.00,33.816
591.00,33.901
592.00,33.890
593.00,33.929
594.00,34.016
595.00,34.086
596.00,34.185
597.00,34.264
598.00,34.290
599.00,34.298
600.00,34.352
601.00,34.342
602.00,34.350
603.00,34.487
604.00,34.511
605.00,34.631
606.00,34.676
607.00,34.668
608.00,34.688
609.00,34.794
610.00,34.954
611.00,34.801
612.00,34.902
613.00,34.923
614.00,35.003
615.00,35.077
616.00,35.177
617.00,35.136
618.00,35.160
619.00,35.256
620.00,35.306
621.00,35.348
622.00,35.490
623.00,35.542
624.00,35.639
625.00,35.708
626.00,35.744
627.00,35.875
628.00,35.934
629.00,35.880
630.00,35.980
631.00,36.026
632.00,36.140
633.00,36.238
634.00,36.317
635.00,36.419
636.00,36.473
637.00,36.502
638.00,36.580
639.00,36.715
640.00,36.748
641.00,36.777
642.00,36.874
643.00,36.960
644.00,37.031
645.00,37.137
646.00,37.313
647.00,37.306
648.00,37.390
649.00,37.406
650.00,37.503
651.00,37.684
652.00,37.711
653.00,37.690
654.00,37.796
655.00,38.060
656.00,38.273
657.00,38.109
658.00,38.309
659.00,38.258
660.00,38.437
661.00,38.458
662.00,38.653
663.00,38.672
664.00,38.938
665.00,39.100
666.00,39.143
667.00,39.111
668.00,39.150
669.00,39.425
670.00,39.696
671.00,39.543
672.00,39.765
673.00,39.790
674.00,39.836
675.00,39.976
676.00,40.258
677.00,40.328
678.00,40.264
679.00,40.505
680.00,40.553
681.00,40.677
682.00,40.814
683.00,40.770
684.00,40.973
685.00,41.134
686.00,41.098
687.00,41.212
688.00,41.183
689.00,41.198
690.00,41.554
691.00,41.839
692.00,41.656
693.00,41.780
694.00,41.923
695.00,42.012
696.00,42.058
697.00,42.106
698.00,42.247
699.00,42.538
700.00,42.674
701.00,42.537
702.00,42.701
703.00,42.874
704.00,42.919
705.00,42.891
706.00,43.005
707.00,43.178
708.00,43.024
709.00,43.440
710.00,43.852
711.00,43.388
712.00,43.426
713.00,43.683
714.00,43.743
715.00,43.823
716.00,43.869
717.00,43.988
718.00,44.178
719.00,44.154
720.00,44.265
721.00,48.619
722.00,48.696
723.00,48.700
724.00,48.705
725.00,48.811
726.00,48.789
727.00,48.766
728.00,48.871
729.00,48.907
730.00,48.947
731.00,49.026
732.00,49.107
733.00,49.143
734.00,49.138
735.00,49.202
736.00,49.232
737.00,49.253
738.00,49.315
739.00,49.344
740.00,49.386
741.00,49.454
742.00,49.523
743.00,49.492
744.00,49.495
745.00,49.547
746.00,49.583
747.00,49.603
748.00,49.604
749.00,49.604
750.00,49.687
751.00,49.664
752.00,49.720
753.00,49.649
754.00,49.726
755.00,49.743
756.00,49.800
757.00,49.793
758.00,49.773
759.00,49.831
760.00,49.886
761.00,49.888
762.00,49.882
763.00,49.938
764.00,49.897
765.00,50.007
766.00,49.974
767.00,50.011
768.00,50.068
769.00,50.025
770.00,50.057
771.00,50.151
772.00,50.153
773.00,50.161
774.00,50.120
775.00,50.184
776.00,50.127
777.00,50.220
778.00,50.205
779.00,50.260
780.00,50.199
781.00,50.254
782.00,50.236
783.00,50.232
784.00,50.188
785.00,50.139
786.00,50.219
787.00,50.275
788.00,50.207
789.00,50.241
790.00,50.122
791.00,50.279
792.00,50.225
793.00,50.168
794.00,50.180
795.00,50.187
796.00,50.245
797.00,50.170
798.00,50.248
799.00,50.196
800.00,50.234
801.00,50.169
802.00,50.131
803.00,50.115
804.00,50.105
805.00,50.144
806.00,50.166
807.00,50.093
808.00,50.103
809.00,50.066
810.00,50.084
811.00,50.126
812.00,50.066
813.00,50.019
814.00,50.048
815.00,50.039
816.00,49.971
817.00,50.037
818.00,49.958
819.00,50.043
820.00,50.017
821.00,49.973
822.00,50.023
823.00,49.952
824.00,49.996
825.00,49.910
826.00,49.994
827.00,49.948
828.00,49.984
829.00,49.887
830.00,49.860
831.00,52.225
832.00,52.237
833.00,52.236
834.00,52.255
835.00,52.181
836.00,52.199
837.00,52.180
838.00,52.162
839.00,52.115
840.00,52.107
841.00,52.119
842.00,52.027
843.00,52.109
844.00,52.060
845.00,52.027
846.00,52.040
847.00,52.010
848.00,52.055
849.00,51.972
850.00,51.940
851.00,51.875
852.00,51.878
853.00,51.834
854.00,51.797
855.00,51.795
856.00,51.750
857.00,51.739
858.00,51.718
859.00,51.707
860.00,51.734
861.00,51.694
862.00,51.669
863.00,51.681
864.00,51.694
865.00,51.664
866.00,51.623
867.00,51.653
868.00,51.635
869.00,51.584
870.00,51.720
871.00,51.605
872.00,51.616
873.00,51.562
874.00,51.577
875.00,51.519
876.00,51.547
877.00,51.555
878.00,51.542
879.00,51.533
880.00,51.489
881.00,51.477
882.00,51.512
883.00,51.469
884.00,51.390
885.00,51.478
886.00,51.385
887.00,51.364
888.00,51.345
889.00,51.320
890.00,51.290
891.00,51.286
892.00,51.304
893.00,51.279
894.00,51.264
895.00,51.231
896.00,51.211
897.00,51.203
898.00,51.163
899.00,51.170
900.00,51.158
901.00,51.156
902.00,51.158
903.00,51.132
904.00,51.105
905.00,51.100
906.00,51.098
907.00,51.066
908.00,51.044
909.00,51.002
910.00,51.000
911.00,50.975
912.00,50.981
913.00,50.945
914.00,50.938
915.00,50.899
916.00,50.887
917.00,50.845
918.00,50.842
919.00,50.817
920.00,50.818
921.00,50.798
922.00,50.788
923.00,50.769
924.00,50.709
925.00,50.785
926.00,50.745
927.00,50.741
928.00,50.708
929.00,50.705
930.00,50.667
931.00,50.659
932.00,50.613
933.00,50.652
934.00,50.606
935.00,50.579
936.00,50.553
937.00,50.556
938.00,50.528
939.00,50.508
940.00,50.508
941.00,50.492
942.00,50.472
943.00,50.452
944.00,50.415
945.00,50.421
946.00,50.398
947.00,50.372
948.00,50.354
949.00,50.338
950.00,50.313
951.00,50.273
952.00,50.252
953.00,50.222
954.00,50.183
955.00,50.148
956.00,50.135
957.00,50.102
958.00,50.119
959.00,50.064
960.00,50.060
961.00,50.055
962.00,50.043
963.00,50.014
964.00,50.028
965.00,50.044
966.00,50.002
967.00,49.976
968.00,49.960
969.00,49.984
970.00,49.967
971.00,49.974
972.00,49.948
973.00,49.977
974.00,49.977
975.00,49.965
976.00,49.974
977.00,49.971
978.00,50.000
979.00,49.962
980.00,49.974
981.00,49.981
982.00,49.966
983.00,49.972
984.00,49.931
985.00,49.935
986.00,49.963
987.00,49.942
988.00,49.914
989.00,49.905
990.00,49.892
991.00,49.886
992.00,49.891
993.00,49.864
994.00,49.851
995.00,49.825
996.00,49.839
997.00,49.808
998.00,49.807
999.00,49.796
1000.00,49.736
1001.00,49.760
1002.00,49.764
1003.00,49.765
1004.00,49.720
1005.00,49.715
1006.00,49.733
1007.00,49.695
1008.00,49.686
1009.00,49.656
1010.00,49.663
1011.00,49.640
1012.00,49.617
1013.00,49.611
1014.00,49.581
1015.00,49.599
1016.00,49.556
1017.00,49.549
1018.00,49.534
1019.00,49.522
1020.00,49.504
1021.00,49.488
1022.00,49.480
1023.00,49.434
1024.00,49.444
1025.00,49.415
1026.00,49.417
1027.00,49.389
1028.00,49.390
1029.00,49.385
1030.00,49.353
1031.00,49.364
1032.00,49.353
1033.00,49.323
1034.00,49.290
1035.00,49.258
1036.00,49.238
1037.00,49.222
1038.00,49.221
1039.00,49.185
1040.00,49.179
1041.00,49.153
1042.00,49.137
1043.00,49.111
1044.00,49.143
1045.00,49.123
1046.00,49.126
1047.00,49.138
1048.00,49.152
1049.00,49.157
1050.00,49.164
1051.00,49.185
1052.00,49.205
1053.00,49.200
1054.00,49.205
1055.00,49.233
1056.00,49.231
1057.00,49.225
1058.00,49.206
1059.00,49.231
1060.00,49.232
1061.00,49.200
1062.00,49.206
1063.00,49.209
1064.00,49.205
1065.00,49.201
1066.00,49.200
1067.00,49.205
1068.00,49.212
1069.00,49.182
1070.00,49.159
1071.00,49.151
1072.00,49.159
1073.00,49.137
1074.00,49.132
1075.00,49.106
1076.00,49.120
1077.00,49.095
1078.00,49.069
1079.00,49.068
1080.00,49.079
1081.00,49.061
1082.00,49.067
1083.00,49.058
1084.00,49.052
1085.00,49.053
1086.00,49.033
1087.00,49.051
1088.00,49.022
1089.00,48.997
1090.00,49.009
1091.00,49.003
1092.00,49.010
1093.00,49.010
1094.00,48.955
1095.00,48.952
1096.00,48.949
1097.00,48.947
1098.00,48.943
1099.00,48.930
1100.00,48.923
1101.00,48.919
1102.00,48.893
1103.00,48.870
1104.00,48.869
1105.00,48.860
1106.00,48.859
1107.00,48.854
1108.00,48.852
1109.00,48.832
1110.00,48.826
1111.00,48.827
1112.00,48.817
1113.00,48.813
1114.00,48.799
1115.00,48.812
1116.00,48.791
1117.00,48.783
1118.00,48.789
1119.00,48.782
1120.00,48.799
1121.00,48.803
1122.00,48.790
1123.00,48.745
1124.00,48.740
1125.00,48.744
1126.00,48.733
1127.00,48.722
1128.00,48.715
1129.00,48.709
1130.00,48.700
1131.00,48.702
1132.00,48.697
1133.00,48.678
1134.00,48.679
1135.00,48.664
1136.00,48.674
1137.00,48.668
1138.00,48.665
1139.00,48.682
1140.00,48.675
1141.00,48.667
1142.00,48.650
1143.00,48.667
1144.00,48.646
1145.00,48.647
1146.00,48.643
1147.00,48.618
1148.00,48.625
1149.00,48.632
1150.00,48.636
1151.00,48.635
1152.00,48.630
1153.00,48.645
1154.00,48.632
1155.00,48.622
1156.00,48.618
1157.00,48.628
1158.00,48.622
1159.00,48.615
1160.00,48.606
1161.00,48.617
1162.00,48.608
1163.00,48.602
1164.00,48.590
1165.00,48.591
1166.00,48.581
1167.00,48.598
1168.00,48.620
1169.00,48.610
1170.00,48.596
1171.00,48.579
1172.00,48.594
1173.00,48.593
1174.00,48.591
1175.00,48.584
1176.00,48.580
1177.00,48.559
1178.00,48.575
1179.00,48.586
1180.00,48.548
1181.00,48.586
1182.00,48.571
1183.00,48.566
1184.00,48.554
1185.00,48.562
1186.00,48.562
1187.00,48.572
1188.00,48.570
1189.00,48.581
1190.00,48.575
1191.00,48.571
1192.00,48.592
1193.00,48.575
1194.00,48.577
1195.00,48.561
1196.00,48.585
1197.00,48.588
1198.00,48.581
1199.00,48.562
1200.00,48.580
1201.00,48.597
1202.00,48.585
1203.00,48.577
1204.00,48.555
1205.00,48.568
1206.00,48.562
1207.00,48.573
1208.00,48.566
1209.00,48.587
1210.00,48.576
1211.00,48.570
1212.00,48.599
1213.00,48.559
1214.00,48.589
1215.00,48.564
1216.00,48.590
1217.00,48.588
1218.00,48.569
1219.00,48.590
1220.00,48.572
1221.00,48.576
1222.00,48.568
1223.00,48.595
1224.00,48.578
1225.00,48.571
1226.00,48.564
1227.00,48.575
1228.00,48.597
1229.00,48.574
1230.00,48.625
1231.00,48.625
1232.00,48.632
1233.00,48.645
1234.00,48.645
1235.00,48.650
1236.00,48.646
1237.00,48.636
1238.00,48.647
1239.00,48.664
1240.00,48.646
1241.00,48.658
1242.00,48.657
1243.00,48.668
1244.00,48.652
1245.00,48.668
1246.00,48.688
1247.00,48.676
1248.00,48.672
1249.00,48.683
1250.00,48.685
1251.00,48.665
1252.00,48.684
1253.00,48.668
1254.00,48.684
1255.00,48.696
1256.00,48.676
1257.00,48.676
1258.00,48.721
1259.00,48.709
1260.00,48.737
1261.00,48.729
1262.00,48.723
1263.00,48.728
1264.00,48.732
1265.00,48.728
1266.00,48.754
1267.00,48.764
1268.00,48.773
1269.00,48.767
1270.00,48.781
1271.00,48.787
1272.00,48.790
1273.00,48.793
1274.00,48.794
1275.00,48.806
1276.00,48.797
1277.00,48.803
1278.00,48.825
1279.00,48.816
1280.00,48.801
1281.00,48.821
1282.00,48.841
1283.00,48.840
1284.00,48.836
1285.00,48.834
1286.00,48.848
1287.00,48.845
1288.00,48.855
1289.00,48.854
1290.00,48.880
1291.00,48.879
1292.00,48.876
1293.00,48.867
1294.00,48.892
1295.00,48.909
1296.00,48.906
1297.00,48.910
1298.00,48.942
1299.00,48.922
1300.00,48.939
1301.00,48.945
1302.00,48.970
1303.00,48.949
1304.00,48.941
1305.00,49.005
1306.00,48.971
1307.00,48.974
1308.00,48.992
1309.00,49.004
1310.00,48.984
1311.00,48.975
1312.00,49.001
1313.00,49.013
1314.00,49.020
1315.00,49.049
1316.00,49.052
1317.00,49.067
1318.00,49.061
1319.00,49.078
1320.00,49.072
1321.00,49.239
1322.00,49.235
1323.00,49.214
1324.00,49.222
1325.00,49.212
1326.00,49.220
1327.00,49.216
1328.00,49.223
1329.00,49.211
1330.00,49.235
1331.00,49.208
1332.00,49.220
1333.00,49.232
1334.00,49.289
1335.00,49.269
1336.00,49.315
1337.00,49.327
1338.00,49.403
1339.00,49.450
1340.00,49.510
1341.00,49.583
1342.00,49.639
1343.00,49.696
1344.00,49.745
1345.00,49.796
1346.00,49.835
1347.00,49.875
1348.00,49.891
1349.00,49.907
1350.00,49.910
1351.00,49.937
1352.00,49.947
1353.00,49.931
1354.00,49.962
1355.00,49.953
1356.00,49.962
1357.00,49.973
1358.00,50.005
1359.00,49.994
1360.00,50.004
1361.00,49.979
1362.00,49.969
1363.00,50.047
1364.00,50.027
1365.00,50.006
1366.00,50.032
1367.00,50.013
1368.00,49.964
1369.00,49.988
1370.00,49.997
1371.00,49.956
1372.00,49.988
1373.00,50.022
1374.00,50.010
1375.00,49.993
1376.00,49.977
1377.00,49.961
1378.00,50.011
1379.00,50.052
1380.00,50.054
1381.00,50.046
1382.00,49.982
1383.00,50.011
1384.00,49.965
1385.00,49.960
1386.00,49.966
1387.00,49.969
1388.00,49.956
1389.00,49.986
1390.00,49.980
1391.00,49.971
1392.00,49.961
1393.00,49.958
1394.00,50.011
1395.00,49.898
1396.00,50.022
1397.00,49.980
1398.00,50.001
1399.00,50.042
1400.00,49.970
1401.00,49.974
1402.00,50.040
1403.00,50.015
1404.00,49.983
1405.00,50.041
1406.00,50.048
1407.00,50.049
1408.00,50.045
1409.00,50.037
1410.00,50.076
1411.00,50.059
1412.00,50.120
1413.00,50.084
1414.00,50.067
1415.00,50.106
1416.00,50.125
1417.00,50.146
1418.00,50.148
1419.00,50.155
1420.00,50.192
1421.00,50.220
1422.00,50.202
1423.00,50.218
1424.00,50.247
1425.00,50.251
1426.00,50.293
1427.00,50.310
1428.00,50.285
1429.00,50.301
1430.00,50.303
1431.00,50.336
1432.00,50.355
1433.00,50.368
1434.00,50.374
1435.00,50.418
1436.00,50.416
1437.00,50.416
1438.00,50.444
1439.00,50.482
1440.00,50.492
1441.00,50.503
1442.00,50.546
1443.00,50.538
1444.00,50.574
1445.00,50.556
1446.00,50.582
1447.00,50.599
1448.00,50.634
1449.00,50.670
1450.00,50.660
1451.00,50.687
1452.00,50.701
1453.00,50.716
1454.00,50.739
1455.00,50.755
1456.00,50.771
1457.00,50.774
1458.00,50.781
1459.00,50.798
1460.00,50.831
1461.00,50.819
1462.00,50.873
1463.00,50.872
1464.00,50.886
1465.00,50.908
1466.00,50.933
1467.00,50.948
1468.00,50.979
1469.00,50.950
1470.00,50.979
1471.00,51.002
1472.00,51.013
1473.00,51.049
1474.00,51.057
1475.00,51.072
1476.00,51.080
1477.00,51.067
1478.00,51.092
1479.00,51.113
1480.00,51.106
1481.00,51.138
1482.00,51.171
1483.00,51.173
1484.00,51.186
1485.00,51.189
1486.00,51.223
1487.00,51.263
1488.00,51.268
1489.00,51.267
1490.00,51.294
1491.00,51.296
1492.00,51.307
1493.00,51.290
1494.00,51.325
1495.00,51.326
1496.00,51.353
1497.00,51.340
1498.00,51.360
1499.00,51.368
1500.00,51.394
1501.00, 
1502.00, 
1503.00, 
1504.00, 
1505.00, 
1506.00, 
1507.00, 
1508.00, 
1509.00, 
1510.00, 
1511.00, 
1512.00, 
1513.00, 
1514.00, 
1515.00, 
1516.00, 
1517.00, 
1518.00, 
1519.00, 
1520.00, 
1521.00, 
1522.00, 
1523.00, 
1524.00, 
1525.00, 
1526.00, 
1527.00, 
1528.00, 
1529.00, 
1530.00, 
1531.00, 
1532.00, 
1533.00, 
1534.00, 
1535.00, 
1536.00, 
1537.00, 
1538.00, 
1539.00, 
1540.00, 
1541.00, 
1542.00, 
1543.00, 
1544.00, 
1545.00, 
1546.00, 
1547.00, 
1548.00, 
1549.00, 
1550.00, 
1551.00, 
1552.00, 
1553.00, 
1554.00, 
1555.00, 
1556.00, 
1557.00, 
1558.00, 
1559.00, 
1560.00, 
1561.00, 
1562.00, 
1563.00, 
1564.00, 
1565.00, 
1566.00, 
1567.00, 
1568.00, 
1569.00, 
1570.00, 
1571.00, 
1572.00, 
1573.00, 
1574.00, 
1575.00, 
1576.00, 
1577.00, 
1578.00, 
1579.00, 
1580.00, 
1581.00, 
1582.00, 
1583.00, 
1584.00, 
1585.00, 
1586.00, 
1587.00, 
1588.00, 
1589.00, 
1590.00, 
1591.00, 
1592.00, 
1593.00, 
1594.00, 
1595.00, 
1596.00, 
1597.00, 
1598.00, 
1599.00, 
1600.00, 
1601.00, 
1602.00, 
1603.00, 
1604.00, 
1605.00, 
1606.00, 
1607.00, 
1608.00, 
1609.00, 
1610.00, 
1611.00, 
1612.00, 
1613.00, 
1614.00, 
1615.00, 
1616.00, 
1617.00, 
1618.00, 
1619.00, 
1620.00, 
1621.00, 
1622.00, 
1623.00, 
1624.00, 
1625.00, 
1626.00, 
1627.00, 
1628.00, 
1629.00, 
1630.00, 
1631.00, 
1632.00, 
1633.00, 
1634.00, 
1635.00, 
1636.00, 
1637.00, 
1638.00, 
1639.00, 
1640.00, 
1641.00, 
1642.00, 
1643.00, 
1644.00, 
1645.00, 
1646.00, 
1647.00, 
1648.00, 
1649.00, 
1650.00, 
1651.00, 
1652.00, 
1653.00, 
1654.00, 
1655.00, 
1656.00, 
1657.00, 
1658.00, 
1659.00, 
1660.00, 
1661.00, 
1662.00, 
1663.00, 
1664.00, 
1665.00, 
1666.00, 
1667.00, 
1668.00, 
1669.00, 
1670.00, 
1671.00, 
1672.00, 
1673.00, 
1674.00, 
1675.00, 
1676.00, 
1677.00, 
1678.00, 
1679.00, 
1680.00, 
1681.00, 
1682.00, 
1683.00, 
1684.00, 
1685.00, 
1686.00, 
1687.00, 
1688.00, 
1689.00, 
1690.00, 
1691.00, 
1692.00, 
1693.00, 
1694.00, 
1695.00, 
1696.00, 
1697.00, 
1698.00, 
1699.00, 
1700.00, 
1701.00, 
1702.00, 
1703.00, 
1704.00, 
1705.00, 
1706.00, 
1707.00, 
1708.00, 
1709.00, 
1710.00, 
1711.00, 
1712.00, 
1713.00, 
1714.00, 
1715.00, 
1716.00, 
1717.00, 
1718.00, 
1719.00, 
1720.00, 
1721.00, 
1722.00, 
1723.00, 
1724.00, 
1725.00, 
1726.00, 
1727.00, 
1728.00, 
1729.00, 
1730.00, 
1731.00, 
1732.00, 
1733.00, 
1734.00, 
1735.00, 
1736.00, 
1737.00, 
1738.00, 
1739.00, 
1740.00, 
1741.00, 
1742.00, 
1743.00, 
1744.00, 
1745.00, 
1746.00, 
1747.00, 
1748.00, 
1749.00, 
1750.00, 
1751.00, 
1752.00, 
1753.00, 
1754.00, 
1755.00, 
1756.00, 
1757.00, 
1758.00, 
1759.00, 
1760.00, 
1761.00, 
1762.00, 
1763.00, 
1764.00, 
1765.00, 
1766.00, 
1767.00, 
1768.00, 
1769.00, 
1770.00, 
1771.00, 
1772.00, 
1773.00, 
1774.00, 
1775.00, 
1776.00, 
1777.00, 
1778.00, 
1779.00, 
1780.00, 
1781.00, 
1782.00, 
1783.00, 
1784.00, 
1785.00, 
1786.00, 
1787.00, 
1788.00, 
1789.00, 
1790.00, 
1791.00, 
1792.00, 
1793.00, 
1794.00, 
1795.00, 
1796.00, 
1797.00, 
1798.00, 
1799.00, 
1800.00, 
1801.00, 
1802.00, 
1803.00, 
1804.00, 
1805.00, 
1806.00, 
1807.00, 
1808.00, 
1809.00, 
1810.00, 
1811.00, 
1812.00, 
1813.00, 
1814.00, 
1815.00, 
1816.00, 
1817.00, 
1818.00, 
1819.00, 
1820.00, 
1821.00, 
1822.00, 
1823.00, 
1824.00, 
1825.00, 
1826.00, 
1827.00, 
1828.00, 
1829.00, 
1830.00, 
1831.00, 
1832.00, 
1833.00, 
1834.00, 
1835.00, 
1836.00, 
1837.00, 
1838.00, 
1839.00, 
1840.00, 
1841.00, 
1842.00, 
1843.00, 
1844.00, 
1845.00, 
1846.00, 
1847.00, 
1848.00, 
1849.00, 
1850.00, 
1851.00, 
1852.00, 
1853.00, 
1854.00, 
1855.00, 
1856.00, 
1857.00, 
1858.00, 
1859.00, 
1860.00, 
1861.00, 
1862.00, 
1863.00, 
1864.00, 
1865.00, 
1866.00, 
1867.00, 
1868.00, 
1869.00, 
1870.00, 
1871.00, 
1872.00, 
1873.00, 
1874.00, 
1875.00, 
1876.00, 
1877.00, 
1878.00, 
1879.00, 
1880.00, 
1881.00, 
1882.00, 
1883.00, 
1884.00, 
1885.00, 
1886.00, 
1887.00, 
1888.00, 
1889.00, 
1890.00, 
1891.00, 
1892.00, 
1893.00, 
1894.00, 
1895.00, 
1896.00, 
1897.00, 
1898.00, 
1899.00, 
1900.00, 
1901.00, 
1902.00, 
1903.00, 
1904.00, 
1905.00, 
1906.00, 
1907.00, 
1908.00, 
1909.00, 
1910.00, 
1911.00, 
1912.00, 
1913.00, 
1914.00, 
1915.00, 
1916.00, 
1917.00, 
1918.00, 
1919.00, 
1920.00, 
1921.00, 
1922.00, 
1923.00, 
1924.00, 
1925.00, 
1926.00, 
1927.00, 
1928.00, 
1929.00, 
1930.00, 
1931.00, 
1932.00, 
1933.00, 
1934.00, 
1935.00, 
1936.00, 
1937.00, 
1938.00, 
1939.00, 
1940.00, 
1941.00, 
1942.00, 
1943.00, 
1944.00, 
1945.00, 
1946.00, 
1947.00, 
1948.00, 
1949.00, 
1950.00, 
1951.00, 
1952.00, 
1953.00, 
1954.00, 
1955.00, 
1956.00, 
1957.00, 
1958.00, 
1959.00, 
1960.00, 
1961.00, 
1962.00, 
1963.00, 
1964.00, 
1965.00, 
1966.00, 
1967.00, 
1968.00, 
1969.00, 
1970.00, 
1971.00, 
1972.00, 
1973.00, 
1974.00, 
1975.00, 
1976.00, 
1977.00, 
1978.00, 
1979.00, 
1980.00, 
1981.00, 
1982.00, 
1983.00, 
1984.00, 
1985.00, 
1986.00, 
1987.00, 
1988.00, 
1989.00, 
1990.00, 
1991.00, 
1992.00, 
1993.00, 
1994.00, 
1995.00, 
1996.00, 
1997.00, 
1998.00, 
1999.00, 
2000.00, 
2001.00, 
2002.00, 
2003.00, 
2004.00, 
2005.00, 
2006.00, 
2007.00, 
2008.00, 
2009.00, 
2010.00, 
2011.00, 
2012.00, 
2013.00, 
2014.00, 
2015.00, 
2016.00, 
2017.00, 
2018.00, 
2019.00, 
2020.00, 
2021.00, 
2022.00, 
2023.00, 
2024.00, 
2025.00, 
2026.00, 
2027.00, 
2028.00, 
2029.00, 
2030.00, 
2031.00, 
2032.00, 
2033.00, 
2034.00, 
2035.00, 
2036.00, 
2037.00, 
2038.00, 
2039.00, 
2040.00, 
2041.00, 
2042.00, 
2043.00, 
2044.00, 
2045.00, 
2046.00, 
2047.00, 
2048.00, 
2049.00, 
2050.00, 
2051.00, 
2052.00, 
2053.00, 
2054.00, 
2055.00, 
2056.00, 
2057.00, 
2058.00, 
2059.00, 
2060.00, 
2061.00, 
2062.00, 
2063.00, 
2064.00, 
2065.00, 
2066.00, 
2067.00, 
2068.00, 
2069.00, 
2070.00, 
2071.00, 
2072.00, 
2073.00, 
2074.00, 
2075.00, 
2076.00, 
2077.00, 
2078.00, 
2079.00, 
2080.00, 
2081.00, 
2082.00, 
2083.00, 
2084.00, 
2085.00, 
2086.00, 
2087.00, 
2088.00, 
2089.00, 
2090.00, 
2091.00, 
2092.00, 
2093.00, 
2094.00, 
2095.00, 
2096.00, 
2097.00, 
2098.00, 
2099.00, 
2100.00, 
2101.00, 
2102.00, 
2103.00, 
2104.00, 
2105.00, 
2106.00, 
2107.00, 
2108.00, 
2109.00, 
2110.00, 
2111.00, 
2112.00, 
2113.00, 
2114.00, 
2115.00, 
2116.00, 
2117.00, 
2118.00, 
2119.00, 
2120.00, 
2121.00, 
2122.00, 
2123.00, 
2124.00, 
2125.00, 
2126.00, 
2127.00, 
2128.00, 
2129.00, 
2130.00, 
2131.00, 
2132.00, 
2133.00, 
2134.00, 
2135.00, 
2136.00, 
2137.00, 
2138.00, 
2139.00, 
2140.00, 
2141.00, 
2142.00, 
2143.00, 
2144.00, 
2145.00, 
2146.00, 
2147.00, 
2148.00, 
2149.00, 
2150.00, 
2151.00, 
2152.00, 
2153.00, 
2154.00, 
2155.00, 
2156.00, 
2157.00, 
2158.00, 
2159.00, 
2160.00, 
2161.00, 
2162.00, 
2163.00, 
2164.00, 
2165.00, 
2166.00, 
2167.00, 
2168.00, 
2169.00, 
2170.00, 
2171.00, 
2172.00, 
2173.00, 
2174.00, 
2175.00, 
2176.00, 
2177.00, 
2178.00, 
2179.00, 
2180.00, 
2181.00, 
2182.00, 
2183.00, 
2184.00, 
2185.00, 
2186.00, 
2187.00, 
2188.00, 
2189.00, 
2190.00, 
2191.00, 
2192.00, 
2193.00, 
2194.00, 
2195.00, 
2196.00, 
2197.00, 
2198.00, 
2199.00, 
2200.00, 
2201.00, 
2202.00, 
2203.00, 
2204.00, 
2205.00, 
2206.00, 
2207.00, 
2208.00, 
2209.00, 
2210.00, 
2211.00, 
2212.00, 
2213.00, 
2214.00, 
2215.00, 
2216.00, 
2217.00, 
2218.00, 
2219.00, 
2220.00, 
2221.00, 
2222.00, 
2223.00, 
2224.00, 
2225.00, 
2226.00, 
2227.00, 
2228.00, 
2229.00, 
2230.00, 
2231.00, 
2232.00, 
2233.00, 
2234.00, 
2235.00, 
2236.00, 
2237.00, 
2238.00, 
2239.00, 
2240.00, 
2241.00, 
2242.00, 
2243.00, 
2244.00, 
2245.00, 
2246.00, 
2247.00, 
2248.00, 
2249.00, 
2250.00, 
2251.00, 
2252.00, 
2253.00, 
2254.00, 
2255.00, 
2256.00, 
2257.00, 
2258.00, 
2259.00, 
2260.00, 
2261.00, 
2262.00, 
2263.00, 
2264.00, 
2265.00, 
2266.00, 
2267.00, 
2268.00, 
2269.00, 
2270.00, 
2271.00, 
2272.00, 
2273.00, 
2274.00, 
2275.00, 
2276.00, 
2277.00, 
2278.00, 
2279.00, 
2280.00, 
2281.00, 
2282.00, 
2283.00, 
2284.00, 
2285.00, 
2286.00, 
2287.00, 
2288.00, 
2289.00, 
2290.00, 
2291.00, 
2292.00, 
2293.00, 
2294.00, 
2295.00, 
2296.00, 
2297.00, 
2298.00, 
2299.00, 
2300.00, 
2301.00, 
2302.00, 
2303.00, 
2304.00, 
2305.00, 
2306.00, 
2307.00, 
2308.00, 
2309.00, 
2310.00, 
2311.00, 
2312.00, 
2313.00, 
2314.00, 
2315.00, 
2316.00, 
2317.00, 
2318.00, 
2319.00, 
2320.00, 
2321.00, 
2322.00, 
2323.00, 
2324.00, 
2325.00, 
2326.00, 
2327.00, 
2328.00, 
2329.00, 
2330.00, 
2331.00, 
2332.00, 
2333.00, 
2334.00, 
2335.00, 
2336.00, 
2337.00, 
2338.00, 
2339.00, 
2340.00, 
2341.00, 
2342.00, 
2343.00, 
2344.00, 
2345.00, 
2346.00, 
2347.00, 
2348.00, 
2349.00, 
2350.00, 
2351.00, 
2352.00, 
2353.00, 
2354.00, 
2355.00, 
2356.00, 
2357.00, 
2358.00, 
2359.00, 
2360.00, 
2361.00, 
2362.00, 
2363.00, 
2364.00, 
2365.00, 
2366.00, 
2367.00, 
2368.00, 
2369.00, 
2370.00, 
2371.00, 
2372.00, 
2373.00, 
2374.00, 
2375.00, 
2376.00, 
2377.00, 
2378.00, 
2379.00, 
2380.00, 
2381.00, 
2382.00, 
2383.00, 
2384.00, 
2385.00, 
2386.00, 
2387.00, 
2388.00, 
2389.00, 
2390.00, 
2391.00, 
2392.00, 
2393.00, 
2394.00, 
2395.00, 
2396.00, 
2397.00, 
2398.00, 
2399.00, 
2400.00, 
2401.00, 
2402.00, 
2403.00, 
2404.00, 
2405.00, 
2406.00, 
2407.00, 
2408.00, 
2409.00, 
2410.00, 
2411.00, 
2412.00, 
2413.00, 
2414.00, 
2415.00, 
2416.00, 
2417.00, 
2418.00, 
2419.00, 
2420.00, 
2421.00, 
2422.00, 
2423.00, 
2424.00, 
2425.00, 
2426.00, 
2427.00, 
2428.00, 
2429.00, 
2430.00, 
2431.00, 
2432.00, 
2433.00, 
2434.00, 
2435.00, 
2436.00, 
2437.00, 
2438.00, 
2439.00, 
2440.00, 
2441.00, 
2442.00, 
2443.00, 
2444.00, 
2445.00, 
2446.00, 
2447.00, 
2448.00, 
2449.00, 
2450.00, 
2451.00, 
2452.00, 
2453.00, 
2454.00, 
2455.00, 
2456.00, 
2457.00, 
2458.00, 
2459.00, 
2460.00, 
2461.00, 
2462.00, 
2463.00, 
2464.00, 
2465.00, 
2466.00, 
2467.00, 
2468.00, 
2469.00, 
2470.00, 
2471.00, 
2472.00, 
2473.00, 
2474.00, 
2475.00, 
2476.00, 
2477.00, 
2478.00, 
2479.00, 
2480.00, 
2481.00, 
2482.00, 
2483.00, 
2484.00, 
2485.00, 
2486.00, 
2487.00, 
2488.00, 
2489.00, 
2490.00, 
2491.00, 
2492.00, 
2493.00, 
2494.00, 
2495.00, 
2496.00, 
2497.00, 
2498.00, 
2499.00, 
2500.00, 
2501.00, 
2502.00, 
2503.00, 
2504.00, 
2505.00, 
2506.00, 
2507.00, 
2508.00, 
2509.00, 
2510.00, 
2511.00, 
2512.00, 
2513.00, 
2514.00, 
2515.00, 
2516.00, 
2517.00, 
2518.00, 
2519.00, 
2520.00, 
2521.00, 
2522.00, 
2523.00, 
2524.00, 
2525.00, 
2526.00, 
2527.00, 
2528.00, 
2529.00, 
2530.00, 
2531.00, 
2532.00, 
2533.00, 
2534.00, 
2535.00, 
2536.00, 
2537.00, 
2538.00, 
2539.00, 
2540.00, 
2541.00, 
2542.00, 
2543.00, 
2544.00, 
2545.00, 
2546.00, 
2547.00, 
2548.00, 
2549.00, 
2550.00, 
2551.00, 
2552.00, 
2553.00, 
2554.00, 
2555.00, 
2556.00, 
2557.00, 
2558.00, 
2559.00, 
2560.00, 
2561.00, 
2562.00, 
2563.00, 
2564.00, 
2565.00, 
2566.00, 
2567.00, 
2568.00, 
2569.00, 
2570.00, 
2571.00, 
2572.00, 
2573.00, 
2574.00, 
2575.00, 
2576.00, 
2577.00, 
2578.00, 
2579.00, 
2580.00, 
2581.00, 
2582.00, 
2583.00, 
2584.00, 
2585.00, 
2586.00, 
2587.00, 
2588.00, 
2589.00, 
2590.00, 
2591.00, 
2592.00, 
2593.00, 
2594.00, 
2595.00, 
2596.00, 
2597.00, 
2598.00, 
2599.00, 
2600.00, 
