"2aP2 - RawData"
"Wavelength nm.","T%"
200.00,0.000
201.00,-0.001
202.00,0.003
203.00,0.000
204.00,-0.000
205.00,0.002
206.00,0.002
207.00,0.006
208.00,-0.001
209.00,0.001
210.00,-0.000
211.00,0.000
212.00,0.001
213.00,0.002
214.00,-0.000
215.00,0.001
216.00,0.003
217.00,-0.001
218.00,0.002
219.00,-0.001
220.00,0.002
221.00,-0.000
222.00,0.001
223.00,0.002
224.00,0.001
225.00,0.002
226.00,0.001
227.00,0.002
228.00,0.003
229.00,0.003
230.00,0.000
231.00,0.002
232.00,0.004
233.00,0.003
234.00,0.001
235.00,0.001
236.00,0.002
237.00,0.001
238.00,0.000
239.00,0.000
240.00,0.001
241.00,0.003
242.00,0.002
243.00,-0.001
244.00,0.001
245.00,0.001
246.00,0.002
247.00,-0.000
248.00,-0.001
249.00,0.001
250.00,0.003
251.00,0.002
252.00,0.000
253.00,0.000
254.00,0.002
255.00,0.001
256.00,0.002
257.00,0.000
258.00,-0.001
259.00,0.002
260.00,0.000
261.00,-0.001
262.00,0.003
263.00,-0.001
264.00,0.001
265.00,0.000
266.00,-0.001
267.00,-0.002
268.00,0.001
269.00,-0.000
270.00,-0.001
271.00,0.001
272.00,0.000
273.00,-0.000
274.00,-0.000
275.00,-0.001
276.00,-0.001
277.00,0.002
278.00,-0.000
279.00,0.002
280.00,0.000
281.00,0.000
282.00,0.001
283.00,-0.000
284.00,-0.001
285.00,-0.001
286.00,0.003
287.00,0.000
288.00,-0.000
289.00,-0.000
290.00,0.002
291.00,0.000
292.00,0.000
293.00,-0.001
294.00,0.001
295.00,0.002
296.00,-0.001
297.00,-0.000
298.00,0.001
299.00,0.001
300.00,0.002
301.00,0.002
302.00,0.005
303.00,0.006
304.00,0.009
305.00,0.012
306.00,0.018
307.00,0.029
308.00,0.047
309.00,0.073
310.00,0.102
311.00,0.139
312.00,0.185
313.00,0.249
314.00,0.324
315.00,0.423
316.00,0.540
317.00,0.674
318.00,0.832
319.00,0.987
320.00,1.241
321.00,1.493
322.00,1.755
323.00,2.065
324.00,2.396
325.00,2.720
326.00,3.065
327.00,3.440
328.00,3.840
329.00,4.252
330.00,4.663
331.00,5.089
332.00,5.536
333.00,5.994
334.00,6.423
335.00,6.883
336.00,7.329
337.00,7.770
338.00,8.195
339.00,8.608
340.00,9.001
341.00,9.383
342.00,9.745
343.00,10.113
344.00,10.483
345.00,10.790
346.00,11.109
347.00,11.383
348.00,11.685
349.00,11.913
350.00,12.147
351.00,12.359
352.00,12.559
353.00,12.738
354.00,12.958
355.00,13.097
356.00,13.250
357.00,13.372
358.00,13.508
359.00,13.628
360.00,13.760
361.00,13.847
362.00,13.951
363.00,14.037
364.00,14.058
365.00,14.112
366.00,14.160
367.00,14.174
368.00,14.180
369.00,14.193
370.00,14.243
371.00,14.200
372.00,14.171
373.00,14.206
374.00,14.191
375.00,14.125
376.00,14.125
377.00,14.085
378.00,14.004
379.00,13.951
380.00,13.921
381.00,13.889
382.00,13.857
383.00,13.835
384.00,13.837
385.00,13.814
386.00,13.826
387.00,13.856
388.00,13.867
389.00,13.866
390.00,13.848
391.00,13.854
392.00,13.853
393.00,13.860
394.00,13.848
395.00,13.835
396.00,13.810
397.00,13.812
398.00,13.762
399.00,13.799
400.00,13.764
401.00,13.743
402.00,13.757
403.00,13.759
404.00,13.760
405.00,13.742
406.00,13.748
407.00,13.703
408.00,13.705
409.00,13.667
410.00,13.640
411.00,13.622
412.00,13.625
413.00,13.626
414.00,13.586
415.00,13.617
416.00,13.651
417.00,13.635
418.00,13.639
419.00,13.703
420.00,13.733
421.00,13.742
422.00,13.750
423.00,13.764
424.00,13.803
425.00,13.803
426.00,13.859
427.00,13.927
428.00,13.952
429.00,13.964
430.00,14.026
431.00,14.080
432.00,14.113
433.00,14.184
434.00,14.210
435.00,14.309
436.00,14.363
437.00,14.407
438.00,14.464
439.00,14.538
440.00,14.595
441.00,14.699
442.00,14.765
443.00,14.845
444.00,14.935
445.00,15.020
446.00,15.108
447.00,15.173
448.00,15.271
449.00,15.366
450.00,15.458
451.00,15.549
452.00,15.660
453.00,15.756
454.00,15.866
455.00,15.980
456.00,16.086
457.00,16.211
458.00,16.310
459.00,16.423
460.00,16.596
461.00,16.723
462.00,16.791
463.00,16.932
464.00,17.038
465.00,17.200
466.00,17.324
467.00,17.438
468.00,17.554
469.00,17.703
470.00,17.807
471.00,17.897
472.00,18.030
473.00,18.127
474.00,18.263
475.00,18.423
476.00,18.525
477.00,18.662
478.00,18.797
479.00,18.979
480.00,19.125
481.00,19.245
482.00,19.391
483.00,19.563
484.00,19.725
485.00,19.875
486.00,20.042
487.00,20.168
488.00,20.335
489.00,20.491
490.00,20.623
491.00,20.747
492.00,20.900
493.00,21.117
494.00,21.244
495.00,21.269
496.00,21.490
497.00,21.569
498.00,21.775
499.00,21.921
500.00,22.102
501.00,22.208
502.00,22.318
503.00,22.483
504.00,22.600
505.00,22.722
506.00,22.869
507.00,22.990
508.00,23.157
509.00,23.320
510.00,23.432
511.00,23.555
512.00,23.726
513.00,23.813
514.00,24.016
515.00,24.119
516.00,24.208
517.00,24.362
518.00,24.528
519.00,24.588
520.00,24.653
521.00,24.842
522.00,24.957
523.00,24.999
524.00,25.083
525.00,25.228
526.00,25.357
527.00,25.410
528.00,25.519
529.00,25.669
530.00,25.818
531.00,25.940
532.00,26.064
533.00,26.119
534.00,26.261
535.00,26.373
536.00,26.442
537.00,26.555
538.00,26.628
539.00,26.727
540.00,26.824
541.00,26.858
542.00,26.939
543.00,27.017
544.00,27.095
545.00,27.199
546.00,27.262
547.00,27.357
548.00,27.469
549.00,27.523
550.00,27.627
551.00,27.746
552.00,27.758
553.00,27.835
554.00,27.887
555.00,27.970
556.00,28.064
557.00,28.139
558.00,28.213
559.00,28.264
560.00,28.356
561.00,28.434
562.00,28.496
563.00,28.518
564.00,28.579
565.00,28.642
566.00,28.668
567.00,28.724
568.00,28.791
569.00,28.862
570.00,28.921
571.00,28.949
572.00,29.012
573.00,28.978
574.00,29.038
575.00,29.091
576.00,29.109
577.00,29.198
578.00,29.302
579.00,29.367
580.00,29.367
581.00,29.542
582.00,29.626
583.00,29.624
584.00,29.731
585.00,29.796
586.00,29.835
587.00,29.949
588.00,29.960
589.00,29.972
590.00,30.075
591.00,30.168
592.00,30.161
593.00,30.184
594.00,30.277
595.00,30.364
596.00,30.425
597.00,30.502
598.00,30.571
599.00,30.580
600.00,30.650
601.00,30.682
602.00,30.689
603.00,30.781
604.00,30.826
605.00,30.937
606.00,31.006
607.00,31.008
608.00,31.060
609.00,31.136
610.00,31.290
611.00,31.205
612.00,31.298
613.00,31.361
614.00,31.433
615.00,31.520
616.00,31.627
617.00,31.603
618.00,31.700
619.00,31.748
620.00,31.809
621.00,31.906
622.00,31.987
623.00,32.079
624.00,32.205
625.00,32.213
626.00,32.264
627.00,32.426
628.00,32.523
629.00,32.571
630.00,32.575
631.00,32.733
632.00,32.854
633.00,32.954
634.00,33.038
635.00,33.141
636.00,33.227
637.00,33.305
638.00,33.398
639.00,33.535
640.00,33.625
641.00,33.695
642.00,33.813
643.00,33.866
644.00,33.955
645.00,34.098
646.00,34.321
647.00,34.331
648.00,34.438
649.00,34.475
650.00,34.578
651.00,34.788
652.00,34.906
653.00,34.881
654.00,34.982
655.00,35.244
656.00,35.442
657.00,35.423
658.00,35.650
659.00,35.606
660.00,35.774
661.00,35.885
662.00,36.098
663.00,36.161
664.00,36.411
665.00,36.597
666.00,36.662
667.00,36.731
668.00,36.749
669.00,37.072
670.00,37.312
671.00,37.238
672.00,37.414
673.00,37.534
674.00,37.670
675.00,37.873
676.00,38.022
677.00,38.180
678.00,38.181
679.00,38.395
680.00,38.529
681.00,38.734
682.00,38.816
683.00,38.867
684.00,39.080
685.00,39.223
686.00,39.124
687.00,39.448
688.00,39.575
689.00,39.517
690.00,39.902
691.00,40.151
692.00,40.157
693.00,40.208
694.00,40.443
695.00,40.538
696.00,40.589
697.00,40.693
698.00,40.821
699.00,41.145
700.00,41.347
701.00,41.289
702.00,41.542
703.00,41.723
704.00,41.784
705.00,41.795
706.00,41.847
707.00,42.107
708.00,42.035
709.00,42.443
710.00,42.875
711.00,42.587
712.00,42.473
713.00,42.776
714.00,42.907
715.00,42.966
716.00,43.072
717.00,43.324
718.00,43.431
719.00,43.298
720.00,43.778
721.00,47.916
722.00,47.976
723.00,48.107
724.00,48.134
725.00,48.191
726.00,48.314
727.00,48.301
728.00,48.438
729.00,48.458
730.00,48.624
731.00,48.630
732.00,48.730
733.00,48.905
734.00,48.951
735.00,49.011
736.00,49.056
737.00,49.129
738.00,49.286
739.00,49.293
740.00,49.427
741.00,49.432
742.00,49.610
743.00,49.586
744.00,49.624
745.00,49.735
746.00,49.805
747.00,49.817
748.00,49.860
749.00,49.945
750.00,49.925
751.00,49.977
752.00,50.103
753.00,50.126
754.00,50.238
755.00,50.184
756.00,50.280
757.00,50.281
758.00,50.321
759.00,50.423
760.00,50.444
761.00,50.460
762.00,50.578
763.00,50.541
764.00,50.617
765.00,50.685
766.00,50.710
767.00,50.800
768.00,50.819
769.00,50.798
770.00,50.878
771.00,51.009
772.00,51.031
773.00,51.067
774.00,51.068
775.00,51.112
776.00,51.120
777.00,51.239
778.00,51.165
779.00,51.263
780.00,51.297
781.00,51.307
782.00,51.316
783.00,51.286
784.00,51.348
785.00,51.369
786.00,51.351
787.00,51.421
788.00,51.411
789.00,51.439
790.00,51.381
791.00,51.514
792.00,51.460
793.00,51.496
794.00,51.434
795.00,51.520
796.00,51.573
797.00,51.509
798.00,51.624
799.00,51.547
800.00,51.553
801.00,51.543
802.00,51.541
803.00,51.558
804.00,51.512
805.00,51.640
806.00,51.625
807.00,51.575
808.00,51.641
809.00,51.603
810.00,51.633
811.00,51.641
812.00,51.672
813.00,51.630
814.00,51.594
815.00,51.618
816.00,51.635
817.00,51.672
818.00,51.551
819.00,51.545
820.00,51.605
821.00,51.635
822.00,51.638
823.00,51.606
824.00,51.721
825.00,51.614
826.00,51.620
827.00,51.620
828.00,51.612
829.00,51.603
830.00,51.621
831.00,53.798
832.00,53.837
833.00,53.784
834.00,53.815
835.00,53.791
836.00,53.850
837.00,53.775
838.00,53.773
839.00,53.774
840.00,53.738
841.00,53.754
842.00,53.720
843.00,53.753
844.00,53.755
845.00,53.723
846.00,53.741
847.00,53.720
848.00,53.712
849.00,53.668
850.00,53.620
851.00,53.595
852.00,53.595
853.00,53.541
854.00,53.531
855.00,53.510
856.00,53.537
857.00,53.489
858.00,53.442
859.00,53.513
860.00,53.487
861.00,53.481
862.00,53.465
863.00,53.474
864.00,53.448
865.00,53.460
866.00,53.441
867.00,53.451
868.00,53.438
869.00,53.428
870.00,53.380
871.00,53.460
872.00,53.567
873.00,53.403
874.00,53.426
875.00,53.387
876.00,53.421
877.00,53.412
878.00,53.397
879.00,53.387
880.00,53.336
881.00,53.327
882.00,53.356
883.00,53.303
884.00,53.271
885.00,53.256
886.00,53.248
887.00,53.231
888.00,53.256
889.00,53.218
890.00,53.198
891.00,53.179
892.00,53.194
893.00,53.168
894.00,53.180
895.00,53.145
896.00,53.129
897.00,53.130
898.00,53.079
899.00,53.102
900.00,53.087
901.00,53.085
902.00,53.093
903.00,53.059
904.00,53.033
905.00,53.038
906.00,53.031
907.00,52.993
908.00,52.978
909.00,52.967
910.00,52.961
911.00,52.950
912.00,52.934
913.00,52.841
914.00,53.037
915.00,52.859
916.00,52.851
917.00,52.810
918.00,52.819
919.00,52.778
920.00,52.765
921.00,52.766
922.00,52.745
923.00,52.735
924.00,52.703
925.00,52.719
926.00,52.700
927.00,52.672
928.00,52.662
929.00,52.651
930.00,52.614
931.00,52.611
932.00,52.577
933.00,52.614
934.00,52.553
935.00,52.537
936.00,52.532
937.00,52.519
938.00,52.507
939.00,52.499
940.00,52.467
941.00,52.458
942.00,52.442
943.00,52.426
944.00,52.374
945.00,52.414
946.00,52.368
947.00,52.347
948.00,52.317
949.00,52.319
950.00,52.305
951.00,52.272
952.00,52.247
953.00,52.227
954.00,52.205
955.00,52.158
956.00,52.144
957.00,52.132
958.00,52.117
959.00,52.058
960.00,52.091
961.00,52.078
962.00,52.060
963.00,52.027
964.00,52.020
965.00,52.011
966.00,52.014
967.00,52.004
968.00,51.986
969.00,52.007
970.00,51.988
971.00,51.986
972.00,51.955
973.00,52.008
974.00,52.020
975.00,52.002
976.00,52.002
977.00,51.996
978.00,52.014
979.00,51.979
980.00,51.996
981.00,51.987
982.00,51.983
983.00,51.975
984.00,51.930
985.00,52.019
986.00,51.958
987.00,51.969
988.00,51.930
989.00,51.922
990.00,51.913
991.00,51.906
992.00,51.906
993.00,51.885
994.00,51.865
995.00,51.846
996.00,51.846
997.00,51.832
998.00,51.818
999.00,51.823
1000.00,51.783
1001.00,51.791
1002.00,51.782
1003.00,51.781
1004.00,51.744
1005.00,51.745
1006.00,51.768
1007.00,51.731
1008.00,51.713
1009.00,51.687
1010.00,51.692
1011.00,51.671
1012.00,51.642
1013.00,51.640
1014.00,51.618
1015.00,51.628
1016.00,51.573
1017.00,51.575
1018.00,51.564
1019.00,51.533
1020.00,51.528
1021.00,51.553
1022.00,51.511
1023.00,51.469
1024.00,51.472
1025.00,51.447
1026.00,51.446
1027.00,51.421
1028.00,51.424
1029.00,51.398
1030.00,51.377
1031.00,51.378
1032.00,51.319
1033.00,51.357
1034.00,51.356
1035.00,51.281
1036.00,51.252
1037.00,51.244
1038.00,51.246
1039.00,51.214
1040.00,51.206
1041.00,51.166
1042.00,51.160
1043.00,51.140
1044.00,51.172
1045.00,51.148
1046.00,51.129
1047.00,51.150
1048.00,51.163
1049.00,51.160
1050.00,51.175
1051.00,51.202
1052.00,51.202
1053.00,51.205
1054.00,51.209
1055.00,51.239
1056.00,51.237
1057.00,51.236
1058.00,51.222
1059.00,51.228
1060.00,51.216
1061.00,51.193
1062.00,51.182
1063.00,51.196
1064.00,51.189
1065.00,51.172
1066.00,51.200
1067.00,51.217
1068.00,51.199
1069.00,51.173
1070.00,51.145
1071.00,51.137
1072.00,51.161
1073.00,51.136
1074.00,51.122
1075.00,51.100
1076.00,51.104
1077.00,51.078
1078.00,51.050
1079.00,51.059
1080.00,51.064
1081.00,51.054
1082.00,51.077
1083.00,51.031
1084.00,51.023
1085.00,51.035
1086.00,51.013
1087.00,51.016
1088.00,50.984
1089.00,50.966
1090.00,50.972
1091.00,50.962
1092.00,50.946
1093.00,50.932
1094.00,50.916
1095.00,50.914
1096.00,50.920
1097.00,50.926
1098.00,50.913
1099.00,50.900
1100.00,50.897
1101.00,50.895
1102.00,50.885
1103.00,50.879
1104.00,50.871
1105.00,50.843
1106.00,50.826
1107.00,50.805
1108.00,50.798
1109.00,50.801
1110.00,50.788
1111.00,50.789
1112.00,50.770
1113.00,50.768
1114.00,50.751
1115.00,50.767
1116.00,50.757
1117.00,50.738
1118.00,50.722
1119.00,50.710
1120.00,50.709
1121.00,50.692
1122.00,50.672
1123.00,50.663
1124.00,50.654
1125.00,50.663
1126.00,50.662
1127.00,50.680
1128.00,50.678
1129.00,50.635
1130.00,50.625
1131.00,50.609
1132.00,50.604
1133.00,50.604
1134.00,50.597
1135.00,50.585
1136.00,50.590
1137.00,50.588
1138.00,50.567
1139.00,50.584
1140.00,50.591
1141.00,50.570
1142.00,50.566
1143.00,50.588
1144.00,50.548
1145.00,50.552
1146.00,50.547
1147.00,50.532
1148.00,50.527
1149.00,50.539
1150.00,50.542
1151.00,50.534
1152.00,50.526
1153.00,50.523
1154.00,50.497
1155.00,50.506
1156.00,50.496
1157.00,50.508
1158.00,50.502
1159.00,50.495
1160.00,50.491
1161.00,50.493
1162.00,50.483
1163.00,50.481
1164.00,50.477
1165.00,50.471
1166.00,50.475
1167.00,50.474
1168.00,50.473
1169.00,50.474
1170.00,50.473
1171.00,50.447
1172.00,50.458
1173.00,50.451
1174.00,50.459
1175.00,50.451
1176.00,50.452
1177.00,50.439
1178.00,50.444
1179.00,50.453
1180.00,50.432
1181.00,50.462
1182.00,50.446
1183.00,50.431
1184.00,50.427
1185.00,50.430
1186.00,50.431
1187.00,50.426
1188.00,50.440
1189.00,50.452
1190.00,50.423
1191.00,50.421
1192.00,50.443
1193.00,50.429
1194.00,50.428
1195.00,50.414
1196.00,50.437
1197.00,50.427
1198.00,50.420
1199.00,50.410
1200.00,50.414
1201.00,50.428
1202.00,50.434
1203.00,50.432
1204.00,50.416
1205.00,50.421
1206.00,50.409
1207.00,50.401
1208.00,50.384
1209.00,50.402
1210.00,50.397
1211.00,50.395
1212.00,50.419
1213.00,50.380
1214.00,50.403
1215.00,50.387
1216.00,50.403
1217.00,50.398
1218.00,50.383
1219.00,50.408
1220.00,50.383
1221.00,50.399
1222.00,50.381
1223.00,50.405
1224.00,50.404
1225.00,50.393
1226.00,50.380
1227.00,50.365
1228.00,50.396
1229.00,50.385
1230.00,50.405
1231.00,50.406
1232.00,50.428
1233.00,50.433
1234.00,50.432
1235.00,50.454
1236.00,50.412
1237.00,50.407
1238.00,50.415
1239.00,50.414
1240.00,50.407
1241.00,50.441
1242.00,50.473
1243.00,50.471
1244.00,50.435
1245.00,50.445
1246.00,50.472
1247.00,50.458
1248.00,50.441
1249.00,50.472
1250.00,50.482
1251.00,50.441
1252.00,50.468
1253.00,50.447
1254.00,50.479
1255.00,50.466
1256.00,50.441
1257.00,50.438
1258.00,50.466
1259.00,50.462
1260.00,50.464
1261.00,50.479
1262.00,50.514
1263.00,50.511
1264.00,50.500
1265.00,50.487
1266.00,50.492
1267.00,50.494
1268.00,50.512
1269.00,50.510
1270.00,50.514
1271.00,50.523
1272.00,50.525
1273.00,50.542
1274.00,50.535
1275.00,50.545
1276.00,50.543
1277.00,50.540
1278.00,50.549
1279.00,50.548
1280.00,50.540
1281.00,50.549
1282.00,50.561
1283.00,50.558
1284.00,50.559
1285.00,50.547
1286.00,50.572
1287.00,50.567
1288.00,50.569
1289.00,50.569
1290.00,50.589
1291.00,50.588
1292.00,50.571
1293.00,50.608
1294.00,50.624
1295.00,50.633
1296.00,50.650
1297.00,50.633
1298.00,50.652
1299.00,50.631
1300.00,50.646
1301.00,50.644
1302.00,50.645
1303.00,50.652
1304.00,50.629
1305.00,50.661
1306.00,50.673
1307.00,50.665
1308.00,50.687
1309.00,50.679
1310.00,50.696
1311.00,50.677
1312.00,50.678
1313.00,50.699
1314.00,50.708
1315.00,50.708
1316.00,50.701
1317.00,50.733
1318.00,50.729
1319.00,50.736
1320.00,50.749
1321.00,50.899
1322.00,50.905
1323.00,50.885
1324.00,50.884
1325.00,50.868
1326.00,50.876
1327.00,50.869
1328.00,50.871
1329.00,50.866
1330.00,50.875
1331.00,50.862
1332.00,50.870
1333.00,50.885
1334.00,50.909
1335.00,50.926
1336.00,50.947
1337.00,50.967
1338.00,51.040
1339.00,51.074
1340.00,51.136
1341.00,51.190
1342.00,51.255
1343.00,51.296
1344.00,51.335
1345.00,51.394
1346.00,51.420
1347.00,51.459
1348.00,51.488
1349.00,51.517
1350.00,51.516
1351.00,51.520
1352.00,51.511
1353.00,51.501
1354.00,51.557
1355.00,51.709
1356.00,51.571
1357.00,51.556
1358.00,51.569
1359.00,51.576
1360.00,51.600
1361.00,51.673
1362.00,51.609
1363.00,51.653
1364.00,51.688
1365.00,51.584
1366.00,51.572
1367.00,51.611
1368.00,51.531
1369.00,51.558
1370.00,51.539
1371.00,51.538
1372.00,51.553
1373.00,51.560
1374.00,51.568
1375.00,51.550
1376.00,51.551
1377.00,51.538
1378.00,51.576
1379.00,51.580
1380.00,51.562
1381.00,51.600
1382.00,51.560
1383.00,51.575
1384.00,51.516
1385.00,51.494
1386.00,51.529
1387.00,51.535
1388.00,51.528
1389.00,51.550
1390.00,51.540
1391.00,51.539
1392.00,51.538
1393.00,51.561
1394.00,51.568
1395.00,51.504
1396.00,51.485
1397.00,51.507
1398.00,51.584
1399.00,51.614
1400.00,51.563
1401.00,51.527
1402.00,51.596
1403.00,51.599
1404.00,51.565
1405.00,51.609
1406.00,51.623
1407.00,51.607
1408.00,51.634
1409.00,51.627
1410.00,51.651
1411.00,51.611
1412.00,51.657
1413.00,51.643
1414.00,51.634
1415.00,51.655
1416.00,51.730
1417.00,51.707
1418.00,51.679
1419.00,51.675
1420.00,51.704
1421.00,51.759
1422.00,51.728
1423.00,51.738
1424.00,51.740
1425.00,51.743
1426.00,51.761
1427.00,51.798
1428.00,51.806
1429.00,51.857
1430.00,51.807
1431.00,51.837
1432.00,51.860
1433.00,51.868
1434.00,51.865
1435.00,51.928
1436.00,51.916
1437.00,51.921
1438.00,51.947
1439.00,51.970
1440.00,51.975
1441.00,51.969
1442.00,51.995
1443.00,52.016
1444.00,52.049
1445.00,52.023
1446.00,52.056
1447.00,52.075
1448.00,52.100
1449.00,52.133
1450.00,52.121
1451.00,52.138
1452.00,52.150
1453.00,52.154
1454.00,52.178
1455.00,52.188
1456.00,52.207
1457.00,52.194
1458.00,52.209
1459.00,52.252
1460.00,52.269
1461.00,52.286
1462.00,52.325
1463.00,52.298
1464.00,52.314
1465.00,52.327
1466.00,52.334
1467.00,52.362
1468.00,52.405
1469.00,52.376
1470.00,52.399
1471.00,52.426
1472.00,52.425
1473.00,52.439
1474.00,52.449
1475.00,52.478
1476.00,52.491
1477.00,52.479
1478.00,52.506
1479.00,52.523
1480.00,52.523
1481.00,52.533
1482.00,52.566
1483.00,52.575
1484.00,52.573
1485.00,52.576
1486.00,52.590
1487.00,52.613
1488.00,52.623
1489.00,52.626
1490.00,52.647
1491.00,52.654
1492.00,52.671
1493.00,52.670
1494.00,52.711
1495.00,52.692
1496.00,52.720
1497.00,52.702
1498.00,52.722
1499.00,52.734
1500.00,52.742
1501.00, 
1502.00, 
1503.00, 
1504.00, 
1505.00, 
1506.00, 
1507.00, 
1508.00, 
1509.00, 
1510.00, 
1511.00, 
1512.00, 
1513.00, 
1514.00, 
1515.00, 
1516.00, 
1517.00, 
1518.00, 
1519.00, 
1520.00, 
1521.00, 
1522.00, 
1523.00, 
1524.00, 
1525.00, 
1526.00, 
1527.00, 
1528.00, 
1529.00, 
1530.00, 
1531.00, 
1532.00, 
1533.00, 
1534.00, 
1535.00, 
1536.00, 
1537.00, 
1538.00, 
1539.00, 
1540.00, 
1541.00, 
1542.00, 
1543.00, 
1544.00, 
1545.00, 
1546.00, 
1547.00, 
1548.00, 
1549.00, 
1550.00, 
1551.00, 
1552.00, 
1553.00, 
1554.00, 
1555.00, 
1556.00, 
1557.00, 
1558.00, 
1559.00, 
1560.00, 
1561.00, 
1562.00, 
1563.00, 
1564.00, 
1565.00, 
1566.00, 
1567.00, 
1568.00, 
1569.00, 
1570.00, 
1571.00, 
1572.00, 
1573.00, 
1574.00, 
1575.00, 
1576.00, 
1577.00, 
1578.00, 
1579.00, 
1580.00, 
1581.00, 
1582.00, 
1583.00, 
1584.00, 
1585.00, 
1586.00, 
1587.00, 
1588.00, 
1589.00, 
1590.00, 
1591.00, 
1592.00, 
1593.00, 
1594.00, 
1595.00, 
1596.00, 
1597.00, 
1598.00, 
1599.00, 
1600.00, 
1601.00, 
1602.00, 
1603.00, 
1604.00, 
1605.00, 
1606.00, 
1607.00, 
1608.00, 
1609.00, 
1610.00, 
1611.00, 
1612.00, 
1613.00, 
1614.00, 
1615.00, 
1616.00, 
1617.00, 
1618.00, 
1619.00, 
1620.00, 
1621.00, 
1622.00, 
1623.00, 
1624.00, 
1625.00, 
1626.00, 
1627.00, 
1628.00, 
1629.00, 
1630.00, 
1631.00, 
1632.00, 
1633.00, 
1634.00, 
1635.00, 
1636.00, 
1637.00, 
1638.00, 
1639.00, 
1640.00, 
1641.00, 
1642.00, 
1643.00, 
1644.00, 
1645.00, 
1646.00, 
1647.00, 
1648.00, 
1649.00, 
1650.00, 
1651.00, 
1652.00, 
1653.00, 
1654.00, 
1655.00, 
1656.00, 
1657.00, 
1658.00, 
1659.00, 
1660.00, 
1661.00, 
1662.00, 
1663.00, 
1664.00, 
1665.00, 
1666.00, 
1667.00, 
1668.00, 
1669.00, 
1670.00, 
1671.00, 
1672.00, 
1673.00, 
1674.00, 
1675.00, 
1676.00, 
1677.00, 
1678.00, 
1679.00, 
1680.00, 
1681.00, 
1682.00, 
1683.00, 
1684.00, 
1685.00, 
1686.00, 
1687.00, 
1688.00, 
1689.00, 
1690.00, 
1691.00, 
1692.00, 
1693.00, 
1694.00, 
1695.00, 
1696.00, 
1697.00, 
1698.00, 
1699.00, 
1700.00, 
1701.00, 
1702.00, 
1703.00, 
1704.00, 
1705.00, 
1706.00, 
1707.00, 
1708.00, 
1709.00, 
1710.00, 
1711.00, 
1712.00, 
1713.00, 
1714.00, 
1715.00, 
1716.00, 
1717.00, 
1718.00, 
1719.00, 
1720.00, 
1721.00, 
1722.00, 
1723.00, 
1724.00, 
1725.00, 
1726.00, 
1727.00, 
1728.00, 
1729.00, 
1730.00, 
1731.00, 
1732.00, 
1733.00, 
1734.00, 
1735.00, 
1736.00, 
1737.00, 
1738.00, 
1739.00, 
1740.00, 
1741.00, 
1742.00, 
1743.00, 
1744.00, 
1745.00, 
1746.00, 
1747.00, 
1748.00, 
1749.00, 
1750.00, 
1751.00, 
1752.00, 
1753.00, 
1754.00, 
1755.00, 
1756.00, 
1757.00, 
1758.00, 
1759.00, 
1760.00, 
1761.00, 
1762.00, 
1763.00, 
1764.00, 
1765.00, 
1766.00, 
1767.00, 
1768.00, 
1769.00, 
1770.00, 
1771.00, 
1772.00, 
1773.00, 
1774.00, 
1775.00, 
1776.00, 
1777.00, 
1778.00, 
1779.00, 
1780.00, 
1781.00, 
1782.00, 
1783.00, 
1784.00, 
1785.00, 
1786.00, 
1787.00, 
1788.00, 
1789.00, 
1790.00, 
1791.00, 
1792.00, 
1793.00, 
1794.00, 
1795.00, 
1796.00, 
1797.00, 
1798.00, 
1799.00, 
1800.00, 
1801.00, 
1802.00, 
1803.00, 
1804.00, 
1805.00, 
1806.00, 
1807.00, 
1808.00, 
1809.00, 
1810.00, 
1811.00, 
1812.00, 
1813.00, 
1814.00, 
1815.00, 
1816.00, 
1817.00, 
1818.00, 
1819.00, 
1820.00, 
1821.00, 
1822.00, 
1823.00, 
1824.00, 
1825.00, 
1826.00, 
1827.00, 
1828.00, 
1829.00, 
1830.00, 
1831.00, 
1832.00, 
1833.00, 
1834.00, 
1835.00, 
1836.00, 
1837.00, 
1838.00, 
1839.00, 
1840.00, 
1841.00, 
1842.00, 
1843.00, 
1844.00, 
1845.00, 
1846.00, 
1847.00, 
1848.00, 
1849.00, 
1850.00, 
1851.00, 
1852.00, 
1853.00, 
1854.00, 
1855.00, 
1856.00, 
1857.00, 
1858.00, 
1859.00, 
1860.00, 
1861.00, 
1862.00, 
1863.00, 
1864.00, 
1865.00, 
1866.00, 
1867.00, 
1868.00, 
1869.00, 
1870.00, 
1871.00, 
1872.00, 
1873.00, 
1874.00, 
1875.00, 
1876.00, 
1877.00, 
1878.00, 
1879.00, 
1880.00, 
1881.00, 
1882.00, 
1883.00, 
1884.00, 
1885.00, 
1886.00, 
1887.00, 
1888.00, 
1889.00, 
1890.00, 
1891.00, 
1892.00, 
1893.00, 
1894.00, 
1895.00, 
1896.00, 
1897.00, 
1898.00, 
1899.00, 
1900.00, 
1901.00, 
1902.00, 
1903.00, 
1904.00, 
1905.00, 
1906.00, 
1907.00, 
1908.00, 
1909.00, 
1910.00, 
1911.00, 
1912.00, 
1913.00, 
1914.00, 
1915.00, 
1916.00, 
1917.00, 
1918.00, 
1919.00, 
1920.00, 
1921.00, 
1922.00, 
1923.00, 
1924.00, 
1925.00, 
1926.00, 
1927.00, 
1928.00, 
1929.00, 
1930.00, 
1931.00, 
1932.00, 
1933.00, 
1934.00, 
1935.00, 
1936.00, 
1937.00, 
1938.00, 
1939.00, 
1940.00, 
1941.00, 
1942.00, 
1943.00, 
1944.00, 
1945.00, 
1946.00, 
1947.00, 
1948.00, 
1949.00, 
1950.00, 
1951.00, 
1952.00, 
1953.00, 
1954.00, 
1955.00, 
1956.00, 
1957.00, 
1958.00, 
1959.00, 
1960.00, 
1961.00, 
1962.00, 
1963.00, 
1964.00, 
1965.00, 
1966.00, 
1967.00, 
1968.00, 
1969.00, 
1970.00, 
1971.00, 
1972.00, 
1973.00, 
1974.00, 
1975.00, 
1976.00, 
1977.00, 
1978.00, 
1979.00, 
1980.00, 
1981.00, 
1982.00, 
1983.00, 
1984.00, 
1985.00, 
1986.00, 
1987.00, 
1988.00, 
1989.00, 
1990.00, 
1991.00, 
1992.00, 
1993.00, 
1994.00, 
1995.00, 
1996.00, 
1997.00, 
1998.00, 
1999.00, 
2000.00, 
2001.00, 
2002.00, 
2003.00, 
2004.00, 
2005.00, 
2006.00, 
2007.00, 
2008.00, 
2009.00, 
2010.00, 
2011.00, 
2012.00, 
2013.00, 
2014.00, 
2015.00, 
2016.00, 
2017.00, 
2018.00, 
2019.00, 
2020.00, 
2021.00, 
2022.00, 
2023.00, 
2024.00, 
2025.00, 
2026.00, 
2027.00, 
2028.00, 
2029.00, 
2030.00, 
2031.00, 
2032.00, 
2033.00, 
2034.00, 
2035.00, 
2036.00, 
2037.00, 
2038.00, 
2039.00, 
2040.00, 
2041.00, 
2042.00, 
2043.00, 
2044.00, 
2045.00, 
2046.00, 
2047.00, 
2048.00, 
2049.00, 
2050.00, 
2051.00, 
2052.00, 
2053.00, 
2054.00, 
2055.00, 
2056.00, 
2057.00, 
2058.00, 
2059.00, 
2060.00, 
2061.00, 
2062.00, 
2063.00, 
2064.00, 
2065.00, 
2066.00, 
2067.00, 
2068.00, 
2069.00, 
2070.00, 
2071.00, 
2072.00, 
2073.00, 
2074.00, 
2075.00, 
2076.00, 
2077.00, 
2078.00, 
2079.00, 
2080.00, 
2081.00, 
2082.00, 
2083.00, 
2084.00, 
2085.00, 
2086.00, 
2087.00, 
2088.00, 
2089.00, 
2090.00, 
2091.00, 
2092.00, 
2093.00, 
2094.00, 
2095.00, 
2096.00, 
2097.00, 
2098.00, 
2099.00, 
2100.00, 
2101.00, 
2102.00, 
2103.00, 
2104.00, 
2105.00, 
2106.00, 
2107.00, 
2108.00, 
2109.00, 
2110.00, 
2111.00, 
2112.00, 
2113.00, 
2114.00, 
2115.00, 
2116.00, 
2117.00, 
2118.00, 
2119.00, 
2120.00, 
2121.00, 
2122.00, 
2123.00, 
2124.00, 
2125.00, 
2126.00, 
2127.00, 
2128.00, 
2129.00, 
2130.00, 
2131.00, 
2132.00, 
2133.00, 
2134.00, 
2135.00, 
2136.00, 
2137.00, 
2138.00, 
2139.00, 
2140.00, 
2141.00, 
2142.00, 
2143.00, 
2144.00, 
2145.00, 
2146.00, 
2147.00, 
2148.00, 
2149.00, 
2150.00, 
2151.00, 
2152.00, 
2153.00, 
2154.00, 
2155.00, 
2156.00, 
2157.00, 
2158.00, 
2159.00, 
2160.00, 
2161.00, 
2162.00, 
2163.00, 
2164.00, 
2165.00, 
2166.00, 
2167.00, 
2168.00, 
2169.00, 
2170.00, 
2171.00, 
2172.00, 
2173.00, 
2174.00, 
2175.00, 
2176.00, 
2177.00, 
2178.00, 
2179.00, 
2180.00, 
2181.00, 
2182.00, 
2183.00, 
2184.00, 
2185.00, 
2186.00, 
2187.00, 
2188.00, 
2189.00, 
2190.00, 
2191.00, 
2192.00, 
2193.00, 
2194.00, 
2195.00, 
2196.00, 
2197.00, 
2198.00, 
2199.00, 
2200.00, 
2201.00, 
2202.00, 
2203.00, 
2204.00, 
2205.00, 
2206.00, 
2207.00, 
2208.00, 
2209.00, 
2210.00, 
2211.00, 
2212.00, 
2213.00, 
2214.00, 
2215.00, 
2216.00, 
2217.00, 
2218.00, 
2219.00, 
2220.00, 
2221.00, 
2222.00, 
2223.00, 
2224.00, 
2225.00, 
2226.00, 
2227.00, 
2228.00, 
2229.00, 
2230.00, 
2231.00, 
2232.00, 
2233.00, 
2234.00, 
2235.00, 
2236.00, 
2237.00, 
2238.00, 
2239.00, 
2240.00, 
2241.00, 
2242.00, 
2243.00, 
2244.00, 
2245.00, 
2246.00, 
2247.00, 
2248.00, 
2249.00, 
2250.00, 
2251.00, 
2252.00, 
2253.00, 
2254.00, 
2255.00, 
2256.00, 
2257.00, 
2258.00, 
2259.00, 
2260.00, 
2261.00, 
2262.00, 
2263.00, 
2264.00, 
2265.00, 
2266.00, 
2267.00, 
2268.00, 
2269.00, 
2270.00, 
2271.00, 
2272.00, 
2273.00, 
2274.00, 
2275.00, 
2276.00, 
2277.00, 
2278.00, 
2279.00, 
2280.00, 
2281.00, 
2282.00, 
2283.00, 
2284.00, 
2285.00, 
2286.00, 
2287.00, 
2288.00, 
2289.00, 
2290.00, 
2291.00, 
2292.00, 
2293.00, 
2294.00, 
2295.00, 
2296.00, 
2297.00, 
2298.00, 
2299.00, 
2300.00, 
2301.00, 
2302.00, 
2303.00, 
2304.00, 
2305.00, 
2306.00, 
2307.00, 
2308.00, 
2309.00, 
2310.00, 
2311.00, 
2312.00, 
2313.00, 
2314.00, 
2315.00, 
2316.00, 
2317.00, 
2318.00, 
2319.00, 
2320.00, 
2321.00, 
2322.00, 
2323.00, 
2324.00, 
2325.00, 
2326.00, 
2327.00, 
2328.00, 
2329.00, 
2330.00, 
2331.00, 
2332.00, 
2333.00, 
2334.00, 
2335.00, 
2336.00, 
2337.00, 
2338.00, 
2339.00, 
2340.00, 
2341.00, 
2342.00, 
2343.00, 
2344.00, 
2345.00, 
2346.00, 
2347.00, 
2348.00, 
2349.00, 
2350.00, 
2351.00, 
2352.00, 
2353.00, 
2354.00, 
2355.00, 
2356.00, 
2357.00, 
2358.00, 
2359.00, 
2360.00, 
2361.00, 
2362.00, 
2363.00, 
2364.00, 
2365.00, 
2366.00, 
2367.00, 
2368.00, 
2369.00, 
2370.00, 
2371.00, 
2372.00, 
2373.00, 
2374.00, 
2375.00, 
2376.00, 
2377.00, 
2378.00, 
2379.00, 
2380.00, 
2381.00, 
2382.00, 
2383.00, 
2384.00, 
2385.00, 
2386.00, 
2387.00, 
2388.00, 
2389.00, 
2390.00, 
2391.00, 
2392.00, 
2393.00, 
2394.00, 
2395.00, 
2396.00, 
2397.00, 
2398.00, 
2399.00, 
2400.00, 
2401.00, 
2402.00, 
2403.00, 
2404.00, 
2405.00, 
2406.00, 
2407.00, 
2408.00, 
2409.00, 
2410.00, 
2411.00, 
2412.00, 
2413.00, 
2414.00, 
2415.00, 
2416.00, 
2417.00, 
2418.00, 
2419.00, 
2420.00, 
2421.00, 
2422.00, 
2423.00, 
2424.00, 
2425.00, 
2426.00, 
2427.00, 
2428.00, 
2429.00, 
2430.00, 
2431.00, 
2432.00, 
2433.00, 
2434.00, 
2435.00, 
2436.00, 
2437.00, 
2438.00, 
2439.00, 
2440.00, 
2441.00, 
2442.00, 
2443.00, 
2444.00, 
2445.00, 
2446.00, 
2447.00, 
2448.00, 
2449.00, 
2450.00, 
2451.00, 
2452.00, 
2453.00, 
2454.00, 
2455.00, 
2456.00, 
2457.00, 
2458.00, 
2459.00, 
2460.00, 
2461.00, 
2462.00, 
2463.00, 
2464.00, 
2465.00, 
2466.00, 
2467.00, 
2468.00, 
2469.00, 
2470.00, 
2471.00, 
2472.00, 
2473.00, 
2474.00, 
2475.00, 
2476.00, 
2477.00, 
2478.00, 
2479.00, 
2480.00, 
2481.00, 
2482.00, 
2483.00, 
2484.00, 
2485.00, 
2486.00, 
2487.00, 
2488.00, 
2489.00, 
2490.00, 
2491.00, 
2492.00, 
2493.00, 
2494.00, 
2495.00, 
2496.00, 
2497.00, 
2498.00, 
2499.00, 
2500.00, 
2501.00, 
2502.00, 
2503.00, 
2504.00, 
2505.00, 
2506.00, 
2507.00, 
2508.00, 
2509.00, 
2510.00, 
2511.00, 
2512.00, 
2513.00, 
2514.00, 
2515.00, 
2516.00, 
2517.00, 
2518.00, 
2519.00, 
2520.00, 
2521.00, 
2522.00, 
2523.00, 
2524.00, 
2525.00, 
2526.00, 
2527.00, 
2528.00, 
2529.00, 
2530.00, 
2531.00, 
2532.00, 
2533.00, 
2534.00, 
2535.00, 
2536.00, 
2537.00, 
2538.00, 
2539.00, 
2540.00, 
2541.00, 
2542.00, 
2543.00, 
2544.00, 
2545.00, 
2546.00, 
2547.00, 
2548.00, 
2549.00, 
2550.00, 
2551.00, 
2552.00, 
2553.00, 
2554.00, 
2555.00, 
2556.00, 
2557.00, 
2558.00, 
2559.00, 
2560.00, 
2561.00, 
2562.00, 
2563.00, 
2564.00, 
2565.00, 
2566.00, 
2567.00, 
2568.00, 
2569.00, 
2570.00, 
2571.00, 
2572.00, 
2573.00, 
2574.00, 
2575.00, 
2576.00, 
2577.00, 
2578.00, 
2579.00, 
2580.00, 
2581.00, 
2582.00, 
2583.00, 
2584.00, 
2585.00, 
2586.00, 
2587.00, 
2588.00, 
2589.00, 
2590.00, 
2591.00, 
2592.00, 
2593.00, 
2594.00, 
2595.00, 
2596.00, 
2597.00, 
2598.00, 
2599.00, 
2600.00, 
