"1cP3 - RawData"
"Wavelength nm.","T%"
200.00,0.001
201.00,0.002
202.00,0.002
203.00,-0.001
204.00,0.000
205.00,-0.001
206.00,0.001
207.00,0.001
208.00,0.001
209.00,0.002
210.00,0.003
211.00,0.002
212.00,0.003
213.00,0.001
214.00,-0.001
215.00,-0.000
216.00,0.000
217.00,-0.001
218.00,0.002
219.00,0.001
220.00,0.003
221.00,0.001
222.00,0.001
223.00,-0.001
224.00,0.001
225.00,0.000
226.00,0.001
227.00,0.000
228.00,0.001
229.00,0.000
230.00,0.001
231.00,0.002
232.00,0.002
233.00,0.003
234.00,0.000
235.00,0.002
236.00,0.001
237.00,0.001
238.00,0.001
239.00,0.002
240.00,0.001
241.00,-0.001
242.00,0.001
243.00,-0.001
244.00,0.001
245.00,0.001
246.00,-0.000
247.00,0.001
248.00,0.001
249.00,0.001
250.00,0.002
251.00,-0.001
252.00,0.001
253.00,-0.000
254.00,-0.002
255.00,0.002
256.00,-0.000
257.00,0.002
258.00,0.001
259.00,0.001
260.00,-0.001
261.00,0.000
262.00,0.000
263.00,0.002
264.00,0.001
265.00,0.001
266.00,-0.000
267.00,-0.002
268.00,-0.000
269.00,0.001
270.00,0.000
271.00,0.001
272.00,0.001
273.00,-0.000
274.00,0.001
275.00,-0.001
276.00,0.000
277.00,-0.001
278.00,0.001
279.00,0.001
280.00,-0.000
281.00,0.000
282.00,0.001
283.00,0.000
284.00,0.001
285.00,-0.000
286.00,0.001
287.00,0.001
288.00,-0.000
289.00,-0.000
290.00,-0.000
291.00,-0.001
292.00,0.001
293.00,-0.000
294.00,-0.000
295.00,-0.001
296.00,0.001
297.00,0.000
298.00,-0.000
299.00,0.001
300.00,0.000
301.00,0.002
302.00,-0.001
303.00,-0.000
304.00,0.001
305.00,0.003
306.00,0.004
307.00,0.006
308.00,0.008
309.00,0.017
310.00,0.027
311.00,0.039
312.00,0.063
313.00,0.093
314.00,0.145
315.00,0.213
316.00,0.306
317.00,0.426
318.00,0.579
319.00,0.797
320.00,1.045
321.00,1.367
322.00,1.743
323.00,2.231
324.00,2.748
325.00,3.339
326.00,3.950
327.00,4.701
328.00,5.518
329.00,6.324
330.00,7.286
331.00,8.261
332.00,9.337
333.00,10.418
334.00,11.450
335.00,12.648
336.00,13.799
337.00,15.073
338.00,16.227
339.00,17.355
340.00,18.526
341.00,19.669
342.00,20.768
343.00,21.904
344.00,22.967
345.00,23.853
346.00,25.012
347.00,25.921
348.00,26.841
349.00,27.711
350.00,28.426
351.00,29.123
352.00,29.970
353.00,30.659
354.00,31.342
355.00,31.877
356.00,32.557
357.00,33.099
358.00,33.601
359.00,34.091
360.00,34.411
361.00,34.859
362.00,35.160
363.00,35.635
364.00,35.932
365.00,36.315
366.00,36.643
367.00,36.769
368.00,37.049
369.00,37.160
370.00,37.317
371.00,37.514
372.00,37.494
373.00,37.531
374.00,37.430
375.00,37.506
376.00,37.501
377.00,37.476
378.00,37.417
379.00,37.465
380.00,37.383
381.00,37.429
382.00,37.558
383.00,37.621
384.00,37.823
385.00,37.984
386.00,38.156
387.00,38.408
388.00,38.441
389.00,38.677
390.00,38.657
391.00,38.918
392.00,39.090
393.00,39.192
394.00,39.311
395.00,39.321
396.00,39.492
397.00,39.521
398.00,39.541
399.00,39.654
400.00,39.711
401.00,39.841
402.00,39.789
403.00,39.815
404.00,39.826
405.00,39.790
406.00,39.810
407.00,39.797
408.00,39.845
409.00,39.818
410.00,39.681
411.00,39.685
412.00,39.700
413.00,39.725
414.00,39.787
415.00,39.702
416.00,39.679
417.00,39.729
418.00,39.739
419.00,39.710
420.00,39.710
421.00,39.884
422.00,39.958
423.00,39.921
424.00,39.857
425.00,39.895
426.00,39.997
427.00,39.974
428.00,40.009
429.00,40.113
430.00,40.053
431.00,40.107
432.00,40.147
433.00,40.193
434.00,40.217
435.00,40.265
436.00,40.298
437.00,40.324
438.00,40.330
439.00,40.415
440.00,40.456
441.00,40.555
442.00,40.575
443.00,40.612
444.00,40.665
445.00,40.730
446.00,40.771
447.00,40.900
448.00,40.920
449.00,40.903
450.00,41.100
451.00,41.233
452.00,41.317
453.00,41.322
454.00,41.486
455.00,41.527
456.00,41.567
457.00,41.711
458.00,41.790
459.00,41.869
460.00,41.951
461.00,42.040
462.00,42.173
463.00,42.209
464.00,42.295
465.00,42.362
466.00,42.449
467.00,42.545
468.00,42.589
469.00,42.738
470.00,42.700
471.00,42.777
472.00,42.902
473.00,42.946
474.00,42.980
475.00,43.049
476.00,43.171
477.00,43.227
478.00,43.280
479.00,43.334
480.00,43.492
481.00,43.602
482.00,43.644
483.00,43.740
484.00,43.795
485.00,43.953
486.00,44.039
487.00,44.115
488.00,44.252
489.00,44.335
490.00,44.443
491.00,44.538
492.00,44.573
493.00,44.658
494.00,44.666
495.00,44.700
496.00,44.813
497.00,44.873
498.00,45.017
499.00,45.081
500.00,45.094
501.00,45.197
502.00,45.233
503.00,45.322
504.00,45.481
505.00,45.553
506.00,45.586
507.00,45.630
508.00,45.695
509.00,45.765
510.00,45.840
511.00,46.028
512.00,45.889
513.00,45.992
514.00,46.205
515.00,46.127
516.00,46.315
517.00,46.631
518.00,46.478
519.00,46.583
520.00,46.616
521.00,46.641
522.00,46.811
523.00,46.938
524.00,46.900
525.00,46.906
526.00,47.031
527.00,47.132
528.00,47.151
529.00,47.156
530.00,47.122
531.00,47.331
532.00,47.313
533.00,47.368
534.00,47.398
535.00,47.484
536.00,47.558
537.00,47.551
538.00,47.728
539.00,47.801
540.00,47.721
541.00,47.804
542.00,47.834
543.00,47.880
544.00,47.928
545.00,47.856
546.00,47.986
547.00,47.998
548.00,48.043
549.00,48.132
550.00,48.195
551.00,48.246
552.00,48.291
553.00,48.396
554.00,48.542
555.00,48.587
556.00,48.448
557.00,48.540
558.00,48.568
559.00,48.568
560.00,48.682
561.00,48.726
562.00,48.669
563.00,48.761
564.00,48.739
565.00,48.665
566.00,48.809
567.00,48.825
568.00,48.819
569.00,48.821
570.00,48.835
571.00,48.903
572.00,48.919
573.00,48.979
574.00,49.026
575.00,49.067
576.00,49.071
577.00,49.090
578.00,49.066
579.00,49.121
580.00,49.169
581.00,49.210
582.00,49.239
583.00,49.371
584.00,49.446
585.00,49.426
586.00,49.414
587.00,49.469
588.00,49.586
589.00,49.571
590.00,49.584
591.00,49.515
592.00,49.591
593.00,49.608
594.00,49.575
595.00,49.564
596.00,49.651
597.00,49.726
598.00,49.848
599.00,49.838
600.00,49.802
601.00,49.876
602.00,49.903
603.00,50.003
604.00,49.964
605.00,50.013
606.00,50.053
607.00,50.008
608.00,49.982
609.00,49.786
610.00,49.895
611.00,50.045
612.00,50.112
613.00,49.986
614.00,50.009
615.00,49.873
616.00,49.948
617.00,50.091
618.00,50.176
619.00,50.179
620.00,49.981
621.00,50.030
622.00,50.104
623.00,50.241
624.00,50.285
625.00,50.255
626.00,50.237
627.00,50.300
628.00,50.307
629.00,50.283
630.00,50.426
631.00,50.292
632.00,50.347
633.00,50.400
634.00,50.282
635.00,50.293
636.00,50.382
637.00,50.604
638.00,50.719
639.00,50.620
640.00,50.701
641.00,50.667
642.00,50.573
643.00,50.671
644.00,50.812
645.00,50.699
646.00,50.764
647.00,50.801
648.00,50.814
649.00,51.015
650.00,50.848
651.00,50.853
652.00,50.910
653.00,51.082
654.00,51.072
655.00,50.818
656.00,50.731
657.00,51.282
658.00,51.090
659.00,50.959
660.00,51.097
661.00,51.142
662.00,51.361
663.00,51.164
664.00,51.123
665.00,51.134
666.00,51.245
667.00,51.441
668.00,51.365
669.00,51.364
670.00,51.272
671.00,51.366
672.00,51.318
673.00,51.518
674.00,51.529
675.00,51.367
676.00,51.311
677.00,51.351
678.00,51.446
679.00,51.423
680.00,51.486
681.00,51.392
682.00,51.524
683.00,51.715
684.00,51.758
685.00,51.849
686.00,51.844
687.00,51.788
688.00,51.826
689.00,51.659
690.00,51.590
691.00,51.554
692.00,51.701
693.00,51.901
694.00,51.540
695.00,51.548
696.00,51.633
697.00,51.828
698.00,51.845
699.00,51.717
700.00,52.034
701.00,52.073
702.00,51.901
703.00,51.871
704.00,51.987
705.00,51.953
706.00,52.271
707.00,51.958
708.00,51.733
709.00,51.868
710.00,51.966
711.00,52.058
712.00,51.869
713.00,51.915
714.00,51.857
715.00,52.000
716.00,52.073
717.00,51.817
718.00,51.754
719.00,51.969
720.00,52.006
721.00,56.302
722.00,56.254
723.00,56.320
724.00,56.213
725.00,56.151
726.00,56.072
727.00,56.047
728.00,55.927
729.00,55.958
730.00,55.915
731.00,55.948
732.00,55.876
733.00,55.857
734.00,55.802
735.00,55.757
736.00,55.765
737.00,55.723
738.00,55.736
739.00,55.623
740.00,55.638
741.00,55.709
742.00,55.572
743.00,55.629
744.00,55.606
745.00,55.523
746.00,55.422
747.00,55.375
748.00,55.302
749.00,55.251
750.00,55.263
751.00,55.208
752.00,55.275
753.00,55.157
754.00,55.098
755.00,55.009
756.00,55.055
757.00,54.921
758.00,54.979
759.00,54.966
760.00,54.823
761.00,54.868
762.00,54.915
763.00,54.818
764.00,54.797
765.00,54.702
766.00,54.727
767.00,54.771
768.00,54.730
769.00,54.597
770.00,54.607
771.00,54.594
772.00,54.515
773.00,54.505
774.00,54.511
775.00,54.528
776.00,54.399
777.00,54.487
778.00,54.358
779.00,54.432
780.00,54.411
781.00,54.326
782.00,54.283
783.00,54.249
784.00,54.264
785.00,54.124
786.00,54.252
787.00,54.174
788.00,54.092
789.00,54.049
790.00,54.012
791.00,54.069
792.00,53.915
793.00,53.929
794.00,53.912
795.00,53.852
796.00,53.902
797.00,53.865
798.00,53.745
799.00,53.673
800.00,53.689
801.00,53.605
802.00,53.621
803.00,53.580
804.00,53.521
805.00,53.467
806.00,53.393
807.00,53.405
808.00,53.460
809.00,53.313
810.00,53.362
811.00,53.249
812.00,53.292
813.00,53.313
814.00,53.240
815.00,53.236
816.00,53.207
817.00,53.149
818.00,53.043
819.00,53.126
820.00,53.036
821.00,53.095
822.00,53.055
823.00,52.938
824.00,52.991
825.00,52.825
826.00,52.793
827.00,52.846
828.00,52.891
829.00,52.793
830.00,52.748
831.00,55.197
832.00,55.123
833.00,55.176
834.00,55.132
835.00,55.082
836.00,55.093
837.00,55.025
838.00,54.991
839.00,54.935
840.00,54.944
841.00,54.942
842.00,54.843
843.00,54.814
844.00,54.849
845.00,54.775
846.00,54.777
847.00,54.739
848.00,54.730
849.00,54.666
850.00,54.578
851.00,54.580
852.00,54.566
853.00,54.533
854.00,54.460
855.00,54.469
856.00,54.372
857.00,54.356
858.00,54.379
859.00,54.329
860.00,54.291
861.00,54.252
862.00,54.277
863.00,54.224
864.00,54.227
865.00,54.184
866.00,54.207
867.00,54.128
868.00,54.154
869.00,54.153
870.00,54.155
871.00,54.092
872.00,54.103
873.00,54.074
874.00,54.070
875.00,54.037
876.00,54.034
877.00,54.020
878.00,53.949
879.00,53.936
880.00,53.927
881.00,53.899
882.00,53.920
883.00,53.879
884.00,53.826
885.00,53.811
886.00,53.771
887.00,53.766
888.00,53.709
889.00,53.694
890.00,53.636
891.00,53.834
892.00,53.608
893.00,53.580
894.00,53.578
895.00,53.568
896.00,53.554
897.00,53.532
898.00,53.494
899.00,53.484
900.00,53.447
901.00,53.435
902.00,53.411
903.00,53.440
904.00,53.368
905.00,53.355
906.00,53.316
907.00,53.297
908.00,53.242
909.00,53.239
910.00,53.243
911.00,53.157
912.00,53.173
913.00,53.142
914.00,53.132
915.00,53.126
916.00,53.095
917.00,53.057
918.00,53.056
919.00,53.024
920.00,52.979
921.00,52.967
922.00,52.972
923.00,52.932
924.00,52.903
925.00,52.896
926.00,52.869
927.00,52.874
928.00,52.868
929.00,52.792
930.00,52.753
931.00,52.790
932.00,52.764
933.00,52.704
934.00,52.707
935.00,52.670
936.00,52.641
937.00,52.617
938.00,52.633
939.00,52.599
940.00,52.564
941.00,52.567
942.00,52.534
943.00,52.508
944.00,52.482
945.00,52.483
946.00,52.465
947.00,52.408
948.00,52.389
949.00,52.378
950.00,52.359
951.00,52.346
952.00,52.301
953.00,52.278
954.00,52.237
955.00,52.226
956.00,52.176
957.00,52.168
958.00,52.147
959.00,52.185
960.00,52.113
961.00,52.105
962.00,52.083
963.00,52.046
964.00,52.049
965.00,52.030
966.00,52.015
967.00,51.981
968.00,52.008
969.00,51.983
970.00,51.964
971.00,52.022
972.00,51.977
973.00,51.990
974.00,51.974
975.00,51.973
976.00,51.971
977.00,51.949
978.00,51.989
979.00,51.972
980.00,51.966
981.00,51.944
982.00,51.946
983.00,51.932
984.00,51.932
985.00,51.941
986.00,51.927
987.00,51.933
988.00,51.915
989.00,51.914
990.00,51.874
991.00,51.851
992.00,51.836
993.00,51.806
994.00,51.829
995.00,51.806
996.00,51.818
997.00,51.790
998.00,51.780
999.00,51.739
1000.00,51.699
1001.00,51.725
1002.00,51.686
1003.00,51.684
1004.00,51.689
1005.00,51.671
1006.00,51.674
1007.00,51.649
1008.00,51.644
1009.00,51.624
1010.00,51.603
1011.00,51.588
1012.00,51.584
1013.00,51.559
1014.00,51.535
1015.00,51.571
1016.00,51.533
1017.00,51.513
1018.00,51.488
1019.00,51.491
1020.00,51.460
1021.00,51.424
1022.00,51.420
1023.00,51.422
1024.00,51.380
1025.00,51.364
1026.00,51.396
1027.00,51.336
1028.00,51.328
1029.00,51.330
1030.00,51.330
1031.00,51.294
1032.00,51.254
1033.00,51.262
1034.00,51.223
1035.00,51.168
1036.00,51.141
1037.00,51.175
1038.00,51.133
1039.00,51.082
1040.00,51.108
1041.00,51.073
1042.00,51.088
1043.00,51.038
1044.00,51.082
1045.00,51.073
1046.00,51.050
1047.00,51.046
1048.00,51.088
1049.00,51.051
1050.00,51.063
1051.00,51.089
1052.00,51.092
1053.00,51.107
1054.00,51.110
1055.00,51.137
1056.00,51.151
1057.00,51.138
1058.00,51.134
1059.00,51.143
1060.00,51.124
1061.00,51.118
1062.00,51.096
1063.00,51.112
1064.00,51.089
1065.00,51.079
1066.00,51.091
1067.00,51.108
1068.00,51.082
1069.00,51.068
1070.00,51.069
1071.00,51.029
1072.00,51.037
1073.00,51.032
1074.00,51.019
1075.00,51.009
1076.00,51.006
1077.00,51.004
1078.00,50.996
1079.00,50.973
1080.00,51.000
1081.00,50.980
1082.00,50.981
1083.00,50.972
1084.00,50.970
1085.00,50.951
1086.00,50.947
1087.00,50.923
1088.00,50.935
1089.00,50.907
1090.00,50.894
1091.00,50.908
1092.00,50.910
1093.00,50.852
1094.00,50.857
1095.00,50.849
1096.00,50.835
1097.00,50.832
1098.00,50.847
1099.00,50.818
1100.00,50.826
1101.00,50.798
1102.00,50.811
1103.00,50.811
1104.00,50.783
1105.00,50.759
1106.00,50.759
1107.00,50.736
1108.00,50.760
1109.00,50.713
1110.00,50.724
1111.00,50.711
1112.00,50.708
1113.00,50.733
1114.00,50.732
1115.00,50.708
1116.00,50.701
1117.00,50.676
1118.00,50.663
1119.00,50.669
1120.00,50.666
1121.00,50.652
1122.00,50.644
1123.00,50.618
1124.00,50.645
1125.00,50.632
1126.00,50.609
1127.00,50.614
1128.00,50.624
1129.00,50.562
1130.00,50.580
1131.00,50.587
1132.00,50.583
1133.00,50.585
1134.00,50.551
1135.00,50.527
1136.00,50.554
1137.00,50.523
1138.00,50.530
1139.00,50.544
1140.00,50.528
1141.00,50.525
1142.00,50.509
1143.00,50.540
1144.00,50.527
1145.00,50.512
1146.00,50.527
1147.00,50.527
1148.00,50.507
1149.00,50.510
1150.00,50.524
1151.00,50.513
1152.00,50.515
1153.00,50.494
1154.00,50.476
1155.00,50.489
1156.00,50.486
1157.00,50.499
1158.00,50.491
1159.00,50.512
1160.00,50.472
1161.00,50.477
1162.00,50.478
1163.00,50.501
1164.00,50.473
1165.00,50.469
1166.00,50.470
1167.00,50.465
1168.00,50.472
1169.00,50.472
1170.00,50.463
1171.00,50.453
1172.00,50.421
1173.00,50.430
1174.00,50.476
1175.00,50.424
1176.00,50.428
1177.00,50.442
1178.00,50.436
1179.00,50.445
1180.00,50.440
1181.00,50.455
1182.00,50.457
1183.00,50.449
1184.00,50.439
1185.00,50.488
1186.00,50.433
1187.00,50.467
1188.00,50.475
1189.00,50.466
1190.00,50.436
1191.00,50.450
1192.00,50.467
1193.00,50.421
1194.00,50.423
1195.00,50.432
1196.00,50.474
1197.00,50.434
1198.00,50.435
1199.00,50.452
1200.00,50.437
1201.00,50.431
1202.00,50.442
1203.00,50.447
1204.00,50.409
1205.00,50.414
1206.00,50.423
1207.00,50.447
1208.00,50.397
1209.00,50.435
1210.00,50.446
1211.00,50.431
1212.00,50.450
1213.00,50.432
1214.00,50.458
1215.00,50.410
1216.00,50.424
1217.00,50.440
1218.00,50.447
1219.00,50.418
1220.00,50.427
1221.00,50.470
1222.00,50.414
1223.00,50.447
1224.00,50.470
1225.00,50.464
1226.00,50.432
1227.00,50.440
1228.00,50.461
1229.00,50.489
1230.00,50.482
1231.00,50.488
1232.00,50.525
1233.00,50.484
1234.00,50.501
1235.00,50.535
1236.00,50.540
1237.00,50.489
1238.00,50.495
1239.00,50.533
1240.00,50.527
1241.00,50.499
1242.00,50.505
1243.00,50.556
1244.00,50.507
1245.00,50.521
1246.00,50.552
1247.00,50.551
1248.00,50.539
1249.00,50.543
1250.00,50.551
1251.00,50.557
1252.00,50.540
1253.00,50.549
1254.00,50.609
1255.00,50.555
1256.00,50.553
1257.00,50.571
1258.00,50.599
1259.00,50.565
1260.00,50.602
1261.00,50.616
1262.00,50.630
1263.00,50.582
1264.00,50.618
1265.00,50.645
1266.00,50.616
1267.00,50.625
1268.00,50.669
1269.00,50.651
1270.00,50.653
1271.00,50.656
1272.00,50.678
1273.00,50.667
1274.00,50.649
1275.00,50.699
1276.00,50.737
1277.00,50.694
1278.00,50.727
1279.00,50.730
1280.00,50.717
1281.00,50.740
1282.00,50.752
1283.00,50.726
1284.00,50.745
1285.00,50.706
1286.00,50.745
1287.00,50.750
1288.00,50.747
1289.00,50.704
1290.00,50.744
1291.00,50.748
1292.00,50.733
1293.00,50.772
1294.00,50.748
1295.00,50.784
1296.00,50.787
1297.00,50.809
1298.00,50.848
1299.00,50.780
1300.00,50.825
1301.00,50.838
1302.00,50.841
1303.00,50.847
1304.00,50.836
1305.00,50.874
1306.00,50.864
1307.00,50.879
1308.00,50.891
1309.00,50.878
1310.00,50.880
1311.00,50.906
1312.00,50.938
1313.00,50.910
1314.00,50.928
1315.00,50.945
1316.00,50.964
1317.00,50.973
1318.00,50.977
1319.00,50.984
1320.00,51.000
1321.00,51.091
1322.00,51.092
1323.00,51.082
1324.00,51.128
1325.00,51.073
1326.00,51.118
1327.00,51.098
1328.00,51.100
1329.00,51.090
1330.00,51.115
1331.00,51.094
1332.00,51.114
1333.00,51.096
1334.00,51.149
1335.00,51.173
1336.00,51.231
1337.00,51.226
1338.00,51.296
1339.00,51.339
1340.00,51.419
1341.00,51.448
1342.00,51.519
1343.00,51.579
1344.00,51.619
1345.00,51.654
1346.00,51.660
1347.00,51.671
1348.00,51.749
1349.00,51.757
1350.00,51.747
1351.00,51.836
1352.00,51.812
1353.00,51.678
1354.00,51.875
1355.00,51.865
1356.00,51.926
1357.00,51.822
1358.00,51.840
1359.00,51.813
1360.00,51.940
1361.00,52.451
1362.00,51.928
1363.00,51.680
1364.00,52.026
1365.00,51.909
1366.00,51.923
1367.00,51.979
1368.00,51.881
1369.00,51.858
1370.00,51.889
1371.00,52.000
1372.00,51.881
1373.00,51.901
1374.00,51.909
1375.00,51.898
1376.00,51.919
1377.00,51.871
1378.00,51.990
1379.00,52.001
1380.00,52.047
1381.00,51.579
1382.00,51.883
1383.00,51.938
1384.00,51.869
1385.00,51.862
1386.00,52.103
1387.00,51.949
1388.00,51.925
1389.00,51.909
1390.00,51.889
1391.00,51.861
1392.00,51.951
1393.00,52.269
1394.00,51.951
1395.00,51.725
1396.00,51.948
1397.00,51.984
1398.00,51.793
1399.00,51.926
1400.00,51.782
1401.00,51.919
1402.00,51.982
1403.00,52.005
1404.00,51.907
1405.00,51.978
1406.00,51.960
1407.00,52.178
1408.00,51.973
1409.00,52.041
1410.00,52.032
1411.00,51.976
1412.00,52.226
1413.00,52.120
1414.00,51.847
1415.00,52.042
1416.00,52.112
1417.00,52.187
1418.00,52.098
1419.00,52.040
1420.00,52.122
1421.00,52.229
1422.00,52.179
1423.00,52.135
1424.00,52.175
1425.00,52.203
1426.00,52.231
1427.00,52.227
1428.00,52.245
1429.00,52.277
1430.00,52.288
1431.00,52.225
1432.00,52.275
1433.00,52.300
1434.00,52.300
1435.00,52.386
1436.00,52.332
1437.00,52.405
1438.00,52.379
1439.00,52.424
1440.00,52.457
1441.00,52.473
1442.00,52.456
1443.00,52.507
1444.00,52.569
1445.00,52.475
1446.00,52.480
1447.00,52.585
1448.00,52.667
1449.00,52.647
1450.00,52.577
1451.00,52.642
1452.00,52.665
1453.00,52.659
1454.00,52.656
1455.00,52.718
1456.00,52.731
1457.00,52.732
1458.00,52.768
1459.00,52.771
1460.00,52.788
1461.00,52.784
1462.00,52.812
1463.00,52.838
1464.00,52.842
1465.00,52.865
1466.00,52.866
1467.00,52.909
1468.00,52.950
1469.00,52.951
1470.00,52.966
1471.00,52.982
1472.00,52.991
1473.00,53.008
1474.00,53.073
1475.00,53.047
1476.00,53.050
1477.00,53.069
1478.00,53.092
1479.00,53.093
1480.00,53.106
1481.00,53.152
1482.00,53.168
1483.00,53.167
1484.00,53.187
1485.00,53.231
1486.00,53.203
1487.00,53.237
1488.00,53.266
1489.00,53.253
1490.00,53.246
1491.00,53.303
1492.00,53.330
1493.00,53.307
1494.00,53.325
1495.00,53.348
1496.00,53.361
1497.00,53.342
1498.00,53.377
1499.00,53.413
1500.00,53.394
1501.00, 
1502.00, 
1503.00, 
1504.00, 
1505.00, 
1506.00, 
1507.00, 
1508.00, 
1509.00, 
1510.00, 
1511.00, 
1512.00, 
1513.00, 
1514.00, 
1515.00, 
1516.00, 
1517.00, 
1518.00, 
1519.00, 
1520.00, 
1521.00, 
1522.00, 
1523.00, 
1524.00, 
1525.00, 
1526.00, 
1527.00, 
1528.00, 
1529.00, 
1530.00, 
1531.00, 
1532.00, 
1533.00, 
1534.00, 
1535.00, 
1536.00, 
1537.00, 
1538.00, 
1539.00, 
1540.00, 
1541.00, 
1542.00, 
1543.00, 
1544.00, 
1545.00, 
1546.00, 
1547.00, 
1548.00, 
1549.00, 
1550.00, 
1551.00, 
1552.00, 
1553.00, 
1554.00, 
1555.00, 
1556.00, 
1557.00, 
1558.00, 
1559.00, 
1560.00, 
1561.00, 
1562.00, 
1563.00, 
1564.00, 
1565.00, 
1566.00, 
1567.00, 
1568.00, 
1569.00, 
1570.00, 
1571.00, 
1572.00, 
1573.00, 
1574.00, 
1575.00, 
1576.00, 
1577.00, 
1578.00, 
1579.00, 
1580.00, 
1581.00, 
1582.00, 
1583.00, 
1584.00, 
1585.00, 
1586.00, 
1587.00, 
1588.00, 
1589.00, 
1590.00, 
1591.00, 
1592.00, 
1593.00, 
1594.00, 
1595.00, 
1596.00, 
1597.00, 
1598.00, 
1599.00, 
1600.00, 
1601.00, 
1602.00, 
1603.00, 
1604.00, 
1605.00, 
1606.00, 
1607.00, 
1608.00, 
1609.00, 
1610.00, 
1611.00, 
1612.00, 
1613.00, 
1614.00, 
1615.00, 
1616.00, 
1617.00, 
1618.00, 
1619.00, 
1620.00, 
1621.00, 
1622.00, 
1623.00, 
1624.00, 
1625.00, 
1626.00, 
1627.00, 
1628.00, 
1629.00, 
1630.00, 
1631.00, 
1632.00, 
1633.00, 
1634.00, 
1635.00, 
1636.00, 
1637.00, 
1638.00, 
1639.00, 
1640.00, 
1641.00, 
1642.00, 
1643.00, 
1644.00, 
1645.00, 
1646.00, 
1647.00, 
1648.00, 
1649.00, 
1650.00, 
1651.00, 
1652.00, 
1653.00, 
1654.00, 
1655.00, 
1656.00, 
1657.00, 
1658.00, 
1659.00, 
1660.00, 
1661.00, 
1662.00, 
1663.00, 
1664.00, 
1665.00, 
1666.00, 
1667.00, 
1668.00, 
1669.00, 
1670.00, 
1671.00, 
1672.00, 
1673.00, 
1674.00, 
1675.00, 
1676.00, 
1677.00, 
1678.00, 
1679.00, 
1680.00, 
1681.00, 
1682.00, 
1683.00, 
1684.00, 
1685.00, 
1686.00, 
1687.00, 
1688.00, 
1689.00, 
1690.00, 
1691.00, 
1692.00, 
1693.00, 
1694.00, 
1695.00, 
1696.00, 
1697.00, 
1698.00, 
1699.00, 
1700.00, 
1701.00, 
1702.00, 
1703.00, 
1704.00, 
1705.00, 
1706.00, 
1707.00, 
1708.00, 
1709.00, 
1710.00, 
1711.00, 
1712.00, 
1713.00, 
1714.00, 
1715.00, 
1716.00, 
1717.00, 
1718.00, 
1719.00, 
1720.00, 
1721.00, 
1722.00, 
1723.00, 
1724.00, 
1725.00, 
1726.00, 
1727.00, 
1728.00, 
1729.00, 
1730.00, 
1731.00, 
1732.00, 
1733.00, 
1734.00, 
1735.00, 
1736.00, 
1737.00, 
1738.00, 
1739.00, 
1740.00, 
1741.00, 
1742.00, 
1743.00, 
1744.00, 
1745.00, 
1746.00, 
1747.00, 
1748.00, 
1749.00, 
1750.00, 
1751.00, 
1752.00, 
1753.00, 
1754.00, 
1755.00, 
1756.00, 
1757.00, 
1758.00, 
1759.00, 
1760.00, 
1761.00, 
1762.00, 
1763.00, 
1764.00, 
1765.00, 
1766.00, 
1767.00, 
1768.00, 
1769.00, 
1770.00, 
1771.00, 
1772.00, 
1773.00, 
1774.00, 
1775.00, 
1776.00, 
1777.00, 
1778.00, 
1779.00, 
1780.00, 
1781.00, 
1782.00, 
1783.00, 
1784.00, 
1785.00, 
1786.00, 
1787.00, 
1788.00, 
1789.00, 
1790.00, 
1791.00, 
1792.00, 
1793.00, 
1794.00, 
1795.00, 
1796.00, 
1797.00, 
1798.00, 
1799.00, 
1800.00, 
1801.00, 
1802.00, 
1803.00, 
1804.00, 
1805.00, 
1806.00, 
1807.00, 
1808.00, 
1809.00, 
1810.00, 
1811.00, 
1812.00, 
1813.00, 
1814.00, 
1815.00, 
1816.00, 
1817.00, 
1818.00, 
1819.00, 
1820.00, 
1821.00, 
1822.00, 
1823.00, 
1824.00, 
1825.00, 
1826.00, 
1827.00, 
1828.00, 
1829.00, 
1830.00, 
1831.00, 
1832.00, 
1833.00, 
1834.00, 
1835.00, 
1836.00, 
1837.00, 
1838.00, 
1839.00, 
1840.00, 
1841.00, 
1842.00, 
1843.00, 
1844.00, 
1845.00, 
1846.00, 
1847.00, 
1848.00, 
1849.00, 
1850.00, 
1851.00, 
1852.00, 
1853.00, 
1854.00, 
1855.00, 
1856.00, 
1857.00, 
1858.00, 
1859.00, 
1860.00, 
1861.00, 
1862.00, 
1863.00, 
1864.00, 
1865.00, 
1866.00, 
1867.00, 
1868.00, 
1869.00, 
1870.00, 
1871.00, 
1872.00, 
1873.00, 
1874.00, 
1875.00, 
1876.00, 
1877.00, 
1878.00, 
1879.00, 
1880.00, 
1881.00, 
1882.00, 
1883.00, 
1884.00, 
1885.00, 
1886.00, 
1887.00, 
1888.00, 
1889.00, 
1890.00, 
1891.00, 
1892.00, 
1893.00, 
1894.00, 
1895.00, 
1896.00, 
1897.00, 
1898.00, 
1899.00, 
1900.00, 
1901.00, 
1902.00, 
1903.00, 
1904.00, 
1905.00, 
1906.00, 
1907.00, 
1908.00, 
1909.00, 
1910.00, 
1911.00, 
1912.00, 
1913.00, 
1914.00, 
1915.00, 
1916.00, 
1917.00, 
1918.00, 
1919.00, 
1920.00, 
1921.00, 
1922.00, 
1923.00, 
1924.00, 
1925.00, 
1926.00, 
1927.00, 
1928.00, 
1929.00, 
1930.00, 
1931.00, 
1932.00, 
1933.00, 
1934.00, 
1935.00, 
1936.00, 
1937.00, 
1938.00, 
1939.00, 
1940.00, 
1941.00, 
1942.00, 
1943.00, 
1944.00, 
1945.00, 
1946.00, 
1947.00, 
1948.00, 
1949.00, 
1950.00, 
1951.00, 
1952.00, 
1953.00, 
1954.00, 
1955.00, 
1956.00, 
1957.00, 
1958.00, 
1959.00, 
1960.00, 
1961.00, 
1962.00, 
1963.00, 
1964.00, 
1965.00, 
1966.00, 
1967.00, 
1968.00, 
1969.00, 
1970.00, 
1971.00, 
1972.00, 
1973.00, 
1974.00, 
1975.00, 
1976.00, 
1977.00, 
1978.00, 
1979.00, 
1980.00, 
1981.00, 
1982.00, 
1983.00, 
1984.00, 
1985.00, 
1986.00, 
1987.00, 
1988.00, 
1989.00, 
1990.00, 
1991.00, 
1992.00, 
1993.00, 
1994.00, 
1995.00, 
1996.00, 
1997.00, 
1998.00, 
1999.00, 
2000.00, 
2001.00, 
2002.00, 
2003.00, 
2004.00, 
2005.00, 
2006.00, 
2007.00, 
2008.00, 
2009.00, 
2010.00, 
2011.00, 
2012.00, 
2013.00, 
2014.00, 
2015.00, 
2016.00, 
2017.00, 
2018.00, 
2019.00, 
2020.00, 
2021.00, 
2022.00, 
2023.00, 
2024.00, 
2025.00, 
2026.00, 
2027.00, 
2028.00, 
2029.00, 
2030.00, 
2031.00, 
2032.00, 
2033.00, 
2034.00, 
2035.00, 
2036.00, 
2037.00, 
2038.00, 
2039.00, 
2040.00, 
2041.00, 
2042.00, 
2043.00, 
2044.00, 
2045.00, 
2046.00, 
2047.00, 
2048.00, 
2049.00, 
2050.00, 
2051.00, 
2052.00, 
2053.00, 
2054.00, 
2055.00, 
2056.00, 
2057.00, 
2058.00, 
2059.00, 
2060.00, 
2061.00, 
2062.00, 
2063.00, 
2064.00, 
2065.00, 
2066.00, 
2067.00, 
2068.00, 
2069.00, 
2070.00, 
2071.00, 
2072.00, 
2073.00, 
2074.00, 
2075.00, 
2076.00, 
2077.00, 
2078.00, 
2079.00, 
2080.00, 
2081.00, 
2082.00, 
2083.00, 
2084.00, 
2085.00, 
2086.00, 
2087.00, 
2088.00, 
2089.00, 
2090.00, 
2091.00, 
2092.00, 
2093.00, 
2094.00, 
2095.00, 
2096.00, 
2097.00, 
2098.00, 
2099.00, 
2100.00, 
2101.00, 
2102.00, 
2103.00, 
2104.00, 
2105.00, 
2106.00, 
2107.00, 
2108.00, 
2109.00, 
2110.00, 
2111.00, 
2112.00, 
2113.00, 
2114.00, 
2115.00, 
2116.00, 
2117.00, 
2118.00, 
2119.00, 
2120.00, 
2121.00, 
2122.00, 
2123.00, 
2124.00, 
2125.00, 
2126.00, 
2127.00, 
2128.00, 
2129.00, 
2130.00, 
2131.00, 
2132.00, 
2133.00, 
2134.00, 
2135.00, 
2136.00, 
2137.00, 
2138.00, 
2139.00, 
2140.00, 
2141.00, 
2142.00, 
2143.00, 
2144.00, 
2145.00, 
2146.00, 
2147.00, 
2148.00, 
2149.00, 
2150.00, 
2151.00, 
2152.00, 
2153.00, 
2154.00, 
2155.00, 
2156.00, 
2157.00, 
2158.00, 
2159.00, 
2160.00, 
2161.00, 
2162.00, 
2163.00, 
2164.00, 
2165.00, 
2166.00, 
2167.00, 
2168.00, 
2169.00, 
2170.00, 
2171.00, 
2172.00, 
2173.00, 
2174.00, 
2175.00, 
2176.00, 
2177.00, 
2178.00, 
2179.00, 
2180.00, 
2181.00, 
2182.00, 
2183.00, 
2184.00, 
2185.00, 
2186.00, 
2187.00, 
2188.00, 
2189.00, 
2190.00, 
2191.00, 
2192.00, 
2193.00, 
2194.00, 
2195.00, 
2196.00, 
2197.00, 
2198.00, 
2199.00, 
2200.00, 
2201.00, 
2202.00, 
2203.00, 
2204.00, 
2205.00, 
2206.00, 
2207.00, 
2208.00, 
2209.00, 
2210.00, 
2211.00, 
2212.00, 
2213.00, 
2214.00, 
2215.00, 
2216.00, 
2217.00, 
2218.00, 
2219.00, 
2220.00, 
2221.00, 
2222.00, 
2223.00, 
2224.00, 
2225.00, 
2226.00, 
2227.00, 
2228.00, 
2229.00, 
2230.00, 
2231.00, 
2232.00, 
2233.00, 
2234.00, 
2235.00, 
2236.00, 
2237.00, 
2238.00, 
2239.00, 
2240.00, 
2241.00, 
2242.00, 
2243.00, 
2244.00, 
2245.00, 
2246.00, 
2247.00, 
2248.00, 
2249.00, 
2250.00, 
2251.00, 
2252.00, 
2253.00, 
2254.00, 
2255.00, 
2256.00, 
2257.00, 
2258.00, 
2259.00, 
2260.00, 
2261.00, 
2262.00, 
2263.00, 
2264.00, 
2265.00, 
2266.00, 
2267.00, 
2268.00, 
2269.00, 
2270.00, 
2271.00, 
2272.00, 
2273.00, 
2274.00, 
2275.00, 
2276.00, 
2277.00, 
2278.00, 
2279.00, 
2280.00, 
2281.00, 
2282.00, 
2283.00, 
2284.00, 
2285.00, 
2286.00, 
2287.00, 
2288.00, 
2289.00, 
2290.00, 
2291.00, 
2292.00, 
2293.00, 
2294.00, 
2295.00, 
2296.00, 
2297.00, 
2298.00, 
2299.00, 
2300.00, 
2301.00, 
2302.00, 
2303.00, 
2304.00, 
2305.00, 
2306.00, 
2307.00, 
2308.00, 
2309.00, 
2310.00, 
2311.00, 
2312.00, 
2313.00, 
2314.00, 
2315.00, 
2316.00, 
2317.00, 
2318.00, 
2319.00, 
2320.00, 
2321.00, 
2322.00, 
2323.00, 
2324.00, 
2325.00, 
2326.00, 
2327.00, 
2328.00, 
2329.00, 
2330.00, 
2331.00, 
2332.00, 
2333.00, 
2334.00, 
2335.00, 
2336.00, 
2337.00, 
2338.00, 
2339.00, 
2340.00, 
2341.00, 
2342.00, 
2343.00, 
2344.00, 
2345.00, 
2346.00, 
2347.00, 
2348.00, 
2349.00, 
2350.00, 
2351.00, 
2352.00, 
2353.00, 
2354.00, 
2355.00, 
2356.00, 
2357.00, 
2358.00, 
2359.00, 
2360.00, 
2361.00, 
2362.00, 
2363.00, 
2364.00, 
2365.00, 
2366.00, 
2367.00, 
2368.00, 
2369.00, 
2370.00, 
2371.00, 
2372.00, 
2373.00, 
2374.00, 
2375.00, 
2376.00, 
2377.00, 
2378.00, 
2379.00, 
2380.00, 
2381.00, 
2382.00, 
2383.00, 
2384.00, 
2385.00, 
2386.00, 
2387.00, 
2388.00, 
2389.00, 
2390.00, 
2391.00, 
2392.00, 
2393.00, 
2394.00, 
2395.00, 
2396.00, 
2397.00, 
2398.00, 
2399.00, 
2400.00, 
2401.00, 
2402.00, 
2403.00, 
2404.00, 
2405.00, 
2406.00, 
2407.00, 
2408.00, 
2409.00, 
2410.00, 
2411.00, 
2412.00, 
2413.00, 
2414.00, 
2415.00, 
2416.00, 
2417.00, 
2418.00, 
2419.00, 
2420.00, 
2421.00, 
2422.00, 
2423.00, 
2424.00, 
2425.00, 
2426.00, 
2427.00, 
2428.00, 
2429.00, 
2430.00, 
2431.00, 
2432.00, 
2433.00, 
2434.00, 
2435.00, 
2436.00, 
2437.00, 
2438.00, 
2439.00, 
2440.00, 
2441.00, 
2442.00, 
2443.00, 
2444.00, 
2445.00, 
2446.00, 
2447.00, 
2448.00, 
2449.00, 
2450.00, 
2451.00, 
2452.00, 
2453.00, 
2454.00, 
2455.00, 
2456.00, 
2457.00, 
2458.00, 
2459.00, 
2460.00, 
2461.00, 
2462.00, 
2463.00, 
2464.00, 
2465.00, 
2466.00, 
2467.00, 
2468.00, 
2469.00, 
2470.00, 
2471.00, 
2472.00, 
2473.00, 
2474.00, 
2475.00, 
2476.00, 
2477.00, 
2478.00, 
2479.00, 
2480.00, 
2481.00, 
2482.00, 
2483.00, 
2484.00, 
2485.00, 
2486.00, 
2487.00, 
2488.00, 
2489.00, 
2490.00, 
2491.00, 
2492.00, 
2493.00, 
2494.00, 
2495.00, 
2496.00, 
2497.00, 
2498.00, 
2499.00, 
2500.00, 
2501.00, 
2502.00, 
2503.00, 
2504.00, 
2505.00, 
2506.00, 
2507.00, 
2508.00, 
2509.00, 
2510.00, 
2511.00, 
2512.00, 
2513.00, 
2514.00, 
2515.00, 
2516.00, 
2517.00, 
2518.00, 
2519.00, 
2520.00, 
2521.00, 
2522.00, 
2523.00, 
2524.00, 
2525.00, 
2526.00, 
2527.00, 
2528.00, 
2529.00, 
2530.00, 
2531.00, 
2532.00, 
2533.00, 
2534.00, 
2535.00, 
2536.00, 
2537.00, 
2538.00, 
2539.00, 
2540.00, 
2541.00, 
2542.00, 
2543.00, 
2544.00, 
2545.00, 
2546.00, 
2547.00, 
2548.00, 
2549.00, 
2550.00, 
2551.00, 
2552.00, 
2553.00, 
2554.00, 
2555.00, 
2556.00, 
2557.00, 
2558.00, 
2559.00, 
2560.00, 
2561.00, 
2562.00, 
2563.00, 
2564.00, 
2565.00, 
2566.00, 
2567.00, 
2568.00, 
2569.00, 
2570.00, 
2571.00, 
2572.00, 
2573.00, 
2574.00, 
2575.00, 
2576.00, 
2577.00, 
2578.00, 
2579.00, 
2580.00, 
2581.00, 
2582.00, 
2583.00, 
2584.00, 
2585.00, 
2586.00, 
2587.00, 
2588.00, 
2589.00, 
2590.00, 
2591.00, 
2592.00, 
2593.00, 
2594.00, 
2595.00, 
2596.00, 
2597.00, 
2598.00, 
2599.00, 
2600.00, 
