"2cP2 - RawData"
"Wavelength nm.","T%"
200.00,0.003
201.00,0.000
202.00,0.003
203.00,0.002
204.00,0.004
205.00,0.002
206.00,0.001
207.00,0.003
208.00,0.003
209.00,0.003
210.00,0.002
211.00,0.002
212.00,0.004
213.00,0.004
214.00,0.002
215.00,0.001
216.00,0.002
217.00,-0.001
218.00,0.002
219.00,0.005
220.00,0.002
221.00,0.005
222.00,0.002
223.00,-0.000
224.00,0.001
225.00,-0.000
226.00,0.001
227.00,0.003
228.00,0.002
229.00,-0.001
230.00,0.002
231.00,0.003
232.00,0.002
233.00,0.002
234.00,0.002
235.00,0.001
236.00,0.000
237.00,0.003
238.00,0.002
239.00,0.000
240.00,0.001
241.00,0.001
242.00,-0.001
243.00,-0.001
244.00,0.000
245.00,0.002
246.00,0.001
247.00,0.001
248.00,0.000
249.00,-0.001
250.00,-0.001
251.00,0.001
252.00,0.001
253.00,-0.000
254.00,-0.000
255.00,0.001
256.00,-0.001
257.00,0.001
258.00,0.001
259.00,0.000
260.00,0.001
261.00,0.001
262.00,0.001
263.00,-0.002
264.00,0.001
265.00,0.001
266.00,0.002
267.00,0.000
268.00,0.000
269.00,0.000
270.00,0.001
271.00,0.001
272.00,0.000
273.00,0.002
274.00,-0.000
275.00,0.002
276.00,0.000
277.00,-0.000
278.00,0.001
279.00,-0.000
280.00,0.002
281.00,0.002
282.00,0.000
283.00,0.001
284.00,0.000
285.00,0.001
286.00,0.000
287.00,0.001
288.00,0.000
289.00,0.001
290.00,-0.002
291.00,0.000
292.00,0.002
293.00,-0.000
294.00,0.000
295.00,0.002
296.00,-0.000
297.00,0.002
298.00,0.001
299.00,0.002
300.00,0.004
301.00,0.008
302.00,0.011
303.00,0.016
304.00,0.025
305.00,0.044
306.00,0.065
307.00,0.101
308.00,0.157
309.00,0.241
310.00,0.336
311.00,0.452
312.00,0.592
313.00,0.834
314.00,1.082
315.00,1.418
316.00,1.793
317.00,2.270
318.00,2.780
319.00,3.403
320.00,4.122
321.00,4.914
322.00,5.825
323.00,6.737
324.00,7.894
325.00,8.983
326.00,10.086
327.00,11.344
328.00,12.681
329.00,13.996
330.00,15.348
331.00,16.726
332.00,18.168
333.00,19.668
334.00,21.066
335.00,22.523
336.00,23.956
337.00,25.412
338.00,26.769
339.00,28.117
340.00,29.429
341.00,30.764
342.00,31.993
343.00,33.105
344.00,34.266
345.00,35.343
346.00,36.424
347.00,37.431
348.00,38.350
349.00,39.275
350.00,40.024
351.00,40.873
352.00,41.592
353.00,42.269
354.00,43.023
355.00,43.530
356.00,44.176
357.00,44.878
358.00,45.312
359.00,45.773
360.00,46.190
361.00,46.665
362.00,47.088
363.00,47.486
364.00,47.850
365.00,48.177
366.00,48.440
367.00,48.704
368.00,48.930
369.00,49.130
370.00,49.369
371.00,49.573
372.00,49.581
373.00,49.693
374.00,49.747
375.00,49.893
376.00,49.792
377.00,49.869
378.00,49.900
379.00,49.970
380.00,49.930
381.00,50.032
382.00,50.106
383.00,50.222
384.00,50.385
385.00,50.678
386.00,50.810
387.00,50.948
388.00,51.134
389.00,51.288
390.00,51.438
391.00,51.604
392.00,51.721
393.00,51.804
394.00,51.956
395.00,51.999
396.00,52.170
397.00,52.323
398.00,52.345
399.00,52.463
400.00,52.579
401.00,52.611
402.00,52.601
403.00,52.678
404.00,52.697
405.00,52.730
406.00,52.733
407.00,52.728
408.00,52.821
409.00,52.735
410.00,52.644
411.00,52.582
412.00,52.622
413.00,52.734
414.00,52.679
415.00,52.649
416.00,52.634
417.00,52.668
418.00,52.685
419.00,52.693
420.00,52.675
421.00,52.851
422.00,52.920
423.00,52.929
424.00,52.804
425.00,52.803
426.00,52.910
427.00,52.928
428.00,52.965
429.00,52.960
430.00,52.970
431.00,53.001
432.00,52.983
433.00,53.049
434.00,53.002
435.00,53.029
436.00,53.072
437.00,53.109
438.00,53.139
439.00,53.075
440.00,53.087
441.00,53.159
442.00,53.203
443.00,53.187
444.00,53.228
445.00,53.257
446.00,53.241
447.00,53.362
448.00,53.383
449.00,53.394
450.00,53.434
451.00,53.441
452.00,53.453
453.00,53.541
454.00,53.516
455.00,53.476
456.00,53.515
457.00,53.574
458.00,53.630
459.00,53.645
460.00,53.753
461.00,53.729
462.00,53.687
463.00,53.834
464.00,53.718
465.00,53.920
466.00,53.924
467.00,53.816
468.00,53.848
469.00,53.988
470.00,53.974
471.00,53.921
472.00,53.904
473.00,53.867
474.00,53.870
475.00,53.922
476.00,53.932
477.00,53.868
478.00,53.919
479.00,53.978
480.00,54.028
481.00,54.047
482.00,54.098
483.00,54.139
484.00,54.218
485.00,54.193
486.00,54.282
487.00,54.249
488.00,54.314
489.00,54.433
490.00,54.431
491.00,54.440
492.00,54.417
493.00,54.444
494.00,54.482
495.00,54.418
496.00,54.464
497.00,54.469
498.00,54.496
499.00,54.601
500.00,54.550
501.00,54.518
502.00,54.553
503.00,54.634
504.00,54.572
505.00,54.681
506.00,54.693
507.00,54.619
508.00,54.656
509.00,54.806
510.00,54.786
511.00,54.770
512.00,54.809
513.00,54.836
514.00,54.912
515.00,54.931
516.00,54.944
517.00,54.969
518.00,54.947
519.00,54.970
520.00,54.936
521.00,54.909
522.00,54.962
523.00,54.924
524.00,54.845
525.00,54.916
526.00,54.961
527.00,54.935
528.00,54.930
529.00,54.948
530.00,54.923
531.00,55.125
532.00,55.036
533.00,55.045
534.00,55.075
535.00,55.086
536.00,55.139
537.00,55.124
538.00,55.145
539.00,55.172
540.00,55.084
541.00,55.126
542.00,55.121
543.00,55.102
544.00,55.160
545.00,55.112
546.00,55.143
547.00,55.184
548.00,55.193
549.00,55.122
550.00,55.192
551.00,55.197
552.00,55.217
553.00,55.230
554.00,55.287
555.00,55.291
556.00,55.223
557.00,55.208
558.00,55.163
559.00,55.266
560.00,55.373
561.00,55.279
562.00,55.234
563.00,55.192
564.00,55.372
565.00,55.147
566.00,55.223
567.00,55.274
568.00,55.225
569.00,55.276
570.00,55.233
571.00,55.136
572.00,55.185
573.00,55.117
574.00,55.171
575.00,55.208
576.00,55.100
577.00,55.156
578.00,55.207
579.00,55.225
580.00,55.251
581.00,55.309
582.00,55.334
583.00,55.319
584.00,55.407
585.00,55.400
586.00,55.343
587.00,55.456
588.00,55.554
589.00,55.392
590.00,55.390
591.00,55.357
592.00,55.299
593.00,55.436
594.00,55.459
595.00,55.503
596.00,55.456
597.00,55.425
598.00,55.474
599.00,55.409
600.00,55.357
601.00,55.436
602.00,55.426
603.00,55.493
604.00,55.412
605.00,55.348
606.00,55.394
607.00,55.326
608.00,55.360
609.00,55.287
610.00,55.221
611.00,55.279
612.00,55.332
613.00,55.275
614.00,55.253
615.00,55.313
616.00,55.250
617.00,55.234
618.00,55.211
619.00,55.238
620.00,55.142
621.00,55.114
622.00,55.093
623.00,55.091
624.00,55.161
625.00,55.230
626.00,55.145
627.00,55.158
628.00,55.115
629.00,55.185
630.00,55.140
631.00,55.117
632.00,55.031
633.00,55.056
634.00,55.041
635.00,55.086
636.00,55.041
637.00,55.165
638.00,55.111
639.00,55.051
640.00,55.082
641.00,54.916
642.00,54.970
643.00,54.959
644.00,54.956
645.00,54.898
646.00,54.877
647.00,54.891
648.00,54.966
649.00,54.900
650.00,54.827
651.00,54.893
652.00,54.895
653.00,54.886
654.00,54.770
655.00,54.640
656.00,54.685
657.00,54.893
658.00,54.792
659.00,54.784
660.00,54.786
661.00,54.665
662.00,54.759
663.00,54.700
664.00,54.698
665.00,54.679
666.00,54.628
667.00,54.629
668.00,54.468
669.00,54.532
670.00,54.640
671.00,54.554
672.00,54.487
673.00,54.617
674.00,54.601
675.00,54.411
676.00,54.383
677.00,54.389
678.00,54.328
679.00,54.300
680.00,54.231
681.00,54.435
682.00,54.245
683.00,54.339
684.00,54.444
685.00,54.399
686.00,54.084
687.00,54.089
688.00,54.112
689.00,54.118
690.00,54.195
691.00,54.118
692.00,53.994
693.00,53.973
694.00,53.797
695.00,53.875
696.00,53.982
697.00,53.976
698.00,53.974
699.00,54.006
700.00,53.977
701.00,53.855
702.00,53.781
703.00,53.829
704.00,53.767
705.00,53.707
706.00,53.851
707.00,53.727
708.00,53.620
709.00,53.775
710.00,53.659
711.00,53.504
712.00,53.433
713.00,53.461
714.00,53.416
715.00,53.452
716.00,53.628
717.00,53.371
718.00,53.141
719.00,53.433
720.00,53.417
721.00,57.828
722.00,57.813
723.00,57.758
724.00,57.635
725.00,57.598
726.00,57.436
727.00,57.296
728.00,57.278
729.00,57.190
730.00,57.186
731.00,57.064
732.00,57.070
733.00,56.972
734.00,56.940
735.00,56.916
736.00,56.827
737.00,56.751
738.00,56.763
739.00,56.670
740.00,56.652
741.00,56.715
742.00,56.560
743.00,56.474
744.00,56.372
745.00,56.316
746.00,56.268
747.00,56.168
748.00,56.048
749.00,56.054
750.00,55.993
751.00,55.871
752.00,55.924
753.00,55.810
754.00,55.733
755.00,55.589
756.00,55.613
757.00,55.601
758.00,55.578
759.00,55.446
760.00,55.378
761.00,55.446
762.00,55.372
763.00,55.424
764.00,55.271
765.00,55.194
766.00,55.139
767.00,55.192
768.00,55.171
769.00,54.962
770.00,55.010
771.00,54.979
772.00,54.910
773.00,54.824
774.00,54.872
775.00,54.763
776.00,54.662
777.00,54.757
778.00,54.627
779.00,54.668
780.00,54.602
781.00,54.574
782.00,54.429
783.00,54.493
784.00,54.450
785.00,54.397
786.00,54.423
787.00,54.225
788.00,54.189
789.00,54.187
790.00,54.114
791.00,54.226
792.00,54.073
793.00,54.001
794.00,54.067
795.00,53.986
796.00,54.024
797.00,53.857
798.00,53.838
799.00,53.840
800.00,53.737
801.00,53.714
802.00,53.666
803.00,53.650
804.00,53.607
805.00,53.424
806.00,53.507
807.00,53.495
808.00,53.411
809.00,53.404
810.00,53.363
811.00,53.249
812.00,53.353
813.00,53.216
814.00,53.338
815.00,53.238
816.00,53.232
817.00,53.242
818.00,52.970
819.00,53.051
820.00,53.011
821.00,52.997
822.00,52.990
823.00,52.936
824.00,52.892
825.00,52.856
826.00,52.727
827.00,52.788
828.00,52.749
829.00,52.704
830.00,52.763
831.00,55.216
832.00,55.149
833.00,55.114
834.00,55.069
835.00,55.031
836.00,55.032
837.00,54.975
838.00,54.964
839.00,54.939
840.00,54.879
841.00,54.884
842.00,54.835
843.00,54.786
844.00,54.766
845.00,54.738
846.00,54.722
847.00,54.670
848.00,54.602
849.00,54.582
850.00,54.487
851.00,54.429
852.00,54.448
853.00,54.412
854.00,54.344
855.00,54.317
856.00,54.287
857.00,54.238
858.00,54.253
859.00,54.160
860.00,54.226
861.00,54.125
862.00,54.089
863.00,54.082
864.00,54.061
865.00,54.062
866.00,54.051
867.00,53.995
868.00,53.976
869.00,53.968
870.00,53.939
871.00,53.910
872.00,53.905
873.00,53.851
874.00,53.867
875.00,53.856
876.00,53.802
877.00,53.797
878.00,53.753
879.00,53.741
880.00,53.716
881.00,53.713
882.00,53.712
883.00,53.660
884.00,53.612
885.00,53.599
886.00,53.583
887.00,53.522
888.00,53.499
889.00,53.478
890.00,53.458
891.00,53.410
892.00,53.430
893.00,53.394
894.00,53.358
895.00,53.328
896.00,53.337
897.00,53.316
898.00,53.266
899.00,53.296
900.00,53.267
901.00,53.243
902.00,53.251
903.00,53.217
904.00,53.201
905.00,53.168
906.00,53.149
907.00,53.117
908.00,53.076
909.00,53.056
910.00,53.056
911.00,53.003
912.00,52.989
913.00,53.007
914.00,52.930
915.00,52.954
916.00,52.906
917.00,52.853
918.00,52.848
919.00,52.820
920.00,52.778
921.00,52.795
922.00,52.778
923.00,52.729
924.00,52.715
925.00,52.688
926.00,52.674
927.00,52.648
928.00,52.629
929.00,52.614
930.00,52.567
931.00,52.568
932.00,52.560
933.00,52.535
934.00,52.516
935.00,52.517
936.00,52.481
937.00,52.467
938.00,52.441
939.00,52.415
940.00,52.386
941.00,52.358
942.00,52.320
943.00,52.340
944.00,52.296
945.00,52.294
946.00,52.423
947.00,52.254
948.00,52.231
949.00,52.200
950.00,52.176
951.00,52.167
952.00,52.123
953.00,52.098
954.00,52.081
955.00,52.050
956.00,52.021
957.00,51.986
958.00,51.987
959.00,51.955
960.00,51.936
961.00,52.029
962.00,51.915
963.00,51.859
964.00,51.860
965.00,51.842
966.00,51.818
967.00,51.798
968.00,51.813
969.00,51.807
970.00,51.805
971.00,51.814
972.00,51.765
973.00,51.814
974.00,51.804
975.00,51.811
976.00,51.811
977.00,51.792
978.00,51.821
979.00,51.782
980.00,51.809
981.00,51.804
982.00,51.792
983.00,51.768
984.00,51.774
985.00,51.771
986.00,51.751
987.00,51.754
988.00,51.714
989.00,51.728
990.00,51.689
991.00,51.688
992.00,51.692
993.00,51.657
994.00,51.642
995.00,51.625
996.00,51.614
997.00,51.597
998.00,51.611
999.00,51.603
1000.00,51.560
1001.00,51.579
1002.00,51.542
1003.00,51.550
1004.00,51.516
1005.00,51.512
1006.00,51.536
1007.00,51.523
1008.00,51.484
1009.00,51.475
1010.00,51.455
1011.00,51.434
1012.00,51.436
1013.00,51.421
1014.00,51.391
1015.00,51.399
1016.00,51.378
1017.00,51.368
1018.00,51.310
1019.00,51.344
1020.00,51.326
1021.00,51.285
1022.00,51.302
1023.00,51.263
1024.00,51.245
1025.00,51.219
1026.00,51.219
1027.00,51.193
1028.00,51.202
1029.00,51.167
1030.00,51.176
1031.00,51.155
1032.00,51.096
1033.00,51.107
1034.00,51.098
1035.00,51.053
1036.00,51.023
1037.00,51.009
1038.00,50.987
1039.00,50.955
1040.00,50.939
1041.00,50.935
1042.00,50.929
1043.00,50.874
1044.00,50.900
1045.00,50.905
1046.00,50.924
1047.00,50.918
1048.00,50.917
1049.00,50.926
1050.00,50.934
1051.00,50.939
1052.00,50.980
1053.00,50.979
1054.00,50.961
1055.00,50.991
1056.00,51.015
1057.00,51.016
1058.00,50.999
1059.00,51.004
1060.00,51.019
1061.00,50.982
1062.00,50.963
1063.00,50.979
1064.00,50.965
1065.00,50.952
1066.00,50.948
1067.00,50.986
1068.00,50.987
1069.00,50.934
1070.00,50.909
1071.00,50.878
1072.00,50.892
1073.00,50.876
1074.00,50.886
1075.00,50.866
1076.00,50.838
1077.00,50.845
1078.00,50.821
1079.00,50.834
1080.00,50.861
1081.00,50.853
1082.00,50.870
1083.00,50.842
1084.00,50.800
1085.00,50.806
1086.00,50.788
1087.00,50.777
1088.00,50.774
1089.00,50.760
1090.00,50.742
1091.00,50.743
1092.00,50.739
1093.00,50.723
1094.00,50.704
1095.00,50.695
1096.00,50.701
1097.00,50.682
1098.00,50.664
1099.00,50.664
1100.00,50.670
1101.00,50.639
1102.00,50.635
1103.00,50.632
1104.00,50.626
1105.00,50.608
1106.00,50.592
1107.00,50.597
1108.00,50.604
1109.00,50.562
1110.00,50.573
1111.00,50.576
1112.00,50.561
1113.00,50.563
1114.00,50.546
1115.00,50.542
1116.00,50.547
1117.00,50.520
1118.00,50.524
1119.00,50.520
1120.00,50.500
1121.00,50.488
1122.00,50.497
1123.00,50.491
1124.00,50.491
1125.00,50.478
1126.00,50.472
1127.00,50.482
1128.00,50.474
1129.00,50.500
1130.00,50.436
1131.00,50.427
1132.00,50.428
1133.00,50.404
1134.00,50.412
1135.00,50.417
1136.00,50.403
1137.00,50.386
1138.00,50.386
1139.00,50.392
1140.00,50.399
1141.00,50.398
1142.00,50.370
1143.00,50.384
1144.00,50.384
1145.00,50.379
1146.00,50.387
1147.00,50.364
1148.00,50.353
1149.00,50.366
1150.00,50.352
1151.00,50.367
1152.00,50.372
1153.00,50.336
1154.00,50.327
1155.00,50.345
1156.00,50.331
1157.00,50.340
1158.00,50.325
1159.00,50.322
1160.00,50.306
1161.00,50.315
1162.00,50.326
1163.00,50.328
1164.00,50.298
1165.00,50.314
1166.00,50.311
1167.00,50.310
1168.00,50.311
1169.00,50.313
1170.00,50.307
1171.00,50.297
1172.00,50.297
1173.00,50.304
1174.00,50.308
1175.00,50.278
1176.00,50.293
1177.00,50.291
1178.00,50.293
1179.00,50.306
1180.00,50.293
1181.00,50.300
1182.00,50.309
1183.00,50.293
1184.00,50.296
1185.00,50.314
1186.00,50.273
1187.00,50.301
1188.00,50.277
1189.00,50.292
1190.00,50.301
1191.00,50.274
1192.00,50.286
1193.00,50.281
1194.00,50.274
1195.00,50.270
1196.00,50.291
1197.00,50.273
1198.00,50.265
1199.00,50.268
1200.00,50.273
1201.00,50.280
1202.00,50.281
1203.00,50.273
1204.00,50.272
1205.00,50.270
1206.00,50.285
1207.00,50.303
1208.00,50.248
1209.00,50.269
1210.00,50.287
1211.00,50.281
1212.00,50.279
1213.00,50.257
1214.00,50.286
1215.00,50.261
1216.00,50.266
1217.00,50.288
1218.00,50.285
1219.00,50.259
1220.00,50.270
1221.00,50.291
1222.00,50.265
1223.00,50.282
1224.00,50.292
1225.00,50.277
1226.00,50.263
1227.00,50.263
1228.00,50.290
1229.00,50.316
1230.00,50.298
1231.00,50.300
1232.00,50.326
1233.00,50.302
1234.00,50.310
1235.00,50.318
1236.00,50.318
1237.00,50.310
1238.00,50.321
1239.00,50.348
1240.00,50.335
1241.00,50.313
1242.00,50.336
1243.00,50.363
1244.00,50.329
1245.00,50.347
1246.00,50.366
1247.00,50.352
1248.00,50.351
1249.00,50.376
1250.00,50.398
1251.00,50.393
1252.00,50.357
1253.00,50.367
1254.00,50.402
1255.00,50.379
1256.00,50.363
1257.00,50.355
1258.00,50.399
1259.00,50.394
1260.00,50.405
1261.00,50.422
1262.00,50.421
1263.00,50.400
1264.00,50.412
1265.00,50.418
1266.00,50.419
1267.00,50.425
1268.00,50.445
1269.00,50.442
1270.00,50.454
1271.00,50.439
1272.00,50.453
1273.00,50.469
1274.00,50.464
1275.00,50.468
1276.00,50.476
1277.00,50.456
1278.00,50.491
1279.00,50.481
1280.00,50.494
1281.00,50.522
1282.00,50.498
1283.00,50.495
1284.00,50.506
1285.00,50.466
1286.00,50.495
1287.00,50.509
1288.00,50.499
1289.00,50.491
1290.00,50.513
1291.00,50.531
1292.00,50.528
1293.00,50.537
1294.00,50.567
1295.00,50.583
1296.00,50.570
1297.00,50.591
1298.00,50.609
1299.00,50.582
1300.00,50.602
1301.00,50.602
1302.00,50.616
1303.00,50.628
1304.00,50.591
1305.00,50.623
1306.00,50.650
1307.00,50.636
1308.00,50.631
1309.00,50.639
1310.00,50.651
1311.00,50.647
1312.00,50.654
1313.00,50.655
1314.00,50.686
1315.00,50.679
1316.00,50.693
1317.00,50.710
1318.00,50.694
1319.00,50.702
1320.00,50.731
1321.00,50.841
1322.00,50.866
1323.00,50.853
1324.00,50.878
1325.00,50.855
1326.00,50.860
1327.00,50.863
1328.00,50.867
1329.00,50.837
1330.00,50.871
1331.00,50.859
1332.00,50.833
1333.00,50.856
1334.00,50.886
1335.00,50.906
1336.00,50.942
1337.00,50.992
1338.00,51.035
1339.00,51.087
1340.00,51.135
1341.00,51.212
1342.00,51.272
1343.00,51.300
1344.00,51.364
1345.00,51.419
1346.00,51.375
1347.00,51.384
1348.00,51.505
1349.00,51.522
1350.00,51.537
1351.00,51.531
1352.00,51.556
1353.00,51.609
1354.00,51.534
1355.00,51.741
1356.00,51.628
1357.00,51.568
1358.00,51.560
1359.00,51.612
1360.00,51.594
1361.00,51.843
1362.00,51.619
1363.00,51.671
1364.00,51.669
1365.00,51.630
1366.00,51.669
1367.00,51.593
1368.00,51.535
1369.00,51.648
1370.00,51.559
1371.00,51.531
1372.00,51.614
1373.00,51.585
1374.00,51.628
1375.00,51.603
1376.00,51.559
1377.00,51.592
1378.00,51.579
1379.00,51.598
1380.00,51.592
1381.00,51.542
1382.00,51.646
1383.00,51.569
1384.00,51.517
1385.00,51.531
1386.00,51.336
1387.00,51.511
1388.00,51.553
1389.00,51.574
1390.00,51.508
1391.00,51.593
1392.00,51.581
1393.00,51.584
1394.00,51.582
1395.00,51.485
1396.00,51.531
1397.00,51.602
1398.00,51.577
1399.00,51.555
1400.00,51.384
1401.00,51.555
1402.00,51.590
1403.00,51.602
1404.00,51.561
1405.00,51.613
1406.00,51.610
1407.00,51.857
1408.00,51.634
1409.00,51.638
1410.00,51.658
1411.00,51.661
1412.00,51.733
1413.00,51.665
1414.00,51.606
1415.00,51.668
1416.00,51.727
1417.00,51.738
1418.00,51.729
1419.00,51.704
1420.00,51.766
1421.00,51.829
1422.00,51.772
1423.00,51.751
1424.00,51.798
1425.00,51.812
1426.00,51.843
1427.00,51.832
1428.00,51.828
1429.00,51.862
1430.00,51.892
1431.00,51.849
1432.00,51.911
1433.00,51.913
1434.00,51.921
1435.00,51.978
1436.00,51.921
1437.00,51.981
1438.00,51.974
1439.00,52.004
1440.00,52.033
1441.00,52.026
1442.00,52.006
1443.00,52.066
1444.00,52.086
1445.00,52.025
1446.00,52.024
1447.00,52.104
1448.00,52.173
1449.00,52.182
1450.00,52.100
1451.00,52.158
1452.00,52.177
1453.00,52.174
1454.00,52.191
1455.00,52.221
1456.00,52.246
1457.00,52.250
1458.00,52.259
1459.00,52.271
1460.00,52.300
1461.00,52.290
1462.00,52.330
1463.00,52.356
1464.00,52.346
1465.00,52.380
1466.00,52.364
1467.00,52.398
1468.00,52.433
1469.00,52.407
1470.00,52.425
1471.00,52.454
1472.00,52.436
1473.00,52.466
1474.00,52.509
1475.00,52.488
1476.00,52.508
1477.00,52.511
1478.00,52.527
1479.00,52.558
1480.00,52.535
1481.00,52.549
1482.00,52.592
1483.00,52.586
1484.00,52.620
1485.00,52.635
1486.00,52.617
1487.00,52.637
1488.00,52.644
1489.00,52.659
1490.00,52.668
1491.00,52.679
1492.00,52.702
1493.00,52.701
1494.00,52.690
1495.00,52.725
1496.00,52.738
1497.00,52.726
1498.00,52.750
1499.00,52.762
1500.00,52.791
1501.00, 
1502.00, 
1503.00, 
1504.00, 
1505.00, 
1506.00, 
1507.00, 
1508.00, 
1509.00, 
1510.00, 
1511.00, 
1512.00, 
1513.00, 
1514.00, 
1515.00, 
1516.00, 
1517.00, 
1518.00, 
1519.00, 
1520.00, 
1521.00, 
1522.00, 
1523.00, 
1524.00, 
1525.00, 
1526.00, 
1527.00, 
1528.00, 
1529.00, 
1530.00, 
1531.00, 
1532.00, 
1533.00, 
1534.00, 
1535.00, 
1536.00, 
1537.00, 
1538.00, 
1539.00, 
1540.00, 
1541.00, 
1542.00, 
1543.00, 
1544.00, 
1545.00, 
1546.00, 
1547.00, 
1548.00, 
1549.00, 
1550.00, 
1551.00, 
1552.00, 
1553.00, 
1554.00, 
1555.00, 
1556.00, 
1557.00, 
1558.00, 
1559.00, 
1560.00, 
1561.00, 
1562.00, 
1563.00, 
1564.00, 
1565.00, 
1566.00, 
1567.00, 
1568.00, 
1569.00, 
1570.00, 
1571.00, 
1572.00, 
1573.00, 
1574.00, 
1575.00, 
1576.00, 
1577.00, 
1578.00, 
1579.00, 
1580.00, 
1581.00, 
1582.00, 
1583.00, 
1584.00, 
1585.00, 
1586.00, 
1587.00, 
1588.00, 
1589.00, 
1590.00, 
1591.00, 
1592.00, 
1593.00, 
1594.00, 
1595.00, 
1596.00, 
1597.00, 
1598.00, 
1599.00, 
1600.00, 
1601.00, 
1602.00, 
1603.00, 
1604.00, 
1605.00, 
1606.00, 
1607.00, 
1608.00, 
1609.00, 
1610.00, 
1611.00, 
1612.00, 
1613.00, 
1614.00, 
1615.00, 
1616.00, 
1617.00, 
1618.00, 
1619.00, 
1620.00, 
1621.00, 
1622.00, 
1623.00, 
1624.00, 
1625.00, 
1626.00, 
1627.00, 
1628.00, 
1629.00, 
1630.00, 
1631.00, 
1632.00, 
1633.00, 
1634.00, 
1635.00, 
1636.00, 
1637.00, 
1638.00, 
1639.00, 
1640.00, 
1641.00, 
1642.00, 
1643.00, 
1644.00, 
1645.00, 
1646.00, 
1647.00, 
1648.00, 
1649.00, 
1650.00, 
1651.00, 
1652.00, 
1653.00, 
1654.00, 
1655.00, 
1656.00, 
1657.00, 
1658.00, 
1659.00, 
1660.00, 
1661.00, 
1662.00, 
1663.00, 
1664.00, 
1665.00, 
1666.00, 
1667.00, 
1668.00, 
1669.00, 
1670.00, 
1671.00, 
1672.00, 
1673.00, 
1674.00, 
1675.00, 
1676.00, 
1677.00, 
1678.00, 
1679.00, 
1680.00, 
1681.00, 
1682.00, 
1683.00, 
1684.00, 
1685.00, 
1686.00, 
1687.00, 
1688.00, 
1689.00, 
1690.00, 
1691.00, 
1692.00, 
1693.00, 
1694.00, 
1695.00, 
1696.00, 
1697.00, 
1698.00, 
1699.00, 
1700.00, 
1701.00, 
1702.00, 
1703.00, 
1704.00, 
1705.00, 
1706.00, 
1707.00, 
1708.00, 
1709.00, 
1710.00, 
1711.00, 
1712.00, 
1713.00, 
1714.00, 
1715.00, 
1716.00, 
1717.00, 
1718.00, 
1719.00, 
1720.00, 
1721.00, 
1722.00, 
1723.00, 
1724.00, 
1725.00, 
1726.00, 
1727.00, 
1728.00, 
1729.00, 
1730.00, 
1731.00, 
1732.00, 
1733.00, 
1734.00, 
1735.00, 
1736.00, 
1737.00, 
1738.00, 
1739.00, 
1740.00, 
1741.00, 
1742.00, 
1743.00, 
1744.00, 
1745.00, 
1746.00, 
1747.00, 
1748.00, 
1749.00, 
1750.00, 
1751.00, 
1752.00, 
1753.00, 
1754.00, 
1755.00, 
1756.00, 
1757.00, 
1758.00, 
1759.00, 
1760.00, 
1761.00, 
1762.00, 
1763.00, 
1764.00, 
1765.00, 
1766.00, 
1767.00, 
1768.00, 
1769.00, 
1770.00, 
1771.00, 
1772.00, 
1773.00, 
1774.00, 
1775.00, 
1776.00, 
1777.00, 
1778.00, 
1779.00, 
1780.00, 
1781.00, 
1782.00, 
1783.00, 
1784.00, 
1785.00, 
1786.00, 
1787.00, 
1788.00, 
1789.00, 
1790.00, 
1791.00, 
1792.00, 
1793.00, 
1794.00, 
1795.00, 
1796.00, 
1797.00, 
1798.00, 
1799.00, 
1800.00, 
1801.00, 
1802.00, 
1803.00, 
1804.00, 
1805.00, 
1806.00, 
1807.00, 
1808.00, 
1809.00, 
1810.00, 
1811.00, 
1812.00, 
1813.00, 
1814.00, 
1815.00, 
1816.00, 
1817.00, 
1818.00, 
1819.00, 
1820.00, 
1821.00, 
1822.00, 
1823.00, 
1824.00, 
1825.00, 
1826.00, 
1827.00, 
1828.00, 
1829.00, 
1830.00, 
1831.00, 
1832.00, 
1833.00, 
1834.00, 
1835.00, 
1836.00, 
1837.00, 
1838.00, 
1839.00, 
1840.00, 
1841.00, 
1842.00, 
1843.00, 
1844.00, 
1845.00, 
1846.00, 
1847.00, 
1848.00, 
1849.00, 
1850.00, 
1851.00, 
1852.00, 
1853.00, 
1854.00, 
1855.00, 
1856.00, 
1857.00, 
1858.00, 
1859.00, 
1860.00, 
1861.00, 
1862.00, 
1863.00, 
1864.00, 
1865.00, 
1866.00, 
1867.00, 
1868.00, 
1869.00, 
1870.00, 
1871.00, 
1872.00, 
1873.00, 
1874.00, 
1875.00, 
1876.00, 
1877.00, 
1878.00, 
1879.00, 
1880.00, 
1881.00, 
1882.00, 
1883.00, 
1884.00, 
1885.00, 
1886.00, 
1887.00, 
1888.00, 
1889.00, 
1890.00, 
1891.00, 
1892.00, 
1893.00, 
1894.00, 
1895.00, 
1896.00, 
1897.00, 
1898.00, 
1899.00, 
1900.00, 
1901.00, 
1902.00, 
1903.00, 
1904.00, 
1905.00, 
1906.00, 
1907.00, 
1908.00, 
1909.00, 
1910.00, 
1911.00, 
1912.00, 
1913.00, 
1914.00, 
1915.00, 
1916.00, 
1917.00, 
1918.00, 
1919.00, 
1920.00, 
1921.00, 
1922.00, 
1923.00, 
1924.00, 
1925.00, 
1926.00, 
1927.00, 
1928.00, 
1929.00, 
1930.00, 
1931.00, 
1932.00, 
1933.00, 
1934.00, 
1935.00, 
1936.00, 
1937.00, 
1938.00, 
1939.00, 
1940.00, 
1941.00, 
1942.00, 
1943.00, 
1944.00, 
1945.00, 
1946.00, 
1947.00, 
1948.00, 
1949.00, 
1950.00, 
1951.00, 
1952.00, 
1953.00, 
1954.00, 
1955.00, 
1956.00, 
1957.00, 
1958.00, 
1959.00, 
1960.00, 
1961.00, 
1962.00, 
1963.00, 
1964.00, 
1965.00, 
1966.00, 
1967.00, 
1968.00, 
1969.00, 
1970.00, 
1971.00, 
1972.00, 
1973.00, 
1974.00, 
1975.00, 
1976.00, 
1977.00, 
1978.00, 
1979.00, 
1980.00, 
1981.00, 
1982.00, 
1983.00, 
1984.00, 
1985.00, 
1986.00, 
1987.00, 
1988.00, 
1989.00, 
1990.00, 
1991.00, 
1992.00, 
1993.00, 
1994.00, 
1995.00, 
1996.00, 
1997.00, 
1998.00, 
1999.00, 
2000.00, 
2001.00, 
2002.00, 
2003.00, 
2004.00, 
2005.00, 
2006.00, 
2007.00, 
2008.00, 
2009.00, 
2010.00, 
2011.00, 
2012.00, 
2013.00, 
2014.00, 
2015.00, 
2016.00, 
2017.00, 
2018.00, 
2019.00, 
2020.00, 
2021.00, 
2022.00, 
2023.00, 
2024.00, 
2025.00, 
2026.00, 
2027.00, 
2028.00, 
2029.00, 
2030.00, 
2031.00, 
2032.00, 
2033.00, 
2034.00, 
2035.00, 
2036.00, 
2037.00, 
2038.00, 
2039.00, 
2040.00, 
2041.00, 
2042.00, 
2043.00, 
2044.00, 
2045.00, 
2046.00, 
2047.00, 
2048.00, 
2049.00, 
2050.00, 
2051.00, 
2052.00, 
2053.00, 
2054.00, 
2055.00, 
2056.00, 
2057.00, 
2058.00, 
2059.00, 
2060.00, 
2061.00, 
2062.00, 
2063.00, 
2064.00, 
2065.00, 
2066.00, 
2067.00, 
2068.00, 
2069.00, 
2070.00, 
2071.00, 
2072.00, 
2073.00, 
2074.00, 
2075.00, 
2076.00, 
2077.00, 
2078.00, 
2079.00, 
2080.00, 
2081.00, 
2082.00, 
2083.00, 
2084.00, 
2085.00, 
2086.00, 
2087.00, 
2088.00, 
2089.00, 
2090.00, 
2091.00, 
2092.00, 
2093.00, 
2094.00, 
2095.00, 
2096.00, 
2097.00, 
2098.00, 
2099.00, 
2100.00, 
2101.00, 
2102.00, 
2103.00, 
2104.00, 
2105.00, 
2106.00, 
2107.00, 
2108.00, 
2109.00, 
2110.00, 
2111.00, 
2112.00, 
2113.00, 
2114.00, 
2115.00, 
2116.00, 
2117.00, 
2118.00, 
2119.00, 
2120.00, 
2121.00, 
2122.00, 
2123.00, 
2124.00, 
2125.00, 
2126.00, 
2127.00, 
2128.00, 
2129.00, 
2130.00, 
2131.00, 
2132.00, 
2133.00, 
2134.00, 
2135.00, 
2136.00, 
2137.00, 
2138.00, 
2139.00, 
2140.00, 
2141.00, 
2142.00, 
2143.00, 
2144.00, 
2145.00, 
2146.00, 
2147.00, 
2148.00, 
2149.00, 
2150.00, 
2151.00, 
2152.00, 
2153.00, 
2154.00, 
2155.00, 
2156.00, 
2157.00, 
2158.00, 
2159.00, 
2160.00, 
2161.00, 
2162.00, 
2163.00, 
2164.00, 
2165.00, 
2166.00, 
2167.00, 
2168.00, 
2169.00, 
2170.00, 
2171.00, 
2172.00, 
2173.00, 
2174.00, 
2175.00, 
2176.00, 
2177.00, 
2178.00, 
2179.00, 
2180.00, 
2181.00, 
2182.00, 
2183.00, 
2184.00, 
2185.00, 
2186.00, 
2187.00, 
2188.00, 
2189.00, 
2190.00, 
2191.00, 
2192.00, 
2193.00, 
2194.00, 
2195.00, 
2196.00, 
2197.00, 
2198.00, 
2199.00, 
2200.00, 
2201.00, 
2202.00, 
2203.00, 
2204.00, 
2205.00, 
2206.00, 
2207.00, 
2208.00, 
2209.00, 
2210.00, 
2211.00, 
2212.00, 
2213.00, 
2214.00, 
2215.00, 
2216.00, 
2217.00, 
2218.00, 
2219.00, 
2220.00, 
2221.00, 
2222.00, 
2223.00, 
2224.00, 
2225.00, 
2226.00, 
2227.00, 
2228.00, 
2229.00, 
2230.00, 
2231.00, 
2232.00, 
2233.00, 
2234.00, 
2235.00, 
2236.00, 
2237.00, 
2238.00, 
2239.00, 
2240.00, 
2241.00, 
2242.00, 
2243.00, 
2244.00, 
2245.00, 
2246.00, 
2247.00, 
2248.00, 
2249.00, 
2250.00, 
2251.00, 
2252.00, 
2253.00, 
2254.00, 
2255.00, 
2256.00, 
2257.00, 
2258.00, 
2259.00, 
2260.00, 
2261.00, 
2262.00, 
2263.00, 
2264.00, 
2265.00, 
2266.00, 
2267.00, 
2268.00, 
2269.00, 
2270.00, 
2271.00, 
2272.00, 
2273.00, 
2274.00, 
2275.00, 
2276.00, 
2277.00, 
2278.00, 
2279.00, 
2280.00, 
2281.00, 
2282.00, 
2283.00, 
2284.00, 
2285.00, 
2286.00, 
2287.00, 
2288.00, 
2289.00, 
2290.00, 
2291.00, 
2292.00, 
2293.00, 
2294.00, 
2295.00, 
2296.00, 
2297.00, 
2298.00, 
2299.00, 
2300.00, 
2301.00, 
2302.00, 
2303.00, 
2304.00, 
2305.00, 
2306.00, 
2307.00, 
2308.00, 
2309.00, 
2310.00, 
2311.00, 
2312.00, 
2313.00, 
2314.00, 
2315.00, 
2316.00, 
2317.00, 
2318.00, 
2319.00, 
2320.00, 
2321.00, 
2322.00, 
2323.00, 
2324.00, 
2325.00, 
2326.00, 
2327.00, 
2328.00, 
2329.00, 
2330.00, 
2331.00, 
2332.00, 
2333.00, 
2334.00, 
2335.00, 
2336.00, 
2337.00, 
2338.00, 
2339.00, 
2340.00, 
2341.00, 
2342.00, 
2343.00, 
2344.00, 
2345.00, 
2346.00, 
2347.00, 
2348.00, 
2349.00, 
2350.00, 
2351.00, 
2352.00, 
2353.00, 
2354.00, 
2355.00, 
2356.00, 
2357.00, 
2358.00, 
2359.00, 
2360.00, 
2361.00, 
2362.00, 
2363.00, 
2364.00, 
2365.00, 
2366.00, 
2367.00, 
2368.00, 
2369.00, 
2370.00, 
2371.00, 
2372.00, 
2373.00, 
2374.00, 
2375.00, 
2376.00, 
2377.00, 
2378.00, 
2379.00, 
2380.00, 
2381.00, 
2382.00, 
2383.00, 
2384.00, 
2385.00, 
2386.00, 
2387.00, 
2388.00, 
2389.00, 
2390.00, 
2391.00, 
2392.00, 
2393.00, 
2394.00, 
2395.00, 
2396.00, 
2397.00, 
2398.00, 
2399.00, 
2400.00, 
2401.00, 
2402.00, 
2403.00, 
2404.00, 
2405.00, 
2406.00, 
2407.00, 
2408.00, 
2409.00, 
2410.00, 
2411.00, 
2412.00, 
2413.00, 
2414.00, 
2415.00, 
2416.00, 
2417.00, 
2418.00, 
2419.00, 
2420.00, 
2421.00, 
2422.00, 
2423.00, 
2424.00, 
2425.00, 
2426.00, 
2427.00, 
2428.00, 
2429.00, 
2430.00, 
2431.00, 
2432.00, 
2433.00, 
2434.00, 
2435.00, 
2436.00, 
2437.00, 
2438.00, 
2439.00, 
2440.00, 
2441.00, 
2442.00, 
2443.00, 
2444.00, 
2445.00, 
2446.00, 
2447.00, 
2448.00, 
2449.00, 
2450.00, 
2451.00, 
2452.00, 
2453.00, 
2454.00, 
2455.00, 
2456.00, 
2457.00, 
2458.00, 
2459.00, 
2460.00, 
2461.00, 
2462.00, 
2463.00, 
2464.00, 
2465.00, 
2466.00, 
2467.00, 
2468.00, 
2469.00, 
2470.00, 
2471.00, 
2472.00, 
2473.00, 
2474.00, 
2475.00, 
2476.00, 
2477.00, 
2478.00, 
2479.00, 
2480.00, 
2481.00, 
2482.00, 
2483.00, 
2484.00, 
2485.00, 
2486.00, 
2487.00, 
2488.00, 
2489.00, 
2490.00, 
2491.00, 
2492.00, 
2493.00, 
2494.00, 
2495.00, 
2496.00, 
2497.00, 
2498.00, 
2499.00, 
2500.00, 
2501.00, 
2502.00, 
2503.00, 
2504.00, 
2505.00, 
2506.00, 
2507.00, 
2508.00, 
2509.00, 
2510.00, 
2511.00, 
2512.00, 
2513.00, 
2514.00, 
2515.00, 
2516.00, 
2517.00, 
2518.00, 
2519.00, 
2520.00, 
2521.00, 
2522.00, 
2523.00, 
2524.00, 
2525.00, 
2526.00, 
2527.00, 
2528.00, 
2529.00, 
2530.00, 
2531.00, 
2532.00, 
2533.00, 
2534.00, 
2535.00, 
2536.00, 
2537.00, 
2538.00, 
2539.00, 
2540.00, 
2541.00, 
2542.00, 
2543.00, 
2544.00, 
2545.00, 
2546.00, 
2547.00, 
2548.00, 
2549.00, 
2550.00, 
2551.00, 
2552.00, 
2553.00, 
2554.00, 
2555.00, 
2556.00, 
2557.00, 
2558.00, 
2559.00, 
2560.00, 
2561.00, 
2562.00, 
2563.00, 
2564.00, 
2565.00, 
2566.00, 
2567.00, 
2568.00, 
2569.00, 
2570.00, 
2571.00, 
2572.00, 
2573.00, 
2574.00, 
2575.00, 
2576.00, 
2577.00, 
2578.00, 
2579.00, 
2580.00, 
2581.00, 
2582.00, 
2583.00, 
2584.00, 
2585.00, 
2586.00, 
2587.00, 
2588.00, 
2589.00, 
2590.00, 
2591.00, 
2592.00, 
2593.00, 
2594.00, 
2595.00, 
2596.00, 
2597.00, 
2598.00, 
2599.00, 
2600.00, 
