"2cP4 - RawData"
"Wavelength nm.","T%"
200.00,0.001
201.00,0.004
202.00,-0.000
203.00,0.003
204.00,0.001
205.00,0.003
206.00,0.002
207.00,0.005
208.00,0.002
209.00,0.002
210.00,0.003
211.00,0.002
212.00,0.002
213.00,-0.001
214.00,-0.001
215.00,0.002
216.00,-0.000
217.00,0.001
218.00,-0.001
219.00,0.004
220.00,0.007
221.00,0.000
222.00,-0.000
223.00,-0.000
224.00,0.000
225.00,0.002
226.00,0.002
227.00,0.001
228.00,0.002
229.00,-0.000
230.00,-0.002
231.00,0.001
232.00,0.002
233.00,0.004
234.00,0.000
235.00,-0.000
236.00,0.001
237.00,0.002
238.00,0.002
239.00,0.000
240.00,0.001
241.00,0.001
242.00,0.001
243.00,0.002
244.00,-0.000
245.00,0.000
246.00,0.001
247.00,0.001
248.00,0.001
249.00,0.001
250.00,0.002
251.00,0.002
252.00,0.000
253.00,-0.001
254.00,0.001
255.00,0.001
256.00,-0.001
257.00,0.000
258.00,0.000
259.00,0.000
260.00,0.001
261.00,0.000
262.00,-0.001
263.00,-0.000
264.00,0.002
265.00,0.002
266.00,0.002
267.00,0.001
268.00,-0.001
269.00,0.000
270.00,-0.000
271.00,0.001
272.00,0.000
273.00,0.000
274.00,0.000
275.00,-0.000
276.00,0.001
277.00,0.000
278.00,0.001
279.00,-0.000
280.00,0.001
281.00,0.001
282.00,-0.001
283.00,0.000
284.00,-0.001
285.00,0.001
286.00,0.001
287.00,-0.000
288.00,0.001
289.00,0.001
290.00,0.001
291.00,0.001
292.00,0.001
293.00,0.001
294.00,0.003
295.00,0.001
296.00,0.002
297.00,0.002
298.00,0.001
299.00,0.001
300.00,0.004
301.00,0.006
302.00,0.007
303.00,0.009
304.00,0.014
305.00,0.024
306.00,0.038
307.00,0.054
308.00,0.085
309.00,0.129
310.00,0.180
311.00,0.243
312.00,0.327
313.00,0.446
314.00,0.584
315.00,0.775
316.00,0.976
317.00,1.238
318.00,1.519
319.00,1.871
320.00,2.277
321.00,2.721
322.00,3.232
323.00,3.812
324.00,4.413
325.00,5.032
326.00,5.653
327.00,6.391
328.00,7.153
329.00,7.913
330.00,8.703
331.00,9.534
332.00,10.387
333.00,11.227
334.00,12.024
335.00,12.925
336.00,13.776
337.00,14.642
338.00,15.458
339.00,16.254
340.00,17.019
341.00,17.817
342.00,18.504
343.00,19.226
344.00,19.925
345.00,20.562
346.00,21.236
347.00,21.804
348.00,22.386
349.00,22.912
350.00,23.390
351.00,23.858
352.00,24.265
353.00,24.714
354.00,25.120
355.00,25.493
356.00,25.879
357.00,26.189
358.00,26.453
359.00,26.744
360.00,26.975
361.00,27.277
362.00,27.480
363.00,27.770
364.00,27.929
365.00,28.108
366.00,28.234
367.00,28.345
368.00,28.522
369.00,28.628
370.00,28.670
371.00,28.732
372.00,28.798
373.00,28.752
374.00,28.783
375.00,28.879
376.00,28.846
377.00,28.855
378.00,28.832
379.00,28.807
380.00,28.775
381.00,28.812
382.00,28.779
383.00,28.903
384.00,28.904
385.00,29.031
386.00,29.070
387.00,29.127
388.00,29.259
389.00,29.312
390.00,29.355
391.00,29.414
392.00,29.498
393.00,29.538
394.00,29.553
395.00,29.586
396.00,29.618
397.00,29.676
398.00,29.716
399.00,29.765
400.00,29.750
401.00,29.771
402.00,29.784
403.00,29.783
404.00,29.787
405.00,29.806
406.00,29.834
407.00,29.827
408.00,29.842
409.00,29.838
410.00,29.772
411.00,29.755
412.00,29.786
413.00,29.847
414.00,29.810
415.00,29.788
416.00,29.792
417.00,29.840
418.00,29.877
419.00,29.895
420.00,29.925
421.00,30.016
422.00,30.063
423.00,30.129
424.00,30.146
425.00,30.163
426.00,30.221
427.00,30.291
428.00,30.264
429.00,30.379
430.00,30.463
431.00,30.503
432.00,30.524
433.00,30.591
434.00,30.669
435.00,30.714
436.00,30.780
437.00,30.863
438.00,30.925
439.00,30.966
440.00,31.085
441.00,31.181
442.00,31.238
443.00,31.296
444.00,31.441
445.00,31.518
446.00,31.587
447.00,31.726
448.00,31.779
449.00,31.923
450.00,31.987
451.00,32.091
452.00,32.199
453.00,32.298
454.00,32.414
455.00,32.471
456.00,32.627
457.00,32.717
458.00,32.829
459.00,32.912
460.00,33.077
461.00,33.137
462.00,33.267
463.00,33.430
464.00,33.576
465.00,33.579
466.00,33.725
467.00,33.862
468.00,33.991
469.00,34.126
470.00,34.167
471.00,34.223
472.00,34.333
473.00,34.466
474.00,34.570
475.00,34.702
476.00,34.773
477.00,34.905
478.00,35.022
479.00,35.137
480.00,35.250
481.00,35.379
482.00,35.540
483.00,35.629
484.00,35.798
485.00,35.952
486.00,36.074
487.00,36.119
488.00,36.293
489.00,36.478
490.00,36.566
491.00,36.641
492.00,36.729
493.00,36.847
494.00,36.946
495.00,37.035
496.00,37.125
497.00,37.142
498.00,37.248
499.00,37.425
500.00,37.521
501.00,37.689
502.00,37.794
503.00,37.915
504.00,37.984
505.00,38.135
506.00,38.242
507.00,38.298
508.00,38.363
509.00,38.554
510.00,38.619
511.00,38.706
512.00,38.840
513.00,38.878
514.00,38.967
515.00,39.205
516.00,39.268
517.00,39.444
518.00,39.519
519.00,39.577
520.00,39.624
521.00,39.667
522.00,39.766
523.00,39.792
524.00,39.861
525.00,39.985
526.00,40.066
527.00,40.101
528.00,40.157
529.00,40.258
530.00,40.269
531.00,40.439
532.00,40.486
533.00,40.558
534.00,40.632
535.00,40.724
536.00,40.788
537.00,40.825
538.00,40.884
539.00,40.982
540.00,41.019
541.00,40.994
542.00,41.013
543.00,41.108
544.00,41.165
545.00,41.244
546.00,41.289
547.00,41.375
548.00,41.439
549.00,41.474
550.00,41.543
551.00,41.633
552.00,41.638
553.00,41.722
554.00,41.840
555.00,41.854
556.00,41.875
557.00,41.913
558.00,41.968
559.00,42.026
560.00,42.072
561.00,42.111
562.00,42.170
563.00,42.159
564.00,42.239
565.00,42.278
566.00,42.290
567.00,42.317
568.00,42.369
569.00,42.368
570.00,42.389
571.00,42.407
572.00,42.440
573.00,42.476
574.00,42.522
575.00,42.534
576.00,42.546
577.00,42.611
578.00,42.673
579.00,42.714
580.00,42.785
581.00,42.919
582.00,42.925
583.00,42.921
584.00,43.075
585.00,43.076
586.00,43.110
587.00,43.236
588.00,43.284
589.00,43.295
590.00,43.292
591.00,43.319
592.00,43.362
593.00,43.387
594.00,43.460
595.00,43.506
596.00,43.537
597.00,43.556
598.00,43.661
599.00,43.599
600.00,43.613
601.00,43.712
602.00,43.771
603.00,43.902
604.00,43.841
605.00,43.842
606.00,43.892
607.00,43.876
608.00,43.984
609.00,43.948
610.00,43.948
611.00,44.092
612.00,44.108
613.00,44.139
614.00,44.142
615.00,44.162
616.00,44.257
617.00,44.248
618.00,44.251
619.00,44.378
620.00,44.404
621.00,44.457
622.00,44.432
623.00,44.437
624.00,44.600
625.00,44.601
626.00,44.636
627.00,44.713
628.00,44.653
629.00,44.617
630.00,44.897
631.00,45.000
632.00,44.912
633.00,45.017
634.00,45.033
635.00,45.110
636.00,45.173
637.00,45.297
638.00,45.369
639.00,45.360
640.00,45.399
641.00,45.382
642.00,45.451
643.00,45.555
644.00,45.634
645.00,45.659
646.00,45.705
647.00,45.757
648.00,45.885
649.00,45.970
650.00,45.922
651.00,46.027
652.00,46.028
653.00,46.134
654.00,46.180
655.00,46.104
656.00,46.240
657.00,46.459
658.00,46.444
659.00,46.497
660.00,46.501
661.00,46.556
662.00,46.688
663.00,46.709
664.00,46.794
665.00,46.856
666.00,46.869
667.00,46.991
668.00,46.929
669.00,47.069
670.00,47.252
671.00,47.190
672.00,47.194
673.00,47.405
674.00,47.457
675.00,47.441
676.00,47.438
677.00,47.600
678.00,47.623
679.00,47.665
680.00,47.749
681.00,47.874
682.00,47.942
683.00,48.038
684.00,48.149
685.00,48.243
686.00,48.088
687.00,48.131
688.00,48.229
689.00,48.278
690.00,48.361
691.00,48.381
692.00,48.438
693.00,48.443
694.00,48.370
695.00,48.517
696.00,48.627
697.00,48.742
698.00,48.829
699.00,48.874
700.00,49.014
701.00,48.970
702.00,48.944
703.00,49.097
704.00,49.031
705.00,49.155
706.00,49.306
707.00,49.220
708.00,49.226
709.00,49.428
710.00,49.453
711.00,49.411
712.00,49.373
713.00,49.443
714.00,49.515
715.00,49.617
716.00,49.655
717.00,49.574
718.00,49.613
719.00,49.770
720.00,49.658
721.00,54.241
722.00,54.222
723.00,54.354
724.00,54.292
725.00,54.200
726.00,54.158
727.00,54.136
728.00,54.107
729.00,54.183
730.00,54.231
731.00,54.249
732.00,54.209
733.00,54.232
734.00,54.253
735.00,54.217
736.00,54.175
737.00,54.186
738.00,54.302
739.00,54.141
740.00,54.271
741.00,54.345
742.00,54.313
743.00,54.328
744.00,54.277
745.00,54.247
746.00,54.168
747.00,54.186
748.00,54.150
749.00,54.139
750.00,54.115
751.00,54.111
752.00,54.147
753.00,54.070
754.00,54.043
755.00,54.056
756.00,54.052
757.00,53.948
758.00,54.005
759.00,54.036
760.00,53.931
761.00,53.955
762.00,54.092
763.00,53.975
764.00,53.983
765.00,53.963
766.00,53.977
767.00,54.041
768.00,54.013
769.00,53.953
770.00,53.952
771.00,54.002
772.00,53.941
773.00,53.912
774.00,53.970
775.00,54.062
776.00,53.917
777.00,53.962
778.00,53.922
779.00,53.967
780.00,53.931
781.00,53.837
782.00,53.815
783.00,53.900
784.00,53.805
785.00,53.826
786.00,53.895
787.00,53.783
788.00,53.754
789.00,53.804
790.00,53.737
791.00,53.787
792.00,53.684
793.00,53.629
794.00,53.723
795.00,53.615
796.00,53.662
797.00,53.594
798.00,53.637
799.00,53.599
800.00,53.528
801.00,53.536
802.00,53.510
803.00,53.488
804.00,53.429
805.00,53.354
806.00,53.381
807.00,53.386
808.00,53.348
809.00,53.339
810.00,53.363
811.00,53.341
812.00,53.371
813.00,53.317
814.00,53.286
815.00,53.292
816.00,53.245
817.00,53.199
818.00,53.125
819.00,53.200
820.00,53.179
821.00,53.141
822.00,53.176
823.00,53.116
824.00,53.096
825.00,52.996
826.00,52.964
827.00,52.961
828.00,53.115
829.00,52.960
830.00,52.979
831.00,55.054
832.00,55.070
833.00,55.069
834.00,55.028
835.00,54.994
836.00,55.036
837.00,54.963
838.00,54.962
839.00,54.898
840.00,54.890
841.00,54.867
842.00,54.795
843.00,54.804
844.00,54.818
845.00,54.767
846.00,54.730
847.00,54.755
848.00,54.683
849.00,54.670
850.00,54.598
851.00,54.568
852.00,54.527
853.00,54.535
854.00,54.499
855.00,54.465
856.00,54.420
857.00,54.396
858.00,54.423
859.00,54.322
860.00,54.275
861.00,54.443
862.00,54.323
863.00,54.278
864.00,54.264
865.00,54.301
866.00,54.239
867.00,54.211
868.00,54.206
869.00,54.176
870.00,54.169
871.00,54.157
872.00,54.168
873.00,54.135
874.00,54.105
875.00,54.170
876.00,54.228
877.00,54.114
878.00,54.045
879.00,54.057
880.00,54.021
881.00,53.990
882.00,54.044
883.00,54.008
884.00,53.977
885.00,53.929
886.00,53.906
887.00,53.917
888.00,53.840
889.00,53.816
890.00,53.825
891.00,53.814
892.00,53.781
893.00,53.764
894.00,53.755
895.00,53.741
896.00,53.721
897.00,53.684
898.00,53.679
899.00,53.668
900.00,53.618
901.00,53.673
902.00,53.646
903.00,53.571
904.00,53.545
905.00,53.551
906.00,53.533
907.00,53.509
908.00,53.468
909.00,53.491
910.00,53.464
911.00,53.395
912.00,53.426
913.00,53.420
914.00,53.346
915.00,53.306
916.00,53.466
917.00,53.307
918.00,53.308
919.00,53.290
920.00,53.266
921.00,53.237
922.00,53.228
923.00,53.176
924.00,53.165
925.00,53.155
926.00,53.138
927.00,53.116
928.00,53.082
929.00,53.050
930.00,53.049
931.00,53.026
932.00,53.038
933.00,53.016
934.00,52.997
935.00,52.975
936.00,52.932
937.00,52.946
938.00,52.926
939.00,52.882
940.00,52.851
941.00,52.882
942.00,52.824
943.00,52.804
944.00,52.781
945.00,52.792
946.00,52.750
947.00,52.701
948.00,52.713
949.00,52.713
950.00,52.653
951.00,52.650
952.00,52.644
953.00,52.616
954.00,52.551
955.00,52.557
956.00,52.523
957.00,52.486
958.00,52.468
959.00,52.457
960.00,52.443
961.00,52.447
962.00,52.398
963.00,52.393
964.00,52.367
965.00,52.347
966.00,52.348
967.00,52.332
968.00,52.323
969.00,52.298
970.00,52.306
971.00,52.331
972.00,52.251
973.00,52.314
974.00,52.330
975.00,52.304
976.00,52.320
977.00,52.423
978.00,52.345
979.00,52.286
980.00,52.311
981.00,52.325
982.00,52.318
983.00,52.289
984.00,52.298
985.00,52.326
986.00,52.282
987.00,52.275
988.00,52.253
989.00,52.246
990.00,52.219
991.00,52.205
992.00,52.211
993.00,52.170
994.00,52.170
995.00,52.152
996.00,52.155
997.00,52.116
998.00,52.130
999.00,52.126
1000.00,52.068
1001.00,52.114
1002.00,52.141
1003.00,52.049
1004.00,52.020
1005.00,52.022
1006.00,52.049
1007.00,52.024
1008.00,51.988
1009.00,51.989
1010.00,51.985
1011.00,51.950
1012.00,51.956
1013.00,51.933
1014.00,51.903
1015.00,51.922
1016.00,51.885
1017.00,51.887
1018.00,51.867
1019.00,51.860
1020.00,51.831
1021.00,51.810
1022.00,51.778
1023.00,51.764
1024.00,51.759
1025.00,51.736
1026.00,51.734
1027.00,51.701
1028.00,51.726
1029.00,51.691
1030.00,51.698
1031.00,51.667
1032.00,51.640
1033.00,51.610
1034.00,51.600
1035.00,51.603
1036.00,51.541
1037.00,51.549
1038.00,51.532
1039.00,51.471
1040.00,51.462
1041.00,51.439
1042.00,51.458
1043.00,51.403
1044.00,51.410
1045.00,51.423
1046.00,51.410
1047.00,51.406
1048.00,51.414
1049.00,51.423
1050.00,51.420
1051.00,51.443
1052.00,51.463
1053.00,51.482
1054.00,51.480
1055.00,51.484
1056.00,51.512
1057.00,51.505
1058.00,51.476
1059.00,51.477
1060.00,51.478
1061.00,51.468
1062.00,51.449
1063.00,51.467
1064.00,51.458
1065.00,51.450
1066.00,51.421
1067.00,51.451
1068.00,51.463
1069.00,51.417
1070.00,51.397
1071.00,51.374
1072.00,51.370
1073.00,51.370
1074.00,51.395
1075.00,51.396
1076.00,51.343
1077.00,51.333
1078.00,51.333
1079.00,51.316
1080.00,51.308
1081.00,51.305
1082.00,51.318
1083.00,51.284
1084.00,51.279
1085.00,51.283
1086.00,51.264
1087.00,51.255
1088.00,51.264
1089.00,51.250
1090.00,51.210
1091.00,51.220
1092.00,51.224
1093.00,51.179
1094.00,51.153
1095.00,51.169
1096.00,51.183
1097.00,51.137
1098.00,51.141
1099.00,51.139
1100.00,51.144
1101.00,51.104
1102.00,51.109
1103.00,51.127
1104.00,51.093
1105.00,51.064
1106.00,51.092
1107.00,51.085
1108.00,51.056
1109.00,51.033
1110.00,51.055
1111.00,51.046
1112.00,51.020
1113.00,51.038
1114.00,51.046
1115.00,51.017
1116.00,50.997
1117.00,51.006
1118.00,50.989
1119.00,50.964
1120.00,50.967
1121.00,50.958
1122.00,50.941
1123.00,50.918
1124.00,50.940
1125.00,50.925
1126.00,50.899
1127.00,50.905
1128.00,50.932
1129.00,50.929
1130.00,50.954
1131.00,50.909
1132.00,50.912
1133.00,50.906
1134.00,50.864
1135.00,50.854
1136.00,50.861
1137.00,50.823
1138.00,50.827
1139.00,50.859
1140.00,50.844
1141.00,50.823
1142.00,50.821
1143.00,50.831
1144.00,50.844
1145.00,50.834
1146.00,50.809
1147.00,50.810
1148.00,50.788
1149.00,50.799
1150.00,50.821
1151.00,50.808
1152.00,50.788
1153.00,50.780
1154.00,50.768
1155.00,50.770
1156.00,50.747
1157.00,50.768
1158.00,50.751
1159.00,50.743
1160.00,50.728
1161.00,50.759
1162.00,50.744
1163.00,50.739
1164.00,50.740
1165.00,50.739
1166.00,50.746
1167.00,50.734
1168.00,50.733
1169.00,50.738
1170.00,50.725
1171.00,50.718
1172.00,50.725
1173.00,50.715
1174.00,50.729
1175.00,50.721
1176.00,50.723
1177.00,50.725
1178.00,50.717
1179.00,50.720
1180.00,50.710
1181.00,50.704
1182.00,50.694
1183.00,50.721
1184.00,50.694
1185.00,50.700
1186.00,50.680
1187.00,50.703
1188.00,50.711
1189.00,50.690
1190.00,50.693
1191.00,50.714
1192.00,50.693
1193.00,50.664
1194.00,50.704
1195.00,50.680
1196.00,50.675
1197.00,50.683
1198.00,50.684
1199.00,50.674
1200.00,50.656
1201.00,50.682
1202.00,50.679
1203.00,50.649
1204.00,50.655
1205.00,50.697
1206.00,50.690
1207.00,50.652
1208.00,50.641
1209.00,50.671
1210.00,50.663
1211.00,50.649
1212.00,50.667
1213.00,50.657
1214.00,50.650
1215.00,50.620
1216.00,50.661
1217.00,50.645
1218.00,50.626
1219.00,50.633
1220.00,50.652
1221.00,50.671
1222.00,50.617
1223.00,50.662
1224.00,50.667
1225.00,50.630
1226.00,50.613
1227.00,50.646
1228.00,50.651
1229.00,50.656
1230.00,50.672
1231.00,50.684
1232.00,50.700
1233.00,50.667
1234.00,50.698
1235.00,50.703
1236.00,50.669
1237.00,50.659
1238.00,50.694
1239.00,50.706
1240.00,50.663
1241.00,50.684
1242.00,50.707
1243.00,50.709
1244.00,50.672
1245.00,50.715
1246.00,50.738
1247.00,50.685
1248.00,50.672
1249.00,50.723
1250.00,50.715
1251.00,50.691
1252.00,50.698
1253.00,50.723
1254.00,50.728
1255.00,50.712
1256.00,50.728
1257.00,50.706
1258.00,50.721
1259.00,50.707
1260.00,50.753
1261.00,50.734
1262.00,50.722
1263.00,50.745
1264.00,50.751
1265.00,50.760
1266.00,50.765
1267.00,50.775
1268.00,50.792
1269.00,50.760
1270.00,50.780
1271.00,50.791
1272.00,50.785
1273.00,50.765
1274.00,50.791
1275.00,50.805
1276.00,50.799
1277.00,50.788
1278.00,50.828
1279.00,50.834
1280.00,50.787
1281.00,50.828
1282.00,50.891
1283.00,50.841
1284.00,50.816
1285.00,50.815
1286.00,50.851
1287.00,50.829
1288.00,50.810
1289.00,50.829
1290.00,50.853
1291.00,50.825
1292.00,50.825
1293.00,50.873
1294.00,50.859
1295.00,50.855
1296.00,50.875
1297.00,50.902
1298.00,50.900
1299.00,50.861
1300.00,50.923
1301.00,50.918
1302.00,50.905
1303.00,50.920
1304.00,50.913
1305.00,50.918
1306.00,50.929
1307.00,50.940
1308.00,50.934
1309.00,50.925
1310.00,50.931
1311.00,50.966
1312.00,50.971
1313.00,50.939
1314.00,50.973
1315.00,50.986
1316.00,50.977
1317.00,50.980
1318.00,51.002
1319.00,51.011
1320.00,51.023
1321.00,51.154
1322.00,51.163
1323.00,51.140
1324.00,51.159
1325.00,51.160
1326.00,51.176
1327.00,51.137
1328.00,51.148
1329.00,51.135
1330.00,51.134
1331.00,51.129
1332.00,51.147
1333.00,51.150
1334.00,51.155
1335.00,51.186
1336.00,51.251
1337.00,51.256
1338.00,51.292
1339.00,51.363
1340.00,51.448
1341.00,51.484
1342.00,51.510
1343.00,51.570
1344.00,51.616
1345.00,51.659
1346.00,51.661
1347.00,51.665
1348.00,51.751
1349.00,51.735
1350.00,51.793
1351.00,51.813
1352.00,51.834
1353.00,51.812
1354.00,51.827
1355.00,51.840
1356.00,51.834
1357.00,51.846
1358.00,51.916
1359.00,51.861
1360.00,51.911
1361.00,52.185
1362.00,51.917
1363.00,51.786
1364.00,51.853
1365.00,51.879
1366.00,51.904
1367.00,51.860
1368.00,51.790
1369.00,51.898
1370.00,51.789
1371.00,51.563
1372.00,51.759
1373.00,51.839
1374.00,51.821
1375.00,51.821
1376.00,51.829
1377.00,51.807
1378.00,51.883
1379.00,51.855
1380.00,51.839
1381.00,51.817
1382.00,51.776
1383.00,51.835
1384.00,51.781
1385.00,51.756
1386.00,51.808
1387.00,51.748
1388.00,51.786
1389.00,51.788
1390.00,51.711
1391.00,51.912
1392.00,51.856
1393.00,51.851
1394.00,51.847
1395.00,51.854
1396.00,51.860
1397.00,51.794
1398.00,51.722
1399.00,51.883
1400.00,51.783
1401.00,51.819
1402.00,51.600
1403.00,51.880
1404.00,51.782
1405.00,51.848
1406.00,51.880
1407.00,52.074
1408.00,51.858
1409.00,51.892
1410.00,51.896
1411.00,51.846
1412.00,51.973
1413.00,51.931
1414.00,51.810
1415.00,51.889
1416.00,51.947
1417.00,52.019
1418.00,51.939
1419.00,51.886
1420.00,51.964
1421.00,52.046
1422.00,51.967
1423.00,51.945
1424.00,52.017
1425.00,52.035
1426.00,52.033
1427.00,52.048
1428.00,52.066
1429.00,52.093
1430.00,52.081
1431.00,52.060
1432.00,52.106
1433.00,52.087
1434.00,52.102
1435.00,52.178
1436.00,52.143
1437.00,52.186
1438.00,52.196
1439.00,52.247
1440.00,52.246
1441.00,52.216
1442.00,52.220
1443.00,52.291
1444.00,52.321
1445.00,52.224
1446.00,52.259
1447.00,52.327
1448.00,52.371
1449.00,52.384
1450.00,52.348
1451.00,52.396
1452.00,52.385
1453.00,52.399
1454.00,52.411
1455.00,52.423
1456.00,52.451
1457.00,52.478
1458.00,52.493
1459.00,52.478
1460.00,52.507
1461.00,52.557
1462.00,52.548
1463.00,52.553
1464.00,52.599
1465.00,52.579
1466.00,52.551
1467.00,52.587
1468.00,52.637
1469.00,52.627
1470.00,52.638
1471.00,52.675
1472.00,52.700
1473.00,52.697
1474.00,52.713
1475.00,52.716
1476.00,52.723
1477.00,52.695
1478.00,52.722
1479.00,52.761
1480.00,52.753
1481.00,52.761
1482.00,52.812
1483.00,52.832
1484.00,52.840
1485.00,52.838
1486.00,52.845
1487.00,52.864
1488.00,52.874
1489.00,52.871
1490.00,52.882
1491.00,52.910
1492.00,52.897
1493.00,52.912
1494.00,52.951
1495.00,52.967
1496.00,52.952
1497.00,52.973
1498.00,52.988
1499.00,52.978
1500.00,52.992
1501.00, 
1502.00, 
1503.00, 
1504.00, 
1505.00, 
1506.00, 
1507.00, 
1508.00, 
1509.00, 
1510.00, 
1511.00, 
1512.00, 
1513.00, 
1514.00, 
1515.00, 
1516.00, 
1517.00, 
1518.00, 
1519.00, 
1520.00, 
1521.00, 
1522.00, 
1523.00, 
1524.00, 
1525.00, 
1526.00, 
1527.00, 
1528.00, 
1529.00, 
1530.00, 
1531.00, 
1532.00, 
1533.00, 
1534.00, 
1535.00, 
1536.00, 
1537.00, 
1538.00, 
1539.00, 
1540.00, 
1541.00, 
1542.00, 
1543.00, 
1544.00, 
1545.00, 
1546.00, 
1547.00, 
1548.00, 
1549.00, 
1550.00, 
1551.00, 
1552.00, 
1553.00, 
1554.00, 
1555.00, 
1556.00, 
1557.00, 
1558.00, 
1559.00, 
1560.00, 
1561.00, 
1562.00, 
1563.00, 
1564.00, 
1565.00, 
1566.00, 
1567.00, 
1568.00, 
1569.00, 
1570.00, 
1571.00, 
1572.00, 
1573.00, 
1574.00, 
1575.00, 
1576.00, 
1577.00, 
1578.00, 
1579.00, 
1580.00, 
1581.00, 
1582.00, 
1583.00, 
1584.00, 
1585.00, 
1586.00, 
1587.00, 
1588.00, 
1589.00, 
1590.00, 
1591.00, 
1592.00, 
1593.00, 
1594.00, 
1595.00, 
1596.00, 
1597.00, 
1598.00, 
1599.00, 
1600.00, 
1601.00, 
1602.00, 
1603.00, 
1604.00, 
1605.00, 
1606.00, 
1607.00, 
1608.00, 
1609.00, 
1610.00, 
1611.00, 
1612.00, 
1613.00, 
1614.00, 
1615.00, 
1616.00, 
1617.00, 
1618.00, 
1619.00, 
1620.00, 
1621.00, 
1622.00, 
1623.00, 
1624.00, 
1625.00, 
1626.00, 
1627.00, 
1628.00, 
1629.00, 
1630.00, 
1631.00, 
1632.00, 
1633.00, 
1634.00, 
1635.00, 
1636.00, 
1637.00, 
1638.00, 
1639.00, 
1640.00, 
1641.00, 
1642.00, 
1643.00, 
1644.00, 
1645.00, 
1646.00, 
1647.00, 
1648.00, 
1649.00, 
1650.00, 
1651.00, 
1652.00, 
1653.00, 
1654.00, 
1655.00, 
1656.00, 
1657.00, 
1658.00, 
1659.00, 
1660.00, 
1661.00, 
1662.00, 
1663.00, 
1664.00, 
1665.00, 
1666.00, 
1667.00, 
1668.00, 
1669.00, 
1670.00, 
1671.00, 
1672.00, 
1673.00, 
1674.00, 
1675.00, 
1676.00, 
1677.00, 
1678.00, 
1679.00, 
1680.00, 
1681.00, 
1682.00, 
1683.00, 
1684.00, 
1685.00, 
1686.00, 
1687.00, 
1688.00, 
1689.00, 
1690.00, 
1691.00, 
1692.00, 
1693.00, 
1694.00, 
1695.00, 
1696.00, 
1697.00, 
1698.00, 
1699.00, 
1700.00, 
1701.00, 
1702.00, 
1703.00, 
1704.00, 
1705.00, 
1706.00, 
1707.00, 
1708.00, 
1709.00, 
1710.00, 
1711.00, 
1712.00, 
1713.00, 
1714.00, 
1715.00, 
1716.00, 
1717.00, 
1718.00, 
1719.00, 
1720.00, 
1721.00, 
1722.00, 
1723.00, 
1724.00, 
1725.00, 
1726.00, 
1727.00, 
1728.00, 
1729.00, 
1730.00, 
1731.00, 
1732.00, 
1733.00, 
1734.00, 
1735.00, 
1736.00, 
1737.00, 
1738.00, 
1739.00, 
1740.00, 
1741.00, 
1742.00, 
1743.00, 
1744.00, 
1745.00, 
1746.00, 
1747.00, 
1748.00, 
1749.00, 
1750.00, 
1751.00, 
1752.00, 
1753.00, 
1754.00, 
1755.00, 
1756.00, 
1757.00, 
1758.00, 
1759.00, 
1760.00, 
1761.00, 
1762.00, 
1763.00, 
1764.00, 
1765.00, 
1766.00, 
1767.00, 
1768.00, 
1769.00, 
1770.00, 
1771.00, 
1772.00, 
1773.00, 
1774.00, 
1775.00, 
1776.00, 
1777.00, 
1778.00, 
1779.00, 
1780.00, 
1781.00, 
1782.00, 
1783.00, 
1784.00, 
1785.00, 
1786.00, 
1787.00, 
1788.00, 
1789.00, 
1790.00, 
1791.00, 
1792.00, 
1793.00, 
1794.00, 
1795.00, 
1796.00, 
1797.00, 
1798.00, 
1799.00, 
1800.00, 
1801.00, 
1802.00, 
1803.00, 
1804.00, 
1805.00, 
1806.00, 
1807.00, 
1808.00, 
1809.00, 
1810.00, 
1811.00, 
1812.00, 
1813.00, 
1814.00, 
1815.00, 
1816.00, 
1817.00, 
1818.00, 
1819.00, 
1820.00, 
1821.00, 
1822.00, 
1823.00, 
1824.00, 
1825.00, 
1826.00, 
1827.00, 
1828.00, 
1829.00, 
1830.00, 
1831.00, 
1832.00, 
1833.00, 
1834.00, 
1835.00, 
1836.00, 
1837.00, 
1838.00, 
1839.00, 
1840.00, 
1841.00, 
1842.00, 
1843.00, 
1844.00, 
1845.00, 
1846.00, 
1847.00, 
1848.00, 
1849.00, 
1850.00, 
1851.00, 
1852.00, 
1853.00, 
1854.00, 
1855.00, 
1856.00, 
1857.00, 
1858.00, 
1859.00, 
1860.00, 
1861.00, 
1862.00, 
1863.00, 
1864.00, 
1865.00, 
1866.00, 
1867.00, 
1868.00, 
1869.00, 
1870.00, 
1871.00, 
1872.00, 
1873.00, 
1874.00, 
1875.00, 
1876.00, 
1877.00, 
1878.00, 
1879.00, 
1880.00, 
1881.00, 
1882.00, 
1883.00, 
1884.00, 
1885.00, 
1886.00, 
1887.00, 
1888.00, 
1889.00, 
1890.00, 
1891.00, 
1892.00, 
1893.00, 
1894.00, 
1895.00, 
1896.00, 
1897.00, 
1898.00, 
1899.00, 
1900.00, 
1901.00, 
1902.00, 
1903.00, 
1904.00, 
1905.00, 
1906.00, 
1907.00, 
1908.00, 
1909.00, 
1910.00, 
1911.00, 
1912.00, 
1913.00, 
1914.00, 
1915.00, 
1916.00, 
1917.00, 
1918.00, 
1919.00, 
1920.00, 
1921.00, 
1922.00, 
1923.00, 
1924.00, 
1925.00, 
1926.00, 
1927.00, 
1928.00, 
1929.00, 
1930.00, 
1931.00, 
1932.00, 
1933.00, 
1934.00, 
1935.00, 
1936.00, 
1937.00, 
1938.00, 
1939.00, 
1940.00, 
1941.00, 
1942.00, 
1943.00, 
1944.00, 
1945.00, 
1946.00, 
1947.00, 
1948.00, 
1949.00, 
1950.00, 
1951.00, 
1952.00, 
1953.00, 
1954.00, 
1955.00, 
1956.00, 
1957.00, 
1958.00, 
1959.00, 
1960.00, 
1961.00, 
1962.00, 
1963.00, 
1964.00, 
1965.00, 
1966.00, 
1967.00, 
1968.00, 
1969.00, 
1970.00, 
1971.00, 
1972.00, 
1973.00, 
1974.00, 
1975.00, 
1976.00, 
1977.00, 
1978.00, 
1979.00, 
1980.00, 
1981.00, 
1982.00, 
1983.00, 
1984.00, 
1985.00, 
1986.00, 
1987.00, 
1988.00, 
1989.00, 
1990.00, 
1991.00, 
1992.00, 
1993.00, 
1994.00, 
1995.00, 
1996.00, 
1997.00, 
1998.00, 
1999.00, 
2000.00, 
2001.00, 
2002.00, 
2003.00, 
2004.00, 
2005.00, 
2006.00, 
2007.00, 
2008.00, 
2009.00, 
2010.00, 
2011.00, 
2012.00, 
2013.00, 
2014.00, 
2015.00, 
2016.00, 
2017.00, 
2018.00, 
2019.00, 
2020.00, 
2021.00, 
2022.00, 
2023.00, 
2024.00, 
2025.00, 
2026.00, 
2027.00, 
2028.00, 
2029.00, 
2030.00, 
2031.00, 
2032.00, 
2033.00, 
2034.00, 
2035.00, 
2036.00, 
2037.00, 
2038.00, 
2039.00, 
2040.00, 
2041.00, 
2042.00, 
2043.00, 
2044.00, 
2045.00, 
2046.00, 
2047.00, 
2048.00, 
2049.00, 
2050.00, 
2051.00, 
2052.00, 
2053.00, 
2054.00, 
2055.00, 
2056.00, 
2057.00, 
2058.00, 
2059.00, 
2060.00, 
2061.00, 
2062.00, 
2063.00, 
2064.00, 
2065.00, 
2066.00, 
2067.00, 
2068.00, 
2069.00, 
2070.00, 
2071.00, 
2072.00, 
2073.00, 
2074.00, 
2075.00, 
2076.00, 
2077.00, 
2078.00, 
2079.00, 
2080.00, 
2081.00, 
2082.00, 
2083.00, 
2084.00, 
2085.00, 
2086.00, 
2087.00, 
2088.00, 
2089.00, 
2090.00, 
2091.00, 
2092.00, 
2093.00, 
2094.00, 
2095.00, 
2096.00, 
2097.00, 
2098.00, 
2099.00, 
2100.00, 
2101.00, 
2102.00, 
2103.00, 
2104.00, 
2105.00, 
2106.00, 
2107.00, 
2108.00, 
2109.00, 
2110.00, 
2111.00, 
2112.00, 
2113.00, 
2114.00, 
2115.00, 
2116.00, 
2117.00, 
2118.00, 
2119.00, 
2120.00, 
2121.00, 
2122.00, 
2123.00, 
2124.00, 
2125.00, 
2126.00, 
2127.00, 
2128.00, 
2129.00, 
2130.00, 
2131.00, 
2132.00, 
2133.00, 
2134.00, 
2135.00, 
2136.00, 
2137.00, 
2138.00, 
2139.00, 
2140.00, 
2141.00, 
2142.00, 
2143.00, 
2144.00, 
2145.00, 
2146.00, 
2147.00, 
2148.00, 
2149.00, 
2150.00, 
2151.00, 
2152.00, 
2153.00, 
2154.00, 
2155.00, 
2156.00, 
2157.00, 
2158.00, 
2159.00, 
2160.00, 
2161.00, 
2162.00, 
2163.00, 
2164.00, 
2165.00, 
2166.00, 
2167.00, 
2168.00, 
2169.00, 
2170.00, 
2171.00, 
2172.00, 
2173.00, 
2174.00, 
2175.00, 
2176.00, 
2177.00, 
2178.00, 
2179.00, 
2180.00, 
2181.00, 
2182.00, 
2183.00, 
2184.00, 
2185.00, 
2186.00, 
2187.00, 
2188.00, 
2189.00, 
2190.00, 
2191.00, 
2192.00, 
2193.00, 
2194.00, 
2195.00, 
2196.00, 
2197.00, 
2198.00, 
2199.00, 
2200.00, 
2201.00, 
2202.00, 
2203.00, 
2204.00, 
2205.00, 
2206.00, 
2207.00, 
2208.00, 
2209.00, 
2210.00, 
2211.00, 
2212.00, 
2213.00, 
2214.00, 
2215.00, 
2216.00, 
2217.00, 
2218.00, 
2219.00, 
2220.00, 
2221.00, 
2222.00, 
2223.00, 
2224.00, 
2225.00, 
2226.00, 
2227.00, 
2228.00, 
2229.00, 
2230.00, 
2231.00, 
2232.00, 
2233.00, 
2234.00, 
2235.00, 
2236.00, 
2237.00, 
2238.00, 
2239.00, 
2240.00, 
2241.00, 
2242.00, 
2243.00, 
2244.00, 
2245.00, 
2246.00, 
2247.00, 
2248.00, 
2249.00, 
2250.00, 
2251.00, 
2252.00, 
2253.00, 
2254.00, 
2255.00, 
2256.00, 
2257.00, 
2258.00, 
2259.00, 
2260.00, 
2261.00, 
2262.00, 
2263.00, 
2264.00, 
2265.00, 
2266.00, 
2267.00, 
2268.00, 
2269.00, 
2270.00, 
2271.00, 
2272.00, 
2273.00, 
2274.00, 
2275.00, 
2276.00, 
2277.00, 
2278.00, 
2279.00, 
2280.00, 
2281.00, 
2282.00, 
2283.00, 
2284.00, 
2285.00, 
2286.00, 
2287.00, 
2288.00, 
2289.00, 
2290.00, 
2291.00, 
2292.00, 
2293.00, 
2294.00, 
2295.00, 
2296.00, 
2297.00, 
2298.00, 
2299.00, 
2300.00, 
2301.00, 
2302.00, 
2303.00, 
2304.00, 
2305.00, 
2306.00, 
2307.00, 
2308.00, 
2309.00, 
2310.00, 
2311.00, 
2312.00, 
2313.00, 
2314.00, 
2315.00, 
2316.00, 
2317.00, 
2318.00, 
2319.00, 
2320.00, 
2321.00, 
2322.00, 
2323.00, 
2324.00, 
2325.00, 
2326.00, 
2327.00, 
2328.00, 
2329.00, 
2330.00, 
2331.00, 
2332.00, 
2333.00, 
2334.00, 
2335.00, 
2336.00, 
2337.00, 
2338.00, 
2339.00, 
2340.00, 
2341.00, 
2342.00, 
2343.00, 
2344.00, 
2345.00, 
2346.00, 
2347.00, 
2348.00, 
2349.00, 
2350.00, 
2351.00, 
2352.00, 
2353.00, 
2354.00, 
2355.00, 
2356.00, 
2357.00, 
2358.00, 
2359.00, 
2360.00, 
2361.00, 
2362.00, 
2363.00, 
2364.00, 
2365.00, 
2366.00, 
2367.00, 
2368.00, 
2369.00, 
2370.00, 
2371.00, 
2372.00, 
2373.00, 
2374.00, 
2375.00, 
2376.00, 
2377.00, 
2378.00, 
2379.00, 
2380.00, 
2381.00, 
2382.00, 
2383.00, 
2384.00, 
2385.00, 
2386.00, 
2387.00, 
2388.00, 
2389.00, 
2390.00, 
2391.00, 
2392.00, 
2393.00, 
2394.00, 
2395.00, 
2396.00, 
2397.00, 
2398.00, 
2399.00, 
2400.00, 
2401.00, 
2402.00, 
2403.00, 
2404.00, 
2405.00, 
2406.00, 
2407.00, 
2408.00, 
2409.00, 
2410.00, 
2411.00, 
2412.00, 
2413.00, 
2414.00, 
2415.00, 
2416.00, 
2417.00, 
2418.00, 
2419.00, 
2420.00, 
2421.00, 
2422.00, 
2423.00, 
2424.00, 
2425.00, 
2426.00, 
2427.00, 
2428.00, 
2429.00, 
2430.00, 
2431.00, 
2432.00, 
2433.00, 
2434.00, 
2435.00, 
2436.00, 
2437.00, 
2438.00, 
2439.00, 
2440.00, 
2441.00, 
2442.00, 
2443.00, 
2444.00, 
2445.00, 
2446.00, 
2447.00, 
2448.00, 
2449.00, 
2450.00, 
2451.00, 
2452.00, 
2453.00, 
2454.00, 
2455.00, 
2456.00, 
2457.00, 
2458.00, 
2459.00, 
2460.00, 
2461.00, 
2462.00, 
2463.00, 
2464.00, 
2465.00, 
2466.00, 
2467.00, 
2468.00, 
2469.00, 
2470.00, 
2471.00, 
2472.00, 
2473.00, 
2474.00, 
2475.00, 
2476.00, 
2477.00, 
2478.00, 
2479.00, 
2480.00, 
2481.00, 
2482.00, 
2483.00, 
2484.00, 
2485.00, 
2486.00, 
2487.00, 
2488.00, 
2489.00, 
2490.00, 
2491.00, 
2492.00, 
2493.00, 
2494.00, 
2495.00, 
2496.00, 
2497.00, 
2498.00, 
2499.00, 
2500.00, 
2501.00, 
2502.00, 
2503.00, 
2504.00, 
2505.00, 
2506.00, 
2507.00, 
2508.00, 
2509.00, 
2510.00, 
2511.00, 
2512.00, 
2513.00, 
2514.00, 
2515.00, 
2516.00, 
2517.00, 
2518.00, 
2519.00, 
2520.00, 
2521.00, 
2522.00, 
2523.00, 
2524.00, 
2525.00, 
2526.00, 
2527.00, 
2528.00, 
2529.00, 
2530.00, 
2531.00, 
2532.00, 
2533.00, 
2534.00, 
2535.00, 
2536.00, 
2537.00, 
2538.00, 
2539.00, 
2540.00, 
2541.00, 
2542.00, 
2543.00, 
2544.00, 
2545.00, 
2546.00, 
2547.00, 
2548.00, 
2549.00, 
2550.00, 
2551.00, 
2552.00, 
2553.00, 
2554.00, 
2555.00, 
2556.00, 
2557.00, 
2558.00, 
2559.00, 
2560.00, 
2561.00, 
2562.00, 
2563.00, 
2564.00, 
2565.00, 
2566.00, 
2567.00, 
2568.00, 
2569.00, 
2570.00, 
2571.00, 
2572.00, 
2573.00, 
2574.00, 
2575.00, 
2576.00, 
2577.00, 
2578.00, 
2579.00, 
2580.00, 
2581.00, 
2582.00, 
2583.00, 
2584.00, 
2585.00, 
2586.00, 
2587.00, 
2588.00, 
2589.00, 
2590.00, 
2591.00, 
2592.00, 
2593.00, 
2594.00, 
2595.00, 
2596.00, 
2597.00, 
2598.00, 
2599.00, 
2600.00, 
