"1cP3 - RawData"
"Wavelength nm.","T%"
200.00,-0.001
201.00,0.001
202.00,0.005
203.00,0.002
204.00,0.002
205.00,-0.000
206.00,-0.000
207.00,-0.001
208.00,0.002
209.00,0.002
210.00,0.003
211.00,0.001
212.00,-0.001
213.00,0.003
214.00,-0.001
215.00,0.001
216.00,-0.000
217.00,0.001
218.00,-0.001
219.00,0.001
220.00,-0.000
221.00,0.001
222.00,0.000
223.00,0.003
224.00,0.000
225.00,0.000
226.00,-0.002
227.00,0.000
228.00,0.001
229.00,0.000
230.00,0.001
231.00,-0.001
232.00,0.001
233.00,-0.000
234.00,0.002
235.00,0.002
236.00,-0.000
237.00,0.003
238.00,0.002
239.00,-0.000
240.00,0.000
241.00,0.000
242.00,-0.001
243.00,0.002
244.00,0.000
245.00,-0.001
246.00,-0.002
247.00,0.000
248.00,-0.001
249.00,-0.001
250.00,-0.001
251.00,0.000
252.00,0.002
253.00,0.000
254.00,0.001
255.00,0.002
256.00,0.001
257.00,0.001
258.00,-0.000
259.00,0.000
260.00,0.001
261.00,-0.001
262.00,-0.001
263.00,0.001
264.00,0.002
265.00,0.000
266.00,-0.002
267.00,-0.001
268.00,-0.001
269.00,-0.000
270.00,-0.000
271.00,-0.001
272.00,-0.000
273.00,0.001
274.00,-0.001
275.00,-0.002
276.00,-0.000
277.00,0.000
278.00,0.000
279.00,0.000
280.00,-0.000
281.00,0.002
282.00,0.001
283.00,-0.001
284.00,0.000
285.00,0.000
286.00,0.000
287.00,0.002
288.00,-0.003
289.00,0.002
290.00,0.000
291.00,0.001
292.00,0.001
293.00,-0.000
294.00,0.001
295.00,-0.000
296.00,-0.000
297.00,-0.001
298.00,0.000
299.00,-0.001
300.00,0.002
301.00,-0.002
302.00,0.003
303.00,0.001
304.00,0.001
305.00,0.001
306.00,0.003
307.00,0.004
308.00,0.006
309.00,0.011
310.00,0.019
311.00,0.029
312.00,0.044
313.00,0.069
314.00,0.104
315.00,0.153
316.00,0.221
317.00,0.313
318.00,0.429
319.00,0.569
320.00,0.761
321.00,0.996
322.00,1.276
323.00,1.610
324.00,2.008
325.00,2.417
326.00,2.872
327.00,3.410
328.00,3.978
329.00,4.587
330.00,5.260
331.00,5.944
332.00,6.687
333.00,7.490
334.00,8.285
335.00,8.997
336.00,9.934
337.00,10.794
338.00,11.643
339.00,12.424
340.00,13.274
341.00,14.033
342.00,14.823
343.00,15.601
344.00,16.330
345.00,17.091
346.00,17.726
347.00,18.374
348.00,18.972
349.00,19.553
350.00,20.075
351.00,20.588
352.00,21.071
353.00,21.516
354.00,21.981
355.00,22.413
356.00,22.767
357.00,23.113
358.00,23.455
359.00,23.840
360.00,24.191
361.00,24.331
362.00,24.611
363.00,24.905
364.00,24.970
365.00,25.150
366.00,25.351
367.00,25.437
368.00,25.524
369.00,25.648
370.00,25.829
371.00,25.773
372.00,25.733
373.00,25.742
374.00,25.793
375.00,25.769
376.00,25.695
377.00,25.581
378.00,25.515
379.00,25.416
380.00,25.382
381.00,25.408
382.00,25.379
383.00,25.476
384.00,25.526
385.00,25.626
386.00,25.665
387.00,25.826
388.00,25.946
389.00,25.942
390.00,26.062
391.00,26.125
392.00,26.184
393.00,26.174
394.00,26.263
395.00,26.331
396.00,26.291
397.00,26.363
398.00,26.356
399.00,26.391
400.00,26.418
401.00,26.373
402.00,26.408
403.00,26.368
404.00,26.334
405.00,26.340
406.00,26.342
407.00,26.340
408.00,26.312
409.00,26.235
410.00,26.167
411.00,26.172
412.00,26.120
413.00,26.159
414.00,26.115
415.00,26.122
416.00,26.151
417.00,26.146
418.00,26.150
419.00,26.272
420.00,26.316
421.00,26.281
422.00,26.300
423.00,26.347
424.00,26.390
425.00,26.418
426.00,26.451
427.00,26.440
428.00,26.432
429.00,26.522
430.00,26.517
431.00,26.634
432.00,26.633
433.00,26.699
434.00,26.758
435.00,26.775
436.00,26.862
437.00,26.897
438.00,26.972
439.00,27.014
440.00,27.074
441.00,27.138
442.00,27.220
443.00,27.288
444.00,27.407
445.00,27.457
446.00,27.588
447.00,27.711
448.00,27.723
449.00,27.806
450.00,27.892
451.00,27.972
452.00,28.076
453.00,28.200
454.00,28.270
455.00,28.344
456.00,28.483
457.00,28.615
458.00,28.673
459.00,28.821
460.00,28.945
461.00,29.062
462.00,29.178
463.00,29.307
464.00,29.422
465.00,29.520
466.00,29.630
467.00,29.782
468.00,29.823
469.00,29.940
470.00,30.008
471.00,30.079
472.00,30.243
473.00,30.297
474.00,30.378
475.00,30.514
476.00,30.599
477.00,30.702
478.00,30.847
479.00,30.993
480.00,31.129
481.00,31.235
482.00,31.356
483.00,31.507
484.00,31.638
485.00,31.764
486.00,31.889
487.00,32.085
488.00,32.219
489.00,32.311
490.00,32.511
491.00,32.546
492.00,32.872
493.00,32.994
494.00,32.936
495.00,33.088
496.00,33.179
497.00,33.283
498.00,33.457
499.00,33.583
500.00,33.666
501.00,33.813
502.00,33.898
503.00,34.021
504.00,34.076
505.00,34.242
506.00,34.365
507.00,34.404
508.00,34.516
509.00,34.707
510.00,34.810
511.00,34.815
512.00,35.070
513.00,35.236
514.00,35.211
515.00,35.419
516.00,35.523
517.00,35.480
518.00,35.736
519.00,35.810
520.00,35.883
521.00,36.007
522.00,36.105
523.00,36.108
524.00,36.242
525.00,36.360
526.00,36.450
527.00,36.495
528.00,36.554
529.00,36.803
530.00,36.933
531.00,36.994
532.00,37.062
533.00,37.163
534.00,37.239
535.00,37.349
536.00,37.406
537.00,37.499
538.00,37.549
539.00,37.641
540.00,37.668
541.00,37.682
542.00,37.702
543.00,37.849
544.00,37.877
545.00,38.045
546.00,38.043
547.00,38.202
548.00,38.323
549.00,38.315
550.00,38.406
551.00,38.585
552.00,38.632
553.00,38.678
554.00,38.740
555.00,38.768
556.00,38.870
557.00,38.891
558.00,38.958
559.00,39.055
560.00,39.121
561.00,39.195
562.00,39.258
563.00,39.267
564.00,39.324
565.00,39.325
566.00,39.406
567.00,39.407
568.00,39.458
569.00,39.584
570.00,39.519
571.00,39.658
572.00,39.711
573.00,39.563
574.00,39.675
575.00,39.770
576.00,39.680
577.00,39.802
578.00,39.920
579.00,39.949
580.00,39.976
581.00,40.195
582.00,40.273
583.00,40.222
584.00,40.346
585.00,40.406
586.00,40.441
587.00,40.497
588.00,40.516
589.00,40.492
590.00,40.599
591.00,40.618
592.00,40.596
593.00,40.652
594.00,40.776
595.00,40.872
596.00,40.921
597.00,40.977
598.00,41.045
599.00,40.974
600.00,41.034
601.00,41.070
602.00,41.092
603.00,41.167
604.00,41.218
605.00,41.301
606.00,41.288
607.00,41.325
608.00,41.518
609.00,41.560
610.00,41.424
611.00,41.471
612.00,41.470
613.00,41.594
614.00,41.589
615.00,41.639
616.00,41.784
617.00,41.760
618.00,41.733
619.00,41.867
620.00,41.890
621.00,41.931
622.00,42.009
623.00,42.023
624.00,42.101
625.00,42.186
626.00,42.215
627.00,42.267
628.00,42.274
629.00,42.342
630.00,42.347
631.00,42.412
632.00,42.512
633.00,42.595
634.00,42.679
635.00,42.775
636.00,42.739
637.00,42.774
638.00,42.796
639.00,42.933
640.00,42.979
641.00,43.022
642.00,43.056
643.00,43.155
644.00,43.174
645.00,43.227
646.00,43.371
647.00,43.412
648.00,43.478
649.00,43.520
650.00,43.527
651.00,43.714
652.00,43.702
653.00,43.685
654.00,43.795
655.00,44.005
656.00,44.208
657.00,43.847
658.00,44.080
659.00,44.274
660.00,44.179
661.00,44.108
662.00,44.252
663.00,44.430
664.00,44.963
665.00,44.863
666.00,44.621
667.00,44.714
668.00,44.768
669.00,44.970
670.00,45.260
671.00,45.110
672.00,45.121
673.00,45.109
674.00,45.248
675.00,45.379
676.00,45.558
677.00,45.681
678.00,45.422
679.00,45.560
680.00,45.695
681.00,45.804
682.00,45.771
683.00,45.833
684.00,46.025
685.00,46.089
686.00,45.920
687.00,46.084
688.00,46.061
689.00,46.045
690.00,46.426
691.00,46.642
692.00,46.328
693.00,46.383
694.00,46.454
695.00,46.644
696.00,46.703
697.00,46.599
698.00,46.825
699.00,47.044
700.00,46.889
701.00,46.967
702.00,46.989
703.00,47.223
704.00,47.250
705.00,47.275
706.00,47.416
707.00,47.069
708.00,47.409
709.00,47.937
710.00,47.529
711.00,47.436
712.00,47.532
713.00,47.661
714.00,47.696
715.00,47.724
716.00,47.661
717.00,47.852
718.00,47.845
719.00,47.775
720.00,47.898
721.00,52.531
722.00,52.592
723.00,52.599
724.00,52.518
725.00,52.629
726.00,52.536
727.00,52.528
728.00,52.552
729.00,52.636
730.00,52.620
731.00,52.669
732.00,52.582
733.00,52.591
734.00,52.703
735.00,52.612
736.00,52.695
737.00,52.658
738.00,52.766
739.00,52.741
740.00,52.775
741.00,52.737
742.00,52.786
743.00,52.777
744.00,52.724
745.00,52.770
746.00,52.746
747.00,52.743
748.00,52.718
749.00,52.672
750.00,52.676
751.00,52.680
752.00,52.683
753.00,52.787
754.00,52.672
755.00,52.720
756.00,52.686
757.00,52.661
758.00,52.730
759.00,52.687
760.00,52.720
761.00,52.632
762.00,52.672
763.00,52.670
764.00,52.653
765.00,52.688
766.00,52.605
767.00,52.684
768.00,52.596
769.00,52.656
770.00,52.666
771.00,52.610
772.00,52.683
773.00,52.679
774.00,52.785
775.00,52.686
776.00,52.644
777.00,52.675
778.00,52.558
779.00,52.731
780.00,52.556
781.00,52.595
782.00,52.632
783.00,52.511
784.00,52.548
785.00,52.492
786.00,52.599
787.00,52.586
788.00,52.538
789.00,52.482
790.00,52.442
791.00,52.505
792.00,52.475
793.00,52.492
794.00,52.372
795.00,52.388
796.00,52.442
797.00,52.384
798.00,52.339
799.00,52.223
800.00,52.268
801.00,52.209
802.00,52.284
803.00,52.168
804.00,52.178
805.00,52.245
806.00,52.227
807.00,52.169
808.00,52.193
809.00,52.123
810.00,52.077
811.00,52.116
812.00,52.075
813.00,52.044
814.00,52.062
815.00,52.022
816.00,52.036
817.00,51.961
818.00,51.918
819.00,51.915
820.00,51.823
821.00,51.906
822.00,51.917
823.00,51.821
824.00,51.924
825.00,51.838
826.00,51.781
827.00,51.817
828.00,51.848
829.00,51.881
830.00,51.663
831.00,54.144
832.00,54.134
833.00,54.082
834.00,54.055
835.00,54.044
836.00,54.049
837.00,53.979
838.00,54.011
839.00,54.004
840.00,53.913
841.00,53.949
842.00,53.947
843.00,53.929
844.00,53.793
845.00,53.819
846.00,53.844
847.00,53.783
848.00,53.817
849.00,53.708
850.00,53.707
851.00,53.655
852.00,53.656
853.00,53.575
854.00,53.565
855.00,53.520
856.00,53.537
857.00,53.461
858.00,53.485
859.00,53.424
860.00,53.430
861.00,53.420
862.00,53.374
863.00,53.366
864.00,53.355
865.00,53.333
866.00,53.436
867.00,53.315
868.00,53.263
869.00,53.250
870.00,53.294
871.00,53.256
872.00,53.228
873.00,53.228
874.00,53.232
875.00,53.192
876.00,53.194
877.00,53.162
878.00,53.182
879.00,53.111
880.00,53.124
881.00,53.120
882.00,53.124
883.00,53.084
884.00,53.048
885.00,53.031
886.00,53.004
887.00,53.014
888.00,52.975
889.00,52.935
890.00,52.943
891.00,52.922
892.00,52.859
893.00,52.863
894.00,52.875
895.00,52.790
896.00,52.761
897.00,52.776
898.00,52.765
899.00,52.763
900.00,52.709
901.00,52.706
902.00,52.698
903.00,52.659
904.00,52.633
905.00,52.623
906.00,52.639
907.00,52.625
908.00,52.559
909.00,52.515
910.00,52.585
911.00,52.495
912.00,52.472
913.00,52.460
914.00,52.439
915.00,52.425
916.00,52.398
917.00,52.374
918.00,52.410
919.00,52.313
920.00,52.379
921.00,52.303
922.00,52.276
923.00,52.247
924.00,52.230
925.00,52.233
926.00,52.188
927.00,52.177
928.00,52.152
929.00,52.167
930.00,52.123
931.00,52.097
932.00,52.072
933.00,52.074
934.00,51.927
935.00,52.020
936.00,52.014
937.00,51.965
938.00,51.974
939.00,51.945
940.00,51.919
941.00,51.916
942.00,51.897
943.00,51.896
944.00,51.813
945.00,51.819
946.00,51.826
947.00,51.779
948.00,51.758
949.00,51.745
950.00,51.715
951.00,51.672
952.00,51.718
953.00,51.633
954.00,51.628
955.00,51.553
956.00,51.557
957.00,51.533
958.00,51.527
959.00,51.485
960.00,51.477
961.00,51.464
962.00,51.476
963.00,51.426
964.00,51.422
965.00,51.422
966.00,51.380
967.00,51.413
968.00,51.358
969.00,51.393
970.00,51.365
971.00,51.368
972.00,51.318
973.00,51.371
974.00,51.372
975.00,51.336
976.00,51.365
977.00,51.342
978.00,51.384
979.00,51.344
980.00,51.351
981.00,51.358
982.00,51.335
983.00,51.353
984.00,51.324
985.00,51.337
986.00,51.291
987.00,51.305
988.00,51.265
989.00,51.270
990.00,51.274
991.00,51.238
992.00,51.269
993.00,51.243
994.00,51.221
995.00,51.203
996.00,51.192
997.00,51.187
998.00,51.165
999.00,51.173
1000.00,51.140
1001.00,51.125
1002.00,51.118
1003.00,51.119
1004.00,51.094
1005.00,51.039
1006.00,51.094
1007.00,51.051
1008.00,51.036
1009.00,51.017
1010.00,51.024
1011.00,50.992
1012.00,50.961
1013.00,50.995
1014.00,50.946
1015.00,50.961
1016.00,50.914
1017.00,50.912
1018.00,50.892
1019.00,50.856
1020.00,50.863
1021.00,50.822
1022.00,50.834
1023.00,50.795
1024.00,50.789
1025.00,50.786
1026.00,50.768
1027.00,50.739
1028.00,50.768
1029.00,50.721
1030.00,50.683
1031.00,50.702
1032.00,50.650
1033.00,50.667
1034.00,50.641
1035.00,50.592
1036.00,50.584
1037.00,50.573
1038.00,50.541
1039.00,50.524
1040.00,50.512
1041.00,50.485
1042.00,50.486
1043.00,50.465
1044.00,50.496
1045.00,50.475
1046.00,50.451
1047.00,50.492
1048.00,50.497
1049.00,50.487
1050.00,50.500
1051.00,50.530
1052.00,50.528
1053.00,50.539
1054.00,50.536
1055.00,50.570
1056.00,50.574
1057.00,50.565
1058.00,50.558
1059.00,50.563
1060.00,50.576
1061.00,50.561
1062.00,50.539
1063.00,50.549
1064.00,50.561
1065.00,50.535
1066.00,50.525
1067.00,50.530
1068.00,50.550
1069.00,50.505
1070.00,50.490
1071.00,50.472
1072.00,50.506
1073.00,50.467
1074.00,50.473
1075.00,50.463
1076.00,50.451
1077.00,50.431
1078.00,50.413
1079.00,50.400
1080.00,50.405
1081.00,50.393
1082.00,50.378
1083.00,50.379
1084.00,50.370
1085.00,50.373
1086.00,50.363
1087.00,50.345
1088.00,50.350
1089.00,50.357
1090.00,50.326
1091.00,50.334
1092.00,50.321
1093.00,50.302
1094.00,50.308
1095.00,50.279
1096.00,50.267
1097.00,50.276
1098.00,50.269
1099.00,50.260
1100.00,50.243
1101.00,50.226
1102.00,50.222
1103.00,50.232
1104.00,50.221
1105.00,50.206
1106.00,50.190
1107.00,50.208
1108.00,50.201
1109.00,50.183
1110.00,50.174
1111.00,50.168
1112.00,50.148
1113.00,50.144
1114.00,50.135
1115.00,50.127
1116.00,50.127
1117.00,50.101
1118.00,50.095
1119.00,50.121
1120.00,50.095
1121.00,50.107
1122.00,50.092
1123.00,50.070
1124.00,50.063
1125.00,50.065
1126.00,50.042
1127.00,50.049
1128.00,50.024
1129.00,50.012
1130.00,50.004
1131.00,50.001
1132.00,50.025
1133.00,50.022
1134.00,49.981
1135.00,50.042
1136.00,49.981
1137.00,49.970
1138.00,49.967
1139.00,49.957
1140.00,49.965
1141.00,49.978
1142.00,49.950
1143.00,49.962
1144.00,49.947
1145.00,49.934
1146.00,49.946
1147.00,49.936
1148.00,49.935
1149.00,49.993
1150.00,49.962
1151.00,49.944
1152.00,49.946
1153.00,49.926
1154.00,49.931
1155.00,49.938
1156.00,49.907
1157.00,49.905
1158.00,49.897
1159.00,49.916
1160.00,49.916
1161.00,49.924
1162.00,49.914
1163.00,49.913
1164.00,49.901
1165.00,49.916
1166.00,49.920
1167.00,49.895
1168.00,49.920
1169.00,49.913
1170.00,49.908
1171.00,49.910
1172.00,49.912
1173.00,49.912
1174.00,49.927
1175.00,49.908
1176.00,49.920
1177.00,49.903
1178.00,49.897
1179.00,49.924
1180.00,49.911
1181.00,49.915
1182.00,49.903
1183.00,49.894
1184.00,49.894
1185.00,49.906
1186.00,49.882
1187.00,49.882
1188.00,49.885
1189.00,49.885
1190.00,49.878
1191.00,49.877
1192.00,49.890
1193.00,49.898
1194.00,49.871
1195.00,49.874
1196.00,49.924
1197.00,49.882
1198.00,49.881
1199.00,49.877
1200.00,49.867
1201.00,49.884
1202.00,49.867
1203.00,49.875
1204.00,49.869
1205.00,49.890
1206.00,49.870
1207.00,49.888
1208.00,49.860
1209.00,49.886
1210.00,49.887
1211.00,49.875
1212.00,49.917
1213.00,49.876
1214.00,49.908
1215.00,49.894
1216.00,49.900
1217.00,49.895
1218.00,49.885
1219.00,49.896
1220.00,49.879
1221.00,49.902
1222.00,49.862
1223.00,49.914
1224.00,49.904
1225.00,49.893
1226.00,49.925
1227.00,49.886
1228.00,49.907
1229.00,49.911
1230.00,49.929
1231.00,49.928
1232.00,49.951
1233.00,49.930
1234.00,49.942
1235.00,49.944
1236.00,49.947
1237.00,49.966
1238.00,49.956
1239.00,49.958
1240.00,49.957
1241.00,49.966
1242.00,49.965
1243.00,49.977
1244.00,49.936
1245.00,49.989
1246.00,49.997
1247.00,49.971
1248.00,49.974
1249.00,49.990
1250.00,50.015
1251.00,50.003
1252.00,50.008
1253.00,50.004
1254.00,50.038
1255.00,50.009
1256.00,50.013
1257.00,50.002
1258.00,50.048
1259.00,50.048
1260.00,50.070
1261.00,50.071
1262.00,50.062
1263.00,50.046
1264.00,50.071
1265.00,50.088
1266.00,50.064
1267.00,50.094
1268.00,50.094
1269.00,50.092
1270.00,50.126
1271.00,50.112
1272.00,50.111
1273.00,50.137
1274.00,50.123
1275.00,50.145
1276.00,50.139
1277.00,50.131
1278.00,50.155
1279.00,50.152
1280.00,50.122
1281.00,50.154
1282.00,50.155
1283.00,50.154
1284.00,50.162
1285.00,50.172
1286.00,50.219
1287.00,50.193
1288.00,50.189
1289.00,50.188
1290.00,50.238
1291.00,50.223
1292.00,50.244
1293.00,50.238
1294.00,50.260
1295.00,50.275
1296.00,50.268
1297.00,50.295
1298.00,50.350
1299.00,50.292
1300.00,50.319
1301.00,50.308
1302.00,50.322
1303.00,50.330
1304.00,50.301
1305.00,50.334
1306.00,50.338
1307.00,50.327
1308.00,50.354
1309.00,50.368
1310.00,50.345
1311.00,50.349
1312.00,50.373
1313.00,50.384
1314.00,50.413
1315.00,50.438
1316.00,50.438
1317.00,50.466
1318.00,50.446
1319.00,50.462
1320.00,50.466
1321.00,50.610
1322.00,50.602
1323.00,50.598
1324.00,50.580
1325.00,50.596
1326.00,50.604
1327.00,50.608
1328.00,50.643
1329.00,50.600
1330.00,50.634
1331.00,50.627
1332.00,50.608
1333.00,50.628
1334.00,50.656
1335.00,50.669
1336.00,50.701
1337.00,50.722
1338.00,50.791
1339.00,50.828
1340.00,50.869
1341.00,50.956
1342.00,51.030
1343.00,51.066
1344.00,51.125
1345.00,51.191
1346.00,51.205
1347.00,51.243
1348.00,51.266
1349.00,51.298
1350.00,51.332
1351.00,51.338
1352.00,51.371
1353.00,51.346
1354.00,51.346
1355.00,51.301
1356.00,51.373
1357.00,51.340
1358.00,51.374
1359.00,51.352
1360.00,51.467
1361.00,51.479
1362.00,51.329
1363.00,51.426
1364.00,51.438
1365.00,51.450
1366.00,51.480
1367.00,51.411
1368.00,51.381
1369.00,51.432
1370.00,51.399
1371.00,51.399
1372.00,51.389
1373.00,51.408
1374.00,51.446
1375.00,51.419
1376.00,51.401
1377.00,51.394
1378.00,51.525
1379.00,51.425
1380.00,51.457
1381.00,51.466
1382.00,51.338
1383.00,51.473
1384.00,51.383
1385.00,51.420
1386.00,51.497
1387.00,51.413
1388.00,51.342
1389.00,51.321
1390.00,51.404
1391.00,51.394
1392.00,51.384
1393.00,51.453
1394.00,51.444
1395.00,51.374
1396.00,51.373
1397.00,51.492
1398.00,51.438
1399.00,51.385
1400.00,51.400
1401.00,51.431
1402.00,51.489
1403.00,51.431
1404.00,51.442
1405.00,51.482
1406.00,51.514
1407.00,51.484
1408.00,51.473
1409.00,51.484
1410.00,51.548
1411.00,51.512
1412.00,51.568
1413.00,51.491
1414.00,51.519
1415.00,51.579
1416.00,51.580
1417.00,51.592
1418.00,51.570
1419.00,51.619
1420.00,51.609
1421.00,51.644
1422.00,51.689
1423.00,51.699
1424.00,51.698
1425.00,51.735
1426.00,51.759
1427.00,51.754
1428.00,51.734
1429.00,51.803
1430.00,51.817
1431.00,51.787
1432.00,51.820
1433.00,51.854
1434.00,51.831
1435.00,51.891
1436.00,51.893
1437.00,51.892
1438.00,51.916
1439.00,51.946
1440.00,51.970
1441.00,51.975
1442.00,51.969
1443.00,52.016
1444.00,52.053
1445.00,52.019
1446.00,52.074
1447.00,52.115
1448.00,52.151
1449.00,52.171
1450.00,52.175
1451.00,52.158
1452.00,52.177
1453.00,52.163
1454.00,52.203
1455.00,52.224
1456.00,52.245
1457.00,52.258
1458.00,52.285
1459.00,52.297
1460.00,52.340
1461.00,52.320
1462.00,52.380
1463.00,52.395
1464.00,52.400
1465.00,52.411
1466.00,52.408
1467.00,52.420
1468.00,52.493
1469.00,52.458
1470.00,52.486
1471.00,52.509
1472.00,52.503
1473.00,52.535
1474.00,52.570
1475.00,52.555
1476.00,52.599
1477.00,52.580
1478.00,52.602
1479.00,52.612
1480.00,52.613
1481.00,52.634
1482.00,52.678
1483.00,52.675
1484.00,52.693
1485.00,52.710
1486.00,52.701
1487.00,52.752
1488.00,52.779
1489.00,52.765
1490.00,52.796
1491.00,52.807
1492.00,52.838
1493.00,52.815
1494.00,52.836
1495.00,52.843
1496.00,52.875
1497.00,52.833
1498.00,52.882
1499.00,52.891
1500.00,52.914
1501.00, 
1502.00, 
1503.00, 
1504.00, 
1505.00, 
1506.00, 
1507.00, 
1508.00, 
1509.00, 
1510.00, 
1511.00, 
1512.00, 
1513.00, 
1514.00, 
1515.00, 
1516.00, 
1517.00, 
1518.00, 
1519.00, 
1520.00, 
1521.00, 
1522.00, 
1523.00, 
1524.00, 
1525.00, 
1526.00, 
1527.00, 
1528.00, 
1529.00, 
1530.00, 
1531.00, 
1532.00, 
1533.00, 
1534.00, 
1535.00, 
1536.00, 
1537.00, 
1538.00, 
1539.00, 
1540.00, 
1541.00, 
1542.00, 
1543.00, 
1544.00, 
1545.00, 
1546.00, 
1547.00, 
1548.00, 
1549.00, 
1550.00, 
1551.00, 
1552.00, 
1553.00, 
1554.00, 
1555.00, 
1556.00, 
1557.00, 
1558.00, 
1559.00, 
1560.00, 
1561.00, 
1562.00, 
1563.00, 
1564.00, 
1565.00, 
1566.00, 
1567.00, 
1568.00, 
1569.00, 
1570.00, 
1571.00, 
1572.00, 
1573.00, 
1574.00, 
1575.00, 
1576.00, 
1577.00, 
1578.00, 
1579.00, 
1580.00, 
1581.00, 
1582.00, 
1583.00, 
1584.00, 
1585.00, 
1586.00, 
1587.00, 
1588.00, 
1589.00, 
1590.00, 
1591.00, 
1592.00, 
1593.00, 
1594.00, 
1595.00, 
1596.00, 
1597.00, 
1598.00, 
1599.00, 
1600.00, 
1601.00, 
1602.00, 
1603.00, 
1604.00, 
1605.00, 
1606.00, 
1607.00, 
1608.00, 
1609.00, 
1610.00, 
1611.00, 
1612.00, 
1613.00, 
1614.00, 
1615.00, 
1616.00, 
1617.00, 
1618.00, 
1619.00, 
1620.00, 
1621.00, 
1622.00, 
1623.00, 
1624.00, 
1625.00, 
1626.00, 
1627.00, 
1628.00, 
1629.00, 
1630.00, 
1631.00, 
1632.00, 
1633.00, 
1634.00, 
1635.00, 
1636.00, 
1637.00, 
1638.00, 
1639.00, 
1640.00, 
1641.00, 
1642.00, 
1643.00, 
1644.00, 
1645.00, 
1646.00, 
1647.00, 
1648.00, 
1649.00, 
1650.00, 
1651.00, 
1652.00, 
1653.00, 
1654.00, 
1655.00, 
1656.00, 
1657.00, 
1658.00, 
1659.00, 
1660.00, 
1661.00, 
1662.00, 
1663.00, 
1664.00, 
1665.00, 
1666.00, 
1667.00, 
1668.00, 
1669.00, 
1670.00, 
1671.00, 
1672.00, 
1673.00, 
1674.00, 
1675.00, 
1676.00, 
1677.00, 
1678.00, 
1679.00, 
1680.00, 
1681.00, 
1682.00, 
1683.00, 
1684.00, 
1685.00, 
1686.00, 
1687.00, 
1688.00, 
1689.00, 
1690.00, 
1691.00, 
1692.00, 
1693.00, 
1694.00, 
1695.00, 
1696.00, 
1697.00, 
1698.00, 
1699.00, 
1700.00, 
1701.00, 
1702.00, 
1703.00, 
1704.00, 
1705.00, 
1706.00, 
1707.00, 
1708.00, 
1709.00, 
1710.00, 
1711.00, 
1712.00, 
1713.00, 
1714.00, 
1715.00, 
1716.00, 
1717.00, 
1718.00, 
1719.00, 
1720.00, 
1721.00, 
1722.00, 
1723.00, 
1724.00, 
1725.00, 
1726.00, 
1727.00, 
1728.00, 
1729.00, 
1730.00, 
1731.00, 
1732.00, 
1733.00, 
1734.00, 
1735.00, 
1736.00, 
1737.00, 
1738.00, 
1739.00, 
1740.00, 
1741.00, 
1742.00, 
1743.00, 
1744.00, 
1745.00, 
1746.00, 
1747.00, 
1748.00, 
1749.00, 
1750.00, 
1751.00, 
1752.00, 
1753.00, 
1754.00, 
1755.00, 
1756.00, 
1757.00, 
1758.00, 
1759.00, 
1760.00, 
1761.00, 
1762.00, 
1763.00, 
1764.00, 
1765.00, 
1766.00, 
1767.00, 
1768.00, 
1769.00, 
1770.00, 
1771.00, 
1772.00, 
1773.00, 
1774.00, 
1775.00, 
1776.00, 
1777.00, 
1778.00, 
1779.00, 
1780.00, 
1781.00, 
1782.00, 
1783.00, 
1784.00, 
1785.00, 
1786.00, 
1787.00, 
1788.00, 
1789.00, 
1790.00, 
1791.00, 
1792.00, 
1793.00, 
1794.00, 
1795.00, 
1796.00, 
1797.00, 
1798.00, 
1799.00, 
1800.00, 
1801.00, 
1802.00, 
1803.00, 
1804.00, 
1805.00, 
1806.00, 
1807.00, 
1808.00, 
1809.00, 
1810.00, 
1811.00, 
1812.00, 
1813.00, 
1814.00, 
1815.00, 
1816.00, 
1817.00, 
1818.00, 
1819.00, 
1820.00, 
1821.00, 
1822.00, 
1823.00, 
1824.00, 
1825.00, 
1826.00, 
1827.00, 
1828.00, 
1829.00, 
1830.00, 
1831.00, 
1832.00, 
1833.00, 
1834.00, 
1835.00, 
1836.00, 
1837.00, 
1838.00, 
1839.00, 
1840.00, 
1841.00, 
1842.00, 
1843.00, 
1844.00, 
1845.00, 
1846.00, 
1847.00, 
1848.00, 
1849.00, 
1850.00, 
1851.00, 
1852.00, 
1853.00, 
1854.00, 
1855.00, 
1856.00, 
1857.00, 
1858.00, 
1859.00, 
1860.00, 
1861.00, 
1862.00, 
1863.00, 
1864.00, 
1865.00, 
1866.00, 
1867.00, 
1868.00, 
1869.00, 
1870.00, 
1871.00, 
1872.00, 
1873.00, 
1874.00, 
1875.00, 
1876.00, 
1877.00, 
1878.00, 
1879.00, 
1880.00, 
1881.00, 
1882.00, 
1883.00, 
1884.00, 
1885.00, 
1886.00, 
1887.00, 
1888.00, 
1889.00, 
1890.00, 
1891.00, 
1892.00, 
1893.00, 
1894.00, 
1895.00, 
1896.00, 
1897.00, 
1898.00, 
1899.00, 
1900.00, 
1901.00, 
1902.00, 
1903.00, 
1904.00, 
1905.00, 
1906.00, 
1907.00, 
1908.00, 
1909.00, 
1910.00, 
1911.00, 
1912.00, 
1913.00, 
1914.00, 
1915.00, 
1916.00, 
1917.00, 
1918.00, 
1919.00, 
1920.00, 
1921.00, 
1922.00, 
1923.00, 
1924.00, 
1925.00, 
1926.00, 
1927.00, 
1928.00, 
1929.00, 
1930.00, 
1931.00, 
1932.00, 
1933.00, 
1934.00, 
1935.00, 
1936.00, 
1937.00, 
1938.00, 
1939.00, 
1940.00, 
1941.00, 
1942.00, 
1943.00, 
1944.00, 
1945.00, 
1946.00, 
1947.00, 
1948.00, 
1949.00, 
1950.00, 
1951.00, 
1952.00, 
1953.00, 
1954.00, 
1955.00, 
1956.00, 
1957.00, 
1958.00, 
1959.00, 
1960.00, 
1961.00, 
1962.00, 
1963.00, 
1964.00, 
1965.00, 
1966.00, 
1967.00, 
1968.00, 
1969.00, 
1970.00, 
1971.00, 
1972.00, 
1973.00, 
1974.00, 
1975.00, 
1976.00, 
1977.00, 
1978.00, 
1979.00, 
1980.00, 
1981.00, 
1982.00, 
1983.00, 
1984.00, 
1985.00, 
1986.00, 
1987.00, 
1988.00, 
1989.00, 
1990.00, 
1991.00, 
1992.00, 
1993.00, 
1994.00, 
1995.00, 
1996.00, 
1997.00, 
1998.00, 
1999.00, 
2000.00, 
2001.00, 
2002.00, 
2003.00, 
2004.00, 
2005.00, 
2006.00, 
2007.00, 
2008.00, 
2009.00, 
2010.00, 
2011.00, 
2012.00, 
2013.00, 
2014.00, 
2015.00, 
2016.00, 
2017.00, 
2018.00, 
2019.00, 
2020.00, 
2021.00, 
2022.00, 
2023.00, 
2024.00, 
2025.00, 
2026.00, 
2027.00, 
2028.00, 
2029.00, 
2030.00, 
2031.00, 
2032.00, 
2033.00, 
2034.00, 
2035.00, 
2036.00, 
2037.00, 
2038.00, 
2039.00, 
2040.00, 
2041.00, 
2042.00, 
2043.00, 
2044.00, 
2045.00, 
2046.00, 
2047.00, 
2048.00, 
2049.00, 
2050.00, 
2051.00, 
2052.00, 
2053.00, 
2054.00, 
2055.00, 
2056.00, 
2057.00, 
2058.00, 
2059.00, 
2060.00, 
2061.00, 
2062.00, 
2063.00, 
2064.00, 
2065.00, 
2066.00, 
2067.00, 
2068.00, 
2069.00, 
2070.00, 
2071.00, 
2072.00, 
2073.00, 
2074.00, 
2075.00, 
2076.00, 
2077.00, 
2078.00, 
2079.00, 
2080.00, 
2081.00, 
2082.00, 
2083.00, 
2084.00, 
2085.00, 
2086.00, 
2087.00, 
2088.00, 
2089.00, 
2090.00, 
2091.00, 
2092.00, 
2093.00, 
2094.00, 
2095.00, 
2096.00, 
2097.00, 
2098.00, 
2099.00, 
2100.00, 
2101.00, 
2102.00, 
2103.00, 
2104.00, 
2105.00, 
2106.00, 
2107.00, 
2108.00, 
2109.00, 
2110.00, 
2111.00, 
2112.00, 
2113.00, 
2114.00, 
2115.00, 
2116.00, 
2117.00, 
2118.00, 
2119.00, 
2120.00, 
2121.00, 
2122.00, 
2123.00, 
2124.00, 
2125.00, 
2126.00, 
2127.00, 
2128.00, 
2129.00, 
2130.00, 
2131.00, 
2132.00, 
2133.00, 
2134.00, 
2135.00, 
2136.00, 
2137.00, 
2138.00, 
2139.00, 
2140.00, 
2141.00, 
2142.00, 
2143.00, 
2144.00, 
2145.00, 
2146.00, 
2147.00, 
2148.00, 
2149.00, 
2150.00, 
2151.00, 
2152.00, 
2153.00, 
2154.00, 
2155.00, 
2156.00, 
2157.00, 
2158.00, 
2159.00, 
2160.00, 
2161.00, 
2162.00, 
2163.00, 
2164.00, 
2165.00, 
2166.00, 
2167.00, 
2168.00, 
2169.00, 
2170.00, 
2171.00, 
2172.00, 
2173.00, 
2174.00, 
2175.00, 
2176.00, 
2177.00, 
2178.00, 
2179.00, 
2180.00, 
2181.00, 
2182.00, 
2183.00, 
2184.00, 
2185.00, 
2186.00, 
2187.00, 
2188.00, 
2189.00, 
2190.00, 
2191.00, 
2192.00, 
2193.00, 
2194.00, 
2195.00, 
2196.00, 
2197.00, 
2198.00, 
2199.00, 
2200.00, 
2201.00, 
2202.00, 
2203.00, 
2204.00, 
2205.00, 
2206.00, 
2207.00, 
2208.00, 
2209.00, 
2210.00, 
2211.00, 
2212.00, 
2213.00, 
2214.00, 
2215.00, 
2216.00, 
2217.00, 
2218.00, 
2219.00, 
2220.00, 
2221.00, 
2222.00, 
2223.00, 
2224.00, 
2225.00, 
2226.00, 
2227.00, 
2228.00, 
2229.00, 
2230.00, 
2231.00, 
2232.00, 
2233.00, 
2234.00, 
2235.00, 
2236.00, 
2237.00, 
2238.00, 
2239.00, 
2240.00, 
2241.00, 
2242.00, 
2243.00, 
2244.00, 
2245.00, 
2246.00, 
2247.00, 
2248.00, 
2249.00, 
2250.00, 
2251.00, 
2252.00, 
2253.00, 
2254.00, 
2255.00, 
2256.00, 
2257.00, 
2258.00, 
2259.00, 
2260.00, 
2261.00, 
2262.00, 
2263.00, 
2264.00, 
2265.00, 
2266.00, 
2267.00, 
2268.00, 
2269.00, 
2270.00, 
2271.00, 
2272.00, 
2273.00, 
2274.00, 
2275.00, 
2276.00, 
2277.00, 
2278.00, 
2279.00, 
2280.00, 
2281.00, 
2282.00, 
2283.00, 
2284.00, 
2285.00, 
2286.00, 
2287.00, 
2288.00, 
2289.00, 
2290.00, 
2291.00, 
2292.00, 
2293.00, 
2294.00, 
2295.00, 
2296.00, 
2297.00, 
2298.00, 
2299.00, 
2300.00, 
2301.00, 
2302.00, 
2303.00, 
2304.00, 
2305.00, 
2306.00, 
2307.00, 
2308.00, 
2309.00, 
2310.00, 
2311.00, 
2312.00, 
2313.00, 
2314.00, 
2315.00, 
2316.00, 
2317.00, 
2318.00, 
2319.00, 
2320.00, 
2321.00, 
2322.00, 
2323.00, 
2324.00, 
2325.00, 
2326.00, 
2327.00, 
2328.00, 
2329.00, 
2330.00, 
2331.00, 
2332.00, 
2333.00, 
2334.00, 
2335.00, 
2336.00, 
2337.00, 
2338.00, 
2339.00, 
2340.00, 
2341.00, 
2342.00, 
2343.00, 
2344.00, 
2345.00, 
2346.00, 
2347.00, 
2348.00, 
2349.00, 
2350.00, 
2351.00, 
2352.00, 
2353.00, 
2354.00, 
2355.00, 
2356.00, 
2357.00, 
2358.00, 
2359.00, 
2360.00, 
2361.00, 
2362.00, 
2363.00, 
2364.00, 
2365.00, 
2366.00, 
2367.00, 
2368.00, 
2369.00, 
2370.00, 
2371.00, 
2372.00, 
2373.00, 
2374.00, 
2375.00, 
2376.00, 
2377.00, 
2378.00, 
2379.00, 
2380.00, 
2381.00, 
2382.00, 
2383.00, 
2384.00, 
2385.00, 
2386.00, 
2387.00, 
2388.00, 
2389.00, 
2390.00, 
2391.00, 
2392.00, 
2393.00, 
2394.00, 
2395.00, 
2396.00, 
2397.00, 
2398.00, 
2399.00, 
2400.00, 
2401.00, 
2402.00, 
2403.00, 
2404.00, 
2405.00, 
2406.00, 
2407.00, 
2408.00, 
2409.00, 
2410.00, 
2411.00, 
2412.00, 
2413.00, 
2414.00, 
2415.00, 
2416.00, 
2417.00, 
2418.00, 
2419.00, 
2420.00, 
2421.00, 
2422.00, 
2423.00, 
2424.00, 
2425.00, 
2426.00, 
2427.00, 
2428.00, 
2429.00, 
2430.00, 
2431.00, 
2432.00, 
2433.00, 
2434.00, 
2435.00, 
2436.00, 
2437.00, 
2438.00, 
2439.00, 
2440.00, 
2441.00, 
2442.00, 
2443.00, 
2444.00, 
2445.00, 
2446.00, 
2447.00, 
2448.00, 
2449.00, 
2450.00, 
2451.00, 
2452.00, 
2453.00, 
2454.00, 
2455.00, 
2456.00, 
2457.00, 
2458.00, 
2459.00, 
2460.00, 
2461.00, 
2462.00, 
2463.00, 
2464.00, 
2465.00, 
2466.00, 
2467.00, 
2468.00, 
2469.00, 
2470.00, 
2471.00, 
2472.00, 
2473.00, 
2474.00, 
2475.00, 
2476.00, 
2477.00, 
2478.00, 
2479.00, 
2480.00, 
2481.00, 
2482.00, 
2483.00, 
2484.00, 
2485.00, 
2486.00, 
2487.00, 
2488.00, 
2489.00, 
2490.00, 
2491.00, 
2492.00, 
2493.00, 
2494.00, 
2495.00, 
2496.00, 
2497.00, 
2498.00, 
2499.00, 
2500.00, 
2501.00, 
2502.00, 
2503.00, 
2504.00, 
2505.00, 
2506.00, 
2507.00, 
2508.00, 
2509.00, 
2510.00, 
2511.00, 
2512.00, 
2513.00, 
2514.00, 
2515.00, 
2516.00, 
2517.00, 
2518.00, 
2519.00, 
2520.00, 
2521.00, 
2522.00, 
2523.00, 
2524.00, 
2525.00, 
2526.00, 
2527.00, 
2528.00, 
2529.00, 
2530.00, 
2531.00, 
2532.00, 
2533.00, 
2534.00, 
2535.00, 
2536.00, 
2537.00, 
2538.00, 
2539.00, 
2540.00, 
2541.00, 
2542.00, 
2543.00, 
2544.00, 
2545.00, 
2546.00, 
2547.00, 
2548.00, 
2549.00, 
2550.00, 
2551.00, 
2552.00, 
2553.00, 
2554.00, 
2555.00, 
2556.00, 
2557.00, 
2558.00, 
2559.00, 
2560.00, 
2561.00, 
2562.00, 
2563.00, 
2564.00, 
2565.00, 
2566.00, 
2567.00, 
2568.00, 
2569.00, 
2570.00, 
2571.00, 
2572.00, 
2573.00, 
2574.00, 
2575.00, 
2576.00, 
2577.00, 
2578.00, 
2579.00, 
2580.00, 
2581.00, 
2582.00, 
2583.00, 
2584.00, 
2585.00, 
2586.00, 
2587.00, 
2588.00, 
2589.00, 
2590.00, 
2591.00, 
2592.00, 
2593.00, 
2594.00, 
2595.00, 
2596.00, 
2597.00, 
2598.00, 
2599.00, 
2600.00, 
