"2cP3 - RawData"
"Wavelength nm.","T%"
200.00,0.003
201.00,0.002
202.00,0.004
203.00,0.002
204.00,0.004
205.00,0.001
206.00,0.001
207.00,0.001
208.00,0.004
209.00,0.001
210.00,0.001
211.00,0.003
212.00,0.001
213.00,0.002
214.00,0.003
215.00,0.000
216.00,-0.001
217.00,0.002
218.00,-0.003
219.00,0.001
220.00,0.003
221.00,0.002
222.00,-0.003
223.00,0.002
224.00,0.002
225.00,0.000
226.00,-0.000
227.00,0.001
228.00,-0.000
229.00,0.001
230.00,0.000
231.00,0.001
232.00,-0.001
233.00,0.002
234.00,0.002
235.00,-0.002
236.00,0.001
237.00,0.003
238.00,0.002
239.00,0.002
240.00,-0.000
241.00,0.001
242.00,0.002
243.00,-0.001
244.00,0.001
245.00,-0.001
246.00,0.001
247.00,0.001
248.00,-0.001
249.00,0.001
250.00,0.000
251.00,0.000
252.00,-0.000
253.00,0.000
254.00,-0.001
255.00,0.002
256.00,-0.000
257.00,-0.002
258.00,0.000
259.00,0.001
260.00,-0.000
261.00,0.000
262.00,0.001
263.00,-0.001
264.00,-0.001
265.00,0.001
266.00,0.001
267.00,-0.000
268.00,0.000
269.00,0.000
270.00,0.001
271.00,-0.001
272.00,-0.000
273.00,0.001
274.00,-0.001
275.00,0.001
276.00,-0.000
277.00,-0.001
278.00,0.002
279.00,0.000
280.00,-0.000
281.00,-0.000
282.00,0.001
283.00,-0.001
284.00,0.001
285.00,-0.001
286.00,-0.001
287.00,0.001
288.00,0.001
289.00,0.002
290.00,0.000
291.00,-0.001
292.00,-0.000
293.00,-0.002
294.00,-0.000
295.00,-0.000
296.00,0.001
297.00,-0.001
298.00,0.001
299.00,0.001
300.00,0.002
301.00,0.004
302.00,0.005
303.00,0.007
304.00,0.009
305.00,0.020
306.00,0.030
307.00,0.041
308.00,0.068
309.00,0.107
310.00,0.151
311.00,0.201
312.00,0.275
313.00,0.366
314.00,0.486
315.00,0.642
316.00,0.814
317.00,1.031
318.00,1.270
319.00,1.572
320.00,1.912
321.00,2.278
322.00,2.695
323.00,3.182
324.00,3.685
325.00,4.208
326.00,4.756
327.00,5.357
328.00,6.024
329.00,6.645
330.00,7.322
331.00,8.028
332.00,8.734
333.00,9.453
334.00,10.130
335.00,10.878
336.00,11.582
337.00,12.339
338.00,13.047
339.00,13.689
340.00,14.410
341.00,15.021
342.00,15.636
343.00,16.230
344.00,16.796
345.00,17.387
346.00,17.849
347.00,18.394
348.00,18.861
349.00,19.307
350.00,19.705
351.00,20.091
352.00,20.447
353.00,20.812
354.00,21.135
355.00,21.423
356.00,21.722
357.00,22.086
358.00,22.319
359.00,22.509
360.00,22.746
361.00,22.917
362.00,23.109
363.00,23.304
364.00,23.440
365.00,23.603
366.00,23.698
367.00,23.801
368.00,23.890
369.00,23.994
370.00,24.100
371.00,24.101
372.00,24.130
373.00,24.119
374.00,24.154
375.00,24.159
376.00,24.148
377.00,24.102
378.00,24.086
379.00,24.037
380.00,23.996
381.00,24.010
382.00,23.983
383.00,24.049
384.00,24.094
385.00,24.132
386.00,24.149
387.00,24.221
388.00,24.275
389.00,24.296
390.00,24.319
391.00,24.358
392.00,24.411
393.00,24.414
394.00,24.472
395.00,24.467
396.00,24.463
397.00,24.489
398.00,24.517
399.00,24.502
400.00,24.536
401.00,24.556
402.00,24.554
403.00,24.530
404.00,24.498
405.00,24.498
406.00,24.520
407.00,24.511
408.00,24.489
409.00,24.441
410.00,24.354
411.00,24.337
412.00,24.271
413.00,24.394
414.00,24.355
415.00,24.410
416.00,24.418
417.00,24.420
418.00,24.447
419.00,24.464
420.00,24.522
421.00,24.557
422.00,24.572
423.00,24.567
424.00,24.641
425.00,24.563
426.00,24.711
427.00,24.740
428.00,24.754
429.00,24.831
430.00,24.880
431.00,24.857
432.00,24.913
433.00,25.005
434.00,25.026
435.00,25.078
436.00,25.161
437.00,25.205
438.00,25.247
439.00,25.288
440.00,25.377
441.00,25.450
442.00,25.504
443.00,25.607
444.00,25.670
445.00,25.760
446.00,25.889
447.00,26.025
448.00,26.019
449.00,26.083
450.00,26.113
451.00,26.276
452.00,26.369
453.00,26.495
454.00,26.559
455.00,26.667
456.00,26.769
457.00,26.874
458.00,26.981
459.00,27.070
460.00,27.164
461.00,27.267
462.00,27.428
463.00,27.497
464.00,27.611
465.00,27.707
466.00,27.787
467.00,27.930
468.00,27.994
469.00,28.162
470.00,28.182
471.00,28.171
472.00,28.448
473.00,28.516
474.00,28.635
475.00,28.722
476.00,28.833
477.00,28.900
478.00,29.051
479.00,29.170
480.00,29.317
481.00,29.460
482.00,29.581
483.00,29.717
484.00,29.852
485.00,29.980
486.00,30.105
487.00,30.258
488.00,30.404
489.00,30.567
490.00,30.727
491.00,30.827
492.00,30.996
493.00,31.077
494.00,31.096
495.00,31.185
496.00,31.324
497.00,31.328
498.00,31.603
499.00,31.770
500.00,31.847
501.00,31.968
502.00,32.057
503.00,32.195
504.00,32.264
505.00,32.396
506.00,32.531
507.00,32.618
508.00,32.729
509.00,32.846
510.00,32.942
511.00,33.041
512.00,33.169
513.00,33.297
514.00,33.397
515.00,33.542
516.00,33.636
517.00,33.702
518.00,33.808
519.00,33.907
520.00,34.030
521.00,34.069
522.00,34.193
523.00,34.222
524.00,34.377
525.00,34.453
526.00,34.558
527.00,34.662
528.00,34.711
529.00,34.860
530.00,34.941
531.00,35.064
532.00,35.149
533.00,35.228
534.00,35.299
535.00,35.410
536.00,35.499
537.00,35.547
538.00,35.684
539.00,35.714
540.00,35.788
541.00,35.861
542.00,35.909
543.00,36.019
544.00,36.083
545.00,36.126
546.00,36.151
547.00,36.283
548.00,36.361
549.00,36.407
550.00,36.533
551.00,36.570
552.00,36.687
553.00,36.739
554.00,36.846
555.00,36.870
556.00,36.933
557.00,37.011
558.00,37.003
559.00,37.105
560.00,37.186
561.00,37.266
562.00,37.315
563.00,37.325
564.00,37.453
565.00,37.439
566.00,37.478
567.00,37.521
568.00,37.505
569.00,37.625
570.00,37.597
571.00,37.682
572.00,37.725
573.00,37.741
574.00,37.848
575.00,37.862
576.00,37.904
577.00,37.967
578.00,38.010
579.00,38.081
580.00,38.168
581.00,38.265
582.00,38.349
583.00,38.408
584.00,38.468
585.00,38.527
586.00,38.557
587.00,38.572
588.00,38.749
589.00,38.763
590.00,38.801
591.00,38.845
592.00,38.859
593.00,38.905
594.00,38.965
595.00,39.009
596.00,39.087
597.00,39.145
598.00,39.186
599.00,39.201
600.00,39.257
601.00,39.314
602.00,39.388
603.00,39.442
604.00,39.454
605.00,39.570
606.00,39.605
607.00,39.590
608.00,39.712
609.00,39.678
610.00,39.708
611.00,39.804
612.00,39.781
613.00,39.789
614.00,39.844
615.00,39.862
616.00,40.016
617.00,40.017
618.00,40.023
619.00,40.174
620.00,40.133
621.00,40.127
622.00,40.199
623.00,40.260
624.00,40.416
625.00,40.453
626.00,40.556
627.00,40.569
628.00,40.560
629.00,40.727
630.00,40.722
631.00,40.739
632.00,40.829
633.00,40.891
634.00,40.972
635.00,41.065
636.00,41.125
637.00,41.215
638.00,41.252
639.00,41.324
640.00,41.317
641.00,41.420
642.00,41.454
643.00,41.465
644.00,41.619
645.00,41.688
646.00,41.753
647.00,41.800
648.00,41.881
649.00,42.000
650.00,41.994
651.00,42.140
652.00,42.173
653.00,42.193
654.00,42.307
655.00,42.296
656.00,42.345
657.00,42.475
658.00,42.562
659.00,42.754
660.00,42.769
661.00,42.761
662.00,42.867
663.00,42.929
664.00,43.134
665.00,43.131
666.00,43.094
667.00,43.278
668.00,43.404
669.00,43.446
670.00,43.541
671.00,43.564
672.00,43.517
673.00,43.646
674.00,43.786
675.00,43.892
676.00,43.971
677.00,43.975
678.00,43.981
679.00,43.959
680.00,44.134
681.00,44.239
682.00,44.235
683.00,44.351
684.00,44.546
685.00,44.524
686.00,44.601
687.00,44.686
688.00,44.713
689.00,44.786
690.00,44.935
691.00,44.971
692.00,44.842
693.00,45.060
694.00,44.930
695.00,45.087
696.00,45.208
697.00,45.236
698.00,45.189
699.00,45.566
700.00,45.890
701.00,45.635
702.00,45.702
703.00,45.764
704.00,45.816
705.00,46.000
706.00,46.159
707.00,45.838
708.00,45.881
709.00,46.193
710.00,46.180
711.00,46.161
712.00,46.268
713.00,46.326
714.00,46.324
715.00,46.404
716.00,46.426
717.00,46.550
718.00,46.414
719.00,46.577
720.00,46.619
721.00,51.005
722.00,51.002
723.00,51.059
724.00,50.958
725.00,51.134
726.00,50.982
727.00,50.990
728.00,50.978
729.00,51.084
730.00,51.018
731.00,51.085
732.00,51.049
733.00,51.027
734.00,51.079
735.00,51.107
736.00,51.169
737.00,51.153
738.00,51.220
739.00,51.217
740.00,51.207
741.00,51.221
742.00,51.234
743.00,51.237
744.00,51.230
745.00,51.241
746.00,51.254
747.00,51.186
748.00,51.252
749.00,51.175
750.00,51.200
751.00,51.179
752.00,51.111
753.00,51.174
754.00,51.117
755.00,51.164
756.00,51.158
757.00,51.126
758.00,51.199
759.00,51.187
760.00,51.177
761.00,51.084
762.00,51.215
763.00,51.219
764.00,51.147
765.00,51.197
766.00,51.208
767.00,51.233
768.00,51.243
769.00,51.234
770.00,51.240
771.00,51.218
772.00,51.218
773.00,51.236
774.00,51.282
775.00,51.316
776.00,51.197
777.00,51.191
778.00,51.141
779.00,51.264
780.00,51.174
781.00,51.191
782.00,51.188
783.00,51.120
784.00,51.185
785.00,51.114
786.00,51.152
787.00,51.193
788.00,51.083
789.00,51.113
790.00,51.068
791.00,51.151
792.00,51.054
793.00,51.125
794.00,51.068
795.00,51.079
796.00,51.053
797.00,51.028
798.00,51.006
799.00,50.973
800.00,50.956
801.00,50.898
802.00,50.927
803.00,50.865
804.00,50.851
805.00,50.791
806.00,50.884
807.00,50.854
808.00,50.811
809.00,50.786
810.00,50.769
811.00,50.780
812.00,50.748
813.00,50.742
814.00,50.786
815.00,50.718
816.00,50.680
817.00,50.651
818.00,50.701
819.00,50.659
820.00,50.599
821.00,50.592
822.00,50.592
823.00,50.558
824.00,50.593
825.00,50.495
826.00,50.516
827.00,50.627
828.00,50.511
829.00,50.461
830.00,50.394
831.00,53.010
832.00,53.028
833.00,52.982
834.00,52.985
835.00,52.930
836.00,52.993
837.00,52.929
838.00,52.921
839.00,52.921
840.00,52.822
841.00,52.864
842.00,52.843
843.00,52.864
844.00,52.738
845.00,52.774
846.00,52.779
847.00,52.758
848.00,52.730
849.00,52.669
850.00,52.626
851.00,52.588
852.00,52.565
853.00,52.533
854.00,52.507
855.00,52.455
856.00,52.484
857.00,52.414
858.00,52.406
859.00,52.385
860.00,52.352
861.00,52.364
862.00,52.282
863.00,52.285
864.00,52.292
865.00,52.268
866.00,52.265
867.00,52.264
868.00,52.221
869.00,52.198
870.00,52.203
871.00,52.218
872.00,52.220
873.00,52.190
874.00,52.189
875.00,52.161
876.00,52.166
877.00,52.146
878.00,52.151
879.00,52.089
880.00,52.095
881.00,52.080
882.00,52.086
883.00,52.037
884.00,52.006
885.00,51.991
886.00,51.954
887.00,51.995
888.00,51.948
889.00,51.893
890.00,51.903
891.00,51.882
892.00,51.840
893.00,51.825
894.00,51.849
895.00,51.768
896.00,51.763
897.00,51.750
898.00,51.751
899.00,51.720
900.00,51.703
901.00,51.709
902.00,51.689
903.00,51.678
904.00,51.645
905.00,51.617
906.00,51.598
907.00,51.585
908.00,51.538
909.00,51.558
910.00,51.503
911.00,51.531
912.00,51.517
913.00,51.458
914.00,51.438
915.00,51.412
916.00,51.404
917.00,51.373
918.00,51.377
919.00,51.328
920.00,51.298
921.00,51.306
922.00,51.294
923.00,51.258
924.00,51.262
925.00,51.226
926.00,51.222
927.00,51.203
928.00,51.175
929.00,51.182
930.00,51.131
931.00,51.106
932.00,51.084
933.00,51.090
934.00,50.962
935.00,51.058
936.00,51.037
937.00,50.960
938.00,51.122
939.00,50.977
940.00,50.972
941.00,50.940
942.00,50.916
943.00,50.926
944.00,50.869
945.00,50.881
946.00,50.850
947.00,50.827
948.00,50.781
949.00,50.779
950.00,50.741
951.00,50.754
952.00,50.700
953.00,50.670
954.00,50.663
955.00,50.605
956.00,50.618
957.00,50.591
958.00,50.587
959.00,50.534
960.00,50.531
961.00,50.504
962.00,50.523
963.00,50.458
964.00,50.446
965.00,50.463
966.00,50.423
967.00,50.430
968.00,50.401
969.00,50.433
970.00,50.416
971.00,50.419
972.00,50.387
973.00,50.428
974.00,50.445
975.00,50.410
976.00,50.456
977.00,50.506
978.00,50.441
979.00,50.396
980.00,50.422
981.00,50.411
982.00,50.403
983.00,50.406
984.00,50.384
985.00,50.404
986.00,50.353
987.00,50.367
988.00,50.342
989.00,50.347
990.00,50.337
991.00,50.295
992.00,50.325
993.00,50.295
994.00,50.280
995.00,50.275
996.00,50.240
997.00,50.253
998.00,50.213
999.00,50.239
1000.00,50.185
1001.00,50.185
1002.00,50.186
1003.00,50.172
1004.00,50.158
1005.00,50.109
1006.00,50.169
1007.00,50.110
1008.00,50.112
1009.00,50.083
1010.00,50.091
1011.00,50.076
1012.00,50.040
1013.00,50.059
1014.00,50.019
1015.00,50.027
1016.00,49.983
1017.00,49.990
1018.00,49.961
1019.00,49.930
1020.00,49.929
1021.00,49.894
1022.00,49.916
1023.00,49.878
1024.00,49.863
1025.00,49.872
1026.00,49.837
1027.00,49.848
1028.00,49.810
1029.00,49.803
1030.00,49.754
1031.00,49.766
1032.00,49.718
1033.00,49.736
1034.00,49.696
1035.00,49.645
1036.00,49.641
1037.00,49.616
1038.00,49.596
1039.00,49.567
1040.00,49.561
1041.00,49.528
1042.00,49.531
1043.00,49.506
1044.00,49.530
1045.00,49.522
1046.00,49.501
1047.00,49.531
1048.00,49.536
1049.00,49.531
1050.00,49.549
1051.00,49.566
1052.00,49.587
1053.00,49.587
1054.00,49.576
1055.00,49.609
1056.00,49.623
1057.00,49.617
1058.00,49.607
1059.00,49.600
1060.00,49.595
1061.00,49.592
1062.00,49.573
1063.00,49.581
1064.00,49.573
1065.00,49.548
1066.00,49.554
1067.00,49.547
1068.00,49.547
1069.00,49.532
1070.00,49.502
1071.00,49.489
1072.00,49.505
1073.00,49.475
1074.00,49.479
1075.00,49.456
1076.00,49.451
1077.00,49.442
1078.00,49.426
1079.00,49.407
1080.00,49.422
1081.00,49.410
1082.00,49.394
1083.00,49.393
1084.00,49.378
1085.00,49.377
1086.00,49.375
1087.00,49.358
1088.00,49.347
1089.00,49.343
1090.00,49.339
1091.00,49.338
1092.00,49.329
1093.00,49.285
1094.00,49.300
1095.00,49.267
1096.00,49.269
1097.00,49.258
1098.00,49.244
1099.00,49.246
1100.00,49.225
1101.00,49.206
1102.00,49.210
1103.00,49.204
1104.00,49.190
1105.00,49.187
1106.00,49.183
1107.00,49.177
1108.00,49.165
1109.00,49.157
1110.00,49.156
1111.00,49.153
1112.00,49.125
1113.00,49.112
1114.00,49.111
1115.00,49.103
1116.00,49.111
1117.00,49.074
1118.00,49.076
1119.00,49.080
1120.00,49.061
1121.00,49.070
1122.00,49.056
1123.00,49.034
1124.00,49.036
1125.00,49.019
1126.00,49.000
1127.00,49.018
1128.00,48.988
1129.00,48.965
1130.00,48.976
1131.00,48.967
1132.00,48.973
1133.00,48.972
1134.00,48.942
1135.00,48.942
1136.00,48.943
1137.00,48.944
1138.00,48.950
1139.00,48.939
1140.00,48.928
1141.00,48.921
1142.00,48.909
1143.00,48.908
1144.00,48.895
1145.00,48.888
1146.00,48.906
1147.00,48.887
1148.00,48.869
1149.00,48.896
1150.00,48.876
1151.00,48.882
1152.00,48.875
1153.00,48.862
1154.00,48.854
1155.00,48.866
1156.00,48.837
1157.00,48.844
1158.00,48.830
1159.00,48.828
1160.00,48.824
1161.00,48.824
1162.00,48.809
1163.00,48.825
1164.00,48.819
1165.00,48.838
1166.00,48.826
1167.00,48.792
1168.00,48.808
1169.00,48.811
1170.00,48.819
1171.00,48.808
1172.00,48.807
1173.00,48.804
1174.00,48.808
1175.00,48.787
1176.00,48.789
1177.00,48.784
1178.00,48.768
1179.00,48.790
1180.00,48.773
1181.00,48.784
1182.00,48.787
1183.00,48.775
1184.00,48.767
1185.00,48.778
1186.00,48.760
1187.00,48.761
1188.00,48.756
1189.00,48.757
1190.00,48.763
1191.00,48.761
1192.00,48.765
1193.00,48.764
1194.00,48.760
1195.00,48.739
1196.00,48.767
1197.00,48.749
1198.00,48.751
1199.00,48.748
1200.00,48.738
1201.00,48.762
1202.00,48.739
1203.00,48.740
1204.00,48.730
1205.00,48.746
1206.00,48.726
1207.00,48.741
1208.00,48.713
1209.00,48.714
1210.00,48.717
1211.00,48.698
1212.00,48.738
1213.00,48.693
1214.00,48.712
1215.00,48.720
1216.00,48.700
1217.00,48.707
1218.00,48.691
1219.00,48.702
1220.00,48.674
1221.00,48.707
1222.00,48.680
1223.00,48.714
1224.00,48.712
1225.00,48.703
1226.00,48.750
1227.00,48.711
1228.00,48.725
1229.00,48.725
1230.00,48.744
1231.00,48.742
1232.00,48.746
1233.00,48.733
1234.00,48.744
1235.00,48.736
1236.00,48.727
1237.00,48.741
1238.00,48.739
1239.00,48.742
1240.00,48.754
1241.00,48.753
1242.00,48.754
1243.00,48.774
1244.00,48.732
1245.00,48.776
1246.00,48.781
1247.00,48.759
1248.00,48.771
1249.00,48.766
1250.00,48.779
1251.00,48.765
1252.00,48.776
1253.00,48.773
1254.00,48.797
1255.00,48.777
1256.00,48.762
1257.00,48.735
1258.00,48.781
1259.00,48.794
1260.00,48.807
1261.00,48.807
1262.00,48.807
1263.00,48.788
1264.00,48.813
1265.00,48.815
1266.00,48.794
1267.00,48.813
1268.00,48.822
1269.00,48.806
1270.00,48.825
1271.00,48.830
1272.00,48.845
1273.00,48.843
1274.00,48.832
1275.00,48.849
1276.00,48.862
1277.00,48.838
1278.00,48.871
1279.00,48.860
1280.00,48.856
1281.00,48.876
1282.00,48.879
1283.00,48.862
1284.00,48.850
1285.00,48.852
1286.00,48.893
1287.00,48.877
1288.00,48.863
1289.00,48.879
1290.00,48.897
1291.00,48.879
1292.00,48.909
1293.00,48.886
1294.00,48.905
1295.00,48.910
1296.00,48.910
1297.00,48.919
1298.00,48.943
1299.00,48.916
1300.00,48.950
1301.00,48.944
1302.00,48.930
1303.00,48.967
1304.00,48.940
1305.00,48.967
1306.00,48.973
1307.00,48.968
1308.00,48.984
1309.00,48.982
1310.00,48.978
1311.00,48.975
1312.00,48.964
1313.00,48.965
1314.00,48.989
1315.00,48.993
1316.00,48.996
1317.00,49.009
1318.00,48.996
1319.00,49.013
1320.00,49.047
1321.00,49.165
1322.00,49.199
1323.00,49.180
1324.00,49.173
1325.00,49.164
1326.00,49.190
1327.00,49.166
1328.00,49.162
1329.00,49.156
1330.00,49.202
1331.00,49.145
1332.00,49.164
1333.00,49.171
1334.00,49.215
1335.00,49.213
1336.00,49.255
1337.00,49.271
1338.00,49.337
1339.00,49.396
1340.00,49.430
1341.00,49.502
1342.00,49.563
1343.00,49.617
1344.00,49.670
1345.00,49.718
1346.00,49.771
1347.00,49.780
1348.00,49.788
1349.00,49.830
1350.00,49.854
1351.00,49.838
1352.00,49.864
1353.00,49.881
1354.00,49.864
1355.00,49.849
1356.00,49.880
1357.00,49.875
1358.00,49.900
1359.00,49.845
1360.00,49.992
1361.00,49.845
1362.00,49.744
1363.00,49.955
1364.00,49.929
1365.00,49.885
1366.00,49.978
1367.00,49.881
1368.00,49.813
1369.00,49.887
1370.00,49.875
1371.00,49.820
1372.00,49.837
1373.00,49.842
1374.00,49.865
1375.00,49.839
1376.00,49.828
1377.00,49.841
1378.00,49.946
1379.00,49.895
1380.00,49.882
1381.00,49.889
1382.00,49.797
1383.00,49.833
1384.00,49.772
1385.00,49.778
1386.00,49.831
1387.00,49.796
1388.00,49.792
1389.00,49.818
1390.00,49.836
1391.00,49.790
1392.00,49.799
1393.00,49.887
1394.00,49.815
1395.00,49.771
1396.00,49.774
1397.00,49.828
1398.00,49.847
1399.00,49.774
1400.00,49.726
1401.00,49.788
1402.00,49.873
1403.00,49.857
1404.00,49.807
1405.00,49.864
1406.00,49.842
1407.00,49.872
1408.00,49.870
1409.00,49.823
1410.00,49.884
1411.00,49.872
1412.00,49.928
1413.00,49.866
1414.00,49.871
1415.00,49.908
1416.00,49.937
1417.00,49.934
1418.00,49.944
1419.00,49.932
1420.00,49.953
1421.00,50.019
1422.00,50.021
1423.00,50.033
1424.00,49.997
1425.00,49.996
1426.00,50.020
1427.00,50.043
1428.00,50.033
1429.00,50.068
1430.00,50.069
1431.00,50.069
1432.00,50.083
1433.00,50.108
1434.00,50.101
1435.00,50.155
1436.00,50.153
1437.00,50.153
1438.00,50.186
1439.00,50.194
1440.00,50.220
1441.00,50.213
1442.00,50.197
1443.00,50.260
1444.00,50.282
1445.00,50.270
1446.00,50.280
1447.00,50.323
1448.00,50.342
1449.00,50.365
1450.00,50.345
1451.00,50.366
1452.00,50.363
1453.00,50.373
1454.00,50.390
1455.00,50.406
1456.00,50.419
1457.00,50.436
1458.00,50.438
1459.00,50.459
1460.00,50.483
1461.00,50.480
1462.00,50.493
1463.00,50.528
1464.00,50.508
1465.00,50.533
1466.00,50.558
1467.00,50.556
1468.00,50.606
1469.00,50.597
1470.00,50.620
1471.00,50.659
1472.00,50.636
1473.00,50.658
1474.00,50.694
1475.00,50.672
1476.00,50.701
1477.00,50.698
1478.00,50.709
1479.00,50.733
1480.00,50.744
1481.00,50.744
1482.00,50.786
1483.00,50.781
1484.00,50.787
1485.00,50.805
1486.00,50.787
1487.00,50.830
1488.00,50.835
1489.00,50.824
1490.00,50.857
1491.00,50.852
1492.00,50.880
1493.00,50.888
1494.00,50.876
1495.00,50.897
1496.00,50.889
1497.00,50.881
1498.00,50.909
1499.00,50.924
1500.00,50.943
1501.00, 
1502.00, 
1503.00, 
1504.00, 
1505.00, 
1506.00, 
1507.00, 
1508.00, 
1509.00, 
1510.00, 
1511.00, 
1512.00, 
1513.00, 
1514.00, 
1515.00, 
1516.00, 
1517.00, 
1518.00, 
1519.00, 
1520.00, 
1521.00, 
1522.00, 
1523.00, 
1524.00, 
1525.00, 
1526.00, 
1527.00, 
1528.00, 
1529.00, 
1530.00, 
1531.00, 
1532.00, 
1533.00, 
1534.00, 
1535.00, 
1536.00, 
1537.00, 
1538.00, 
1539.00, 
1540.00, 
1541.00, 
1542.00, 
1543.00, 
1544.00, 
1545.00, 
1546.00, 
1547.00, 
1548.00, 
1549.00, 
1550.00, 
1551.00, 
1552.00, 
1553.00, 
1554.00, 
1555.00, 
1556.00, 
1557.00, 
1558.00, 
1559.00, 
1560.00, 
1561.00, 
1562.00, 
1563.00, 
1564.00, 
1565.00, 
1566.00, 
1567.00, 
1568.00, 
1569.00, 
1570.00, 
1571.00, 
1572.00, 
1573.00, 
1574.00, 
1575.00, 
1576.00, 
1577.00, 
1578.00, 
1579.00, 
1580.00, 
1581.00, 
1582.00, 
1583.00, 
1584.00, 
1585.00, 
1586.00, 
1587.00, 
1588.00, 
1589.00, 
1590.00, 
1591.00, 
1592.00, 
1593.00, 
1594.00, 
1595.00, 
1596.00, 
1597.00, 
1598.00, 
1599.00, 
1600.00, 
1601.00, 
1602.00, 
1603.00, 
1604.00, 
1605.00, 
1606.00, 
1607.00, 
1608.00, 
1609.00, 
1610.00, 
1611.00, 
1612.00, 
1613.00, 
1614.00, 
1615.00, 
1616.00, 
1617.00, 
1618.00, 
1619.00, 
1620.00, 
1621.00, 
1622.00, 
1623.00, 
1624.00, 
1625.00, 
1626.00, 
1627.00, 
1628.00, 
1629.00, 
1630.00, 
1631.00, 
1632.00, 
1633.00, 
1634.00, 
1635.00, 
1636.00, 
1637.00, 
1638.00, 
1639.00, 
1640.00, 
1641.00, 
1642.00, 
1643.00, 
1644.00, 
1645.00, 
1646.00, 
1647.00, 
1648.00, 
1649.00, 
1650.00, 
1651.00, 
1652.00, 
1653.00, 
1654.00, 
1655.00, 
1656.00, 
1657.00, 
1658.00, 
1659.00, 
1660.00, 
1661.00, 
1662.00, 
1663.00, 
1664.00, 
1665.00, 
1666.00, 
1667.00, 
1668.00, 
1669.00, 
1670.00, 
1671.00, 
1672.00, 
1673.00, 
1674.00, 
1675.00, 
1676.00, 
1677.00, 
1678.00, 
1679.00, 
1680.00, 
1681.00, 
1682.00, 
1683.00, 
1684.00, 
1685.00, 
1686.00, 
1687.00, 
1688.00, 
1689.00, 
1690.00, 
1691.00, 
1692.00, 
1693.00, 
1694.00, 
1695.00, 
1696.00, 
1697.00, 
1698.00, 
1699.00, 
1700.00, 
1701.00, 
1702.00, 
1703.00, 
1704.00, 
1705.00, 
1706.00, 
1707.00, 
1708.00, 
1709.00, 
1710.00, 
1711.00, 
1712.00, 
1713.00, 
1714.00, 
1715.00, 
1716.00, 
1717.00, 
1718.00, 
1719.00, 
1720.00, 
1721.00, 
1722.00, 
1723.00, 
1724.00, 
1725.00, 
1726.00, 
1727.00, 
1728.00, 
1729.00, 
1730.00, 
1731.00, 
1732.00, 
1733.00, 
1734.00, 
1735.00, 
1736.00, 
1737.00, 
1738.00, 
1739.00, 
1740.00, 
1741.00, 
1742.00, 
1743.00, 
1744.00, 
1745.00, 
1746.00, 
1747.00, 
1748.00, 
1749.00, 
1750.00, 
1751.00, 
1752.00, 
1753.00, 
1754.00, 
1755.00, 
1756.00, 
1757.00, 
1758.00, 
1759.00, 
1760.00, 
1761.00, 
1762.00, 
1763.00, 
1764.00, 
1765.00, 
1766.00, 
1767.00, 
1768.00, 
1769.00, 
1770.00, 
1771.00, 
1772.00, 
1773.00, 
1774.00, 
1775.00, 
1776.00, 
1777.00, 
1778.00, 
1779.00, 
1780.00, 
1781.00, 
1782.00, 
1783.00, 
1784.00, 
1785.00, 
1786.00, 
1787.00, 
1788.00, 
1789.00, 
1790.00, 
1791.00, 
1792.00, 
1793.00, 
1794.00, 
1795.00, 
1796.00, 
1797.00, 
1798.00, 
1799.00, 
1800.00, 
1801.00, 
1802.00, 
1803.00, 
1804.00, 
1805.00, 
1806.00, 
1807.00, 
1808.00, 
1809.00, 
1810.00, 
1811.00, 
1812.00, 
1813.00, 
1814.00, 
1815.00, 
1816.00, 
1817.00, 
1818.00, 
1819.00, 
1820.00, 
1821.00, 
1822.00, 
1823.00, 
1824.00, 
1825.00, 
1826.00, 
1827.00, 
1828.00, 
1829.00, 
1830.00, 
1831.00, 
1832.00, 
1833.00, 
1834.00, 
1835.00, 
1836.00, 
1837.00, 
1838.00, 
1839.00, 
1840.00, 
1841.00, 
1842.00, 
1843.00, 
1844.00, 
1845.00, 
1846.00, 
1847.00, 
1848.00, 
1849.00, 
1850.00, 
1851.00, 
1852.00, 
1853.00, 
1854.00, 
1855.00, 
1856.00, 
1857.00, 
1858.00, 
1859.00, 
1860.00, 
1861.00, 
1862.00, 
1863.00, 
1864.00, 
1865.00, 
1866.00, 
1867.00, 
1868.00, 
1869.00, 
1870.00, 
1871.00, 
1872.00, 
1873.00, 
1874.00, 
1875.00, 
1876.00, 
1877.00, 
1878.00, 
1879.00, 
1880.00, 
1881.00, 
1882.00, 
1883.00, 
1884.00, 
1885.00, 
1886.00, 
1887.00, 
1888.00, 
1889.00, 
1890.00, 
1891.00, 
1892.00, 
1893.00, 
1894.00, 
1895.00, 
1896.00, 
1897.00, 
1898.00, 
1899.00, 
1900.00, 
1901.00, 
1902.00, 
1903.00, 
1904.00, 
1905.00, 
1906.00, 
1907.00, 
1908.00, 
1909.00, 
1910.00, 
1911.00, 
1912.00, 
1913.00, 
1914.00, 
1915.00, 
1916.00, 
1917.00, 
1918.00, 
1919.00, 
1920.00, 
1921.00, 
1922.00, 
1923.00, 
1924.00, 
1925.00, 
1926.00, 
1927.00, 
1928.00, 
1929.00, 
1930.00, 
1931.00, 
1932.00, 
1933.00, 
1934.00, 
1935.00, 
1936.00, 
1937.00, 
1938.00, 
1939.00, 
1940.00, 
1941.00, 
1942.00, 
1943.00, 
1944.00, 
1945.00, 
1946.00, 
1947.00, 
1948.00, 
1949.00, 
1950.00, 
1951.00, 
1952.00, 
1953.00, 
1954.00, 
1955.00, 
1956.00, 
1957.00, 
1958.00, 
1959.00, 
1960.00, 
1961.00, 
1962.00, 
1963.00, 
1964.00, 
1965.00, 
1966.00, 
1967.00, 
1968.00, 
1969.00, 
1970.00, 
1971.00, 
1972.00, 
1973.00, 
1974.00, 
1975.00, 
1976.00, 
1977.00, 
1978.00, 
1979.00, 
1980.00, 
1981.00, 
1982.00, 
1983.00, 
1984.00, 
1985.00, 
1986.00, 
1987.00, 
1988.00, 
1989.00, 
1990.00, 
1991.00, 
1992.00, 
1993.00, 
1994.00, 
1995.00, 
1996.00, 
1997.00, 
1998.00, 
1999.00, 
2000.00, 
2001.00, 
2002.00, 
2003.00, 
2004.00, 
2005.00, 
2006.00, 
2007.00, 
2008.00, 
2009.00, 
2010.00, 
2011.00, 
2012.00, 
2013.00, 
2014.00, 
2015.00, 
2016.00, 
2017.00, 
2018.00, 
2019.00, 
2020.00, 
2021.00, 
2022.00, 
2023.00, 
2024.00, 
2025.00, 
2026.00, 
2027.00, 
2028.00, 
2029.00, 
2030.00, 
2031.00, 
2032.00, 
2033.00, 
2034.00, 
2035.00, 
2036.00, 
2037.00, 
2038.00, 
2039.00, 
2040.00, 
2041.00, 
2042.00, 
2043.00, 
2044.00, 
2045.00, 
2046.00, 
2047.00, 
2048.00, 
2049.00, 
2050.00, 
2051.00, 
2052.00, 
2053.00, 
2054.00, 
2055.00, 
2056.00, 
2057.00, 
2058.00, 
2059.00, 
2060.00, 
2061.00, 
2062.00, 
2063.00, 
2064.00, 
2065.00, 
2066.00, 
2067.00, 
2068.00, 
2069.00, 
2070.00, 
2071.00, 
2072.00, 
2073.00, 
2074.00, 
2075.00, 
2076.00, 
2077.00, 
2078.00, 
2079.00, 
2080.00, 
2081.00, 
2082.00, 
2083.00, 
2084.00, 
2085.00, 
2086.00, 
2087.00, 
2088.00, 
2089.00, 
2090.00, 
2091.00, 
2092.00, 
2093.00, 
2094.00, 
2095.00, 
2096.00, 
2097.00, 
2098.00, 
2099.00, 
2100.00, 
2101.00, 
2102.00, 
2103.00, 
2104.00, 
2105.00, 
2106.00, 
2107.00, 
2108.00, 
2109.00, 
2110.00, 
2111.00, 
2112.00, 
2113.00, 
2114.00, 
2115.00, 
2116.00, 
2117.00, 
2118.00, 
2119.00, 
2120.00, 
2121.00, 
2122.00, 
2123.00, 
2124.00, 
2125.00, 
2126.00, 
2127.00, 
2128.00, 
2129.00, 
2130.00, 
2131.00, 
2132.00, 
2133.00, 
2134.00, 
2135.00, 
2136.00, 
2137.00, 
2138.00, 
2139.00, 
2140.00, 
2141.00, 
2142.00, 
2143.00, 
2144.00, 
2145.00, 
2146.00, 
2147.00, 
2148.00, 
2149.00, 
2150.00, 
2151.00, 
2152.00, 
2153.00, 
2154.00, 
2155.00, 
2156.00, 
2157.00, 
2158.00, 
2159.00, 
2160.00, 
2161.00, 
2162.00, 
2163.00, 
2164.00, 
2165.00, 
2166.00, 
2167.00, 
2168.00, 
2169.00, 
2170.00, 
2171.00, 
2172.00, 
2173.00, 
2174.00, 
2175.00, 
2176.00, 
2177.00, 
2178.00, 
2179.00, 
2180.00, 
2181.00, 
2182.00, 
2183.00, 
2184.00, 
2185.00, 
2186.00, 
2187.00, 
2188.00, 
2189.00, 
2190.00, 
2191.00, 
2192.00, 
2193.00, 
2194.00, 
2195.00, 
2196.00, 
2197.00, 
2198.00, 
2199.00, 
2200.00, 
2201.00, 
2202.00, 
2203.00, 
2204.00, 
2205.00, 
2206.00, 
2207.00, 
2208.00, 
2209.00, 
2210.00, 
2211.00, 
2212.00, 
2213.00, 
2214.00, 
2215.00, 
2216.00, 
2217.00, 
2218.00, 
2219.00, 
2220.00, 
2221.00, 
2222.00, 
2223.00, 
2224.00, 
2225.00, 
2226.00, 
2227.00, 
2228.00, 
2229.00, 
2230.00, 
2231.00, 
2232.00, 
2233.00, 
2234.00, 
2235.00, 
2236.00, 
2237.00, 
2238.00, 
2239.00, 
2240.00, 
2241.00, 
2242.00, 
2243.00, 
2244.00, 
2245.00, 
2246.00, 
2247.00, 
2248.00, 
2249.00, 
2250.00, 
2251.00, 
2252.00, 
2253.00, 
2254.00, 
2255.00, 
2256.00, 
2257.00, 
2258.00, 
2259.00, 
2260.00, 
2261.00, 
2262.00, 
2263.00, 
2264.00, 
2265.00, 
2266.00, 
2267.00, 
2268.00, 
2269.00, 
2270.00, 
2271.00, 
2272.00, 
2273.00, 
2274.00, 
2275.00, 
2276.00, 
2277.00, 
2278.00, 
2279.00, 
2280.00, 
2281.00, 
2282.00, 
2283.00, 
2284.00, 
2285.00, 
2286.00, 
2287.00, 
2288.00, 
2289.00, 
2290.00, 
2291.00, 
2292.00, 
2293.00, 
2294.00, 
2295.00, 
2296.00, 
2297.00, 
2298.00, 
2299.00, 
2300.00, 
2301.00, 
2302.00, 
2303.00, 
2304.00, 
2305.00, 
2306.00, 
2307.00, 
2308.00, 
2309.00, 
2310.00, 
2311.00, 
2312.00, 
2313.00, 
2314.00, 
2315.00, 
2316.00, 
2317.00, 
2318.00, 
2319.00, 
2320.00, 
2321.00, 
2322.00, 
2323.00, 
2324.00, 
2325.00, 
2326.00, 
2327.00, 
2328.00, 
2329.00, 
2330.00, 
2331.00, 
2332.00, 
2333.00, 
2334.00, 
2335.00, 
2336.00, 
2337.00, 
2338.00, 
2339.00, 
2340.00, 
2341.00, 
2342.00, 
2343.00, 
2344.00, 
2345.00, 
2346.00, 
2347.00, 
2348.00, 
2349.00, 
2350.00, 
2351.00, 
2352.00, 
2353.00, 
2354.00, 
2355.00, 
2356.00, 
2357.00, 
2358.00, 
2359.00, 
2360.00, 
2361.00, 
2362.00, 
2363.00, 
2364.00, 
2365.00, 
2366.00, 
2367.00, 
2368.00, 
2369.00, 
2370.00, 
2371.00, 
2372.00, 
2373.00, 
2374.00, 
2375.00, 
2376.00, 
2377.00, 
2378.00, 
2379.00, 
2380.00, 
2381.00, 
2382.00, 
2383.00, 
2384.00, 
2385.00, 
2386.00, 
2387.00, 
2388.00, 
2389.00, 
2390.00, 
2391.00, 
2392.00, 
2393.00, 
2394.00, 
2395.00, 
2396.00, 
2397.00, 
2398.00, 
2399.00, 
2400.00, 
2401.00, 
2402.00, 
2403.00, 
2404.00, 
2405.00, 
2406.00, 
2407.00, 
2408.00, 
2409.00, 
2410.00, 
2411.00, 
2412.00, 
2413.00, 
2414.00, 
2415.00, 
2416.00, 
2417.00, 
2418.00, 
2419.00, 
2420.00, 
2421.00, 
2422.00, 
2423.00, 
2424.00, 
2425.00, 
2426.00, 
2427.00, 
2428.00, 
2429.00, 
2430.00, 
2431.00, 
2432.00, 
2433.00, 
2434.00, 
2435.00, 
2436.00, 
2437.00, 
2438.00, 
2439.00, 
2440.00, 
2441.00, 
2442.00, 
2443.00, 
2444.00, 
2445.00, 
2446.00, 
2447.00, 
2448.00, 
2449.00, 
2450.00, 
2451.00, 
2452.00, 
2453.00, 
2454.00, 
2455.00, 
2456.00, 
2457.00, 
2458.00, 
2459.00, 
2460.00, 
2461.00, 
2462.00, 
2463.00, 
2464.00, 
2465.00, 
2466.00, 
2467.00, 
2468.00, 
2469.00, 
2470.00, 
2471.00, 
2472.00, 
2473.00, 
2474.00, 
2475.00, 
2476.00, 
2477.00, 
2478.00, 
2479.00, 
2480.00, 
2481.00, 
2482.00, 
2483.00, 
2484.00, 
2485.00, 
2486.00, 
2487.00, 
2488.00, 
2489.00, 
2490.00, 
2491.00, 
2492.00, 
2493.00, 
2494.00, 
2495.00, 
2496.00, 
2497.00, 
2498.00, 
2499.00, 
2500.00, 
2501.00, 
2502.00, 
2503.00, 
2504.00, 
2505.00, 
2506.00, 
2507.00, 
2508.00, 
2509.00, 
2510.00, 
2511.00, 
2512.00, 
2513.00, 
2514.00, 
2515.00, 
2516.00, 
2517.00, 
2518.00, 
2519.00, 
2520.00, 
2521.00, 
2522.00, 
2523.00, 
2524.00, 
2525.00, 
2526.00, 
2527.00, 
2528.00, 
2529.00, 
2530.00, 
2531.00, 
2532.00, 
2533.00, 
2534.00, 
2535.00, 
2536.00, 
2537.00, 
2538.00, 
2539.00, 
2540.00, 
2541.00, 
2542.00, 
2543.00, 
2544.00, 
2545.00, 
2546.00, 
2547.00, 
2548.00, 
2549.00, 
2550.00, 
2551.00, 
2552.00, 
2553.00, 
2554.00, 
2555.00, 
2556.00, 
2557.00, 
2558.00, 
2559.00, 
2560.00, 
2561.00, 
2562.00, 
2563.00, 
2564.00, 
2565.00, 
2566.00, 
2567.00, 
2568.00, 
2569.00, 
2570.00, 
2571.00, 
2572.00, 
2573.00, 
2574.00, 
2575.00, 
2576.00, 
2577.00, 
2578.00, 
2579.00, 
2580.00, 
2581.00, 
2582.00, 
2583.00, 
2584.00, 
2585.00, 
2586.00, 
2587.00, 
2588.00, 
2589.00, 
2590.00, 
2591.00, 
2592.00, 
2593.00, 
2594.00, 
2595.00, 
2596.00, 
2597.00, 
2598.00, 
2599.00, 
2600.00, 
