"2cP5 - RawData"
"Wavelength nm.","T%"
200.00,0.002
201.00,-0.001
202.00,-0.001
203.00,0.001
204.00,-0.001
205.00,0.000
206.00,-0.000
207.00,0.003
208.00,0.000
209.00,-0.001
210.00,0.001
211.00,0.004
212.00,0.002
213.00,0.002
214.00,-0.000
215.00,-0.001
216.00,0.003
217.00,0.000
218.00,0.000
219.00,0.001
220.00,0.000
221.00,0.003
222.00,0.001
223.00,0.002
224.00,0.001
225.00,0.001
226.00,-0.001
227.00,0.002
228.00,0.002
229.00,-0.000
230.00,-0.000
231.00,0.002
232.00,0.001
233.00,0.000
234.00,0.003
235.00,-0.001
236.00,-0.000
237.00,-0.000
238.00,0.001
239.00,0.001
240.00,-0.002
241.00,-0.000
242.00,0.000
243.00,0.002
244.00,0.001
245.00,0.002
246.00,0.001
247.00,0.000
248.00,-0.002
249.00,-0.001
250.00,-0.001
251.00,0.000
252.00,0.000
253.00,-0.001
254.00,0.002
255.00,-0.001
256.00,-0.002
257.00,0.002
258.00,0.001
259.00,0.001
260.00,0.001
261.00,-0.001
262.00,-0.001
263.00,-0.001
264.00,0.000
265.00,0.001
266.00,0.001
267.00,0.001
268.00,0.000
269.00,0.000
270.00,0.000
271.00,-0.001
272.00,-0.001
273.00,0.000
274.00,0.001
275.00,-0.002
276.00,-0.000
277.00,0.002
278.00,0.001
279.00,-0.001
280.00,-0.001
281.00,0.001
282.00,0.001
283.00,-0.001
284.00,0.001
285.00,-0.001
286.00,0.000
287.00,0.001
288.00,-0.000
289.00,-0.000
290.00,0.002
291.00,-0.001
292.00,0.000
293.00,0.001
294.00,0.001
295.00,-0.000
296.00,-0.001
297.00,0.001
298.00,0.000
299.00,0.001
300.00,0.003
301.00,0.004
302.00,0.001
303.00,0.007
304.00,0.011
305.00,0.015
306.00,0.024
307.00,0.035
308.00,0.053
309.00,0.078
310.00,0.115
311.00,0.158
312.00,0.215
313.00,0.293
314.00,0.364
315.00,0.496
316.00,0.630
317.00,0.801
318.00,0.983
319.00,1.213
320.00,1.469
321.00,1.756
322.00,2.099
323.00,2.463
324.00,2.842
325.00,3.227
326.00,3.649
327.00,4.101
328.00,4.591
329.00,5.063
330.00,5.610
331.00,6.126
332.00,6.638
333.00,7.225
334.00,7.716
335.00,8.286
336.00,8.816
337.00,9.355
338.00,9.844
339.00,10.334
340.00,10.821
341.00,11.365
342.00,11.811
343.00,12.238
344.00,12.652
345.00,13.089
346.00,13.465
347.00,13.819
348.00,14.143
349.00,14.439
350.00,14.745
351.00,15.008
352.00,15.242
353.00,15.508
354.00,15.750
355.00,15.943
356.00,16.154
357.00,16.307
358.00,16.480
359.00,16.674
360.00,16.845
361.00,16.930
362.00,17.086
363.00,17.185
364.00,17.243
365.00,17.291
366.00,17.399
367.00,17.461
368.00,17.437
369.00,17.506
370.00,17.579
371.00,17.523
372.00,17.534
373.00,17.507
374.00,17.529
375.00,17.548
376.00,17.440
377.00,17.410
378.00,17.370
379.00,17.309
380.00,17.269
381.00,17.260
382.00,17.217
383.00,17.248
384.00,17.257
385.00,17.277
386.00,17.263
387.00,17.311
388.00,17.323
389.00,17.313
390.00,17.347
391.00,17.368
392.00,17.350
393.00,17.329
394.00,17.361
395.00,17.347
396.00,17.334
397.00,17.371
398.00,17.357
399.00,17.349
400.00,17.347
401.00,17.322
402.00,17.323
403.00,17.321
404.00,17.305
405.00,17.299
406.00,17.299
407.00,17.290
408.00,17.275
409.00,17.218
410.00,17.184
411.00,17.176
412.00,17.152
413.00,17.186
414.00,17.172
415.00,17.170
416.00,17.220
417.00,17.211
418.00,17.237
419.00,17.308
420.00,17.335
421.00,17.338
422.00,17.393
423.00,17.412
424.00,17.496
425.00,17.508
426.00,17.534
427.00,17.593
428.00,17.599
429.00,17.658
430.00,17.706
431.00,17.756
432.00,17.802
433.00,17.881
434.00,17.968
435.00,17.989
436.00,18.061
437.00,18.135
438.00,18.161
439.00,18.261
440.00,18.335
441.00,18.416
442.00,18.505
443.00,18.591
444.00,18.679
445.00,18.754
446.00,18.901
447.00,19.016
448.00,19.034
449.00,19.180
450.00,19.243
451.00,19.334
452.00,19.452
453.00,19.584
454.00,19.662
455.00,19.787
456.00,19.907
457.00,20.028
458.00,20.128
459.00,20.255
460.00,20.400
461.00,20.507
462.00,20.669
463.00,20.784
464.00,20.921
465.00,21.017
466.00,21.172
467.00,21.325
468.00,21.400
469.00,21.548
470.00,21.620
471.00,21.753
472.00,21.900
473.00,21.988
474.00,22.117
475.00,22.241
476.00,22.367
477.00,22.474
478.00,22.612
479.00,22.804
480.00,22.929
481.00,23.084
482.00,23.232
483.00,23.389
484.00,23.539
485.00,23.672
486.00,23.852
487.00,23.994
488.00,24.174
489.00,24.341
490.00,24.481
491.00,24.610
492.00,24.847
493.00,24.976
494.00,25.032
495.00,25.137
496.00,25.315
497.00,25.423
498.00,25.609
499.00,25.798
500.00,25.925
501.00,26.018
502.00,26.177
503.00,26.318
504.00,26.358
505.00,26.538
506.00,26.668
507.00,26.740
508.00,26.905
509.00,27.080
510.00,27.214
511.00,27.287
512.00,27.478
513.00,27.618
514.00,27.701
515.00,27.887
516.00,28.005
517.00,28.099
518.00,28.248
519.00,28.335
520.00,28.380
521.00,28.503
522.00,28.608
523.00,28.620
524.00,28.797
525.00,28.886
526.00,28.980
527.00,29.079
528.00,29.151
529.00,29.333
530.00,29.462
531.00,29.618
532.00,29.684
533.00,29.811
534.00,29.892
535.00,30.014
536.00,30.086
537.00,30.171
538.00,30.253
539.00,30.310
540.00,30.370
541.00,30.445
542.00,30.505
543.00,30.607
544.00,30.651
545.00,30.756
546.00,30.810
547.00,30.943
548.00,30.992
549.00,31.095
550.00,31.212
551.00,31.202
552.00,31.285
553.00,31.411
554.00,31.429
555.00,31.504
556.00,31.556
557.00,31.624
558.00,31.666
559.00,31.757
560.00,31.793
561.00,31.893
562.00,31.943
563.00,31.942
564.00,32.084
565.00,32.063
566.00,32.054
567.00,32.134
568.00,32.143
569.00,32.252
570.00,32.370
571.00,32.415
572.00,32.481
573.00,32.436
574.00,32.544
575.00,32.517
576.00,32.575
577.00,32.636
578.00,32.730
579.00,32.829
580.00,32.831
581.00,32.979
582.00,33.050
583.00,33.079
584.00,33.127
585.00,33.240
586.00,33.317
587.00,33.350
588.00,33.383
589.00,33.337
590.00,33.444
591.00,33.451
592.00,33.449
593.00,33.541
594.00,33.574
595.00,33.709
596.00,33.784
597.00,33.759
598.00,33.759
599.00,33.947
600.00,34.000
601.00,34.041
602.00,34.048
603.00,34.070
604.00,34.119
605.00,34.189
606.00,34.197
607.00,34.250
608.00,34.454
609.00,34.541
610.00,34.411
611.00,34.474
612.00,34.529
613.00,34.608
614.00,34.629
615.00,34.728
616.00,34.865
617.00,34.860
618.00,34.872
619.00,35.000
620.00,34.955
621.00,35.068
622.00,35.152
623.00,35.205
624.00,35.340
625.00,35.386
626.00,35.467
627.00,35.515
628.00,35.566
629.00,35.596
630.00,35.645
631.00,35.737
632.00,35.866
633.00,35.978
634.00,36.078
635.00,36.166
636.00,36.233
637.00,36.312
638.00,36.364
639.00,36.438
640.00,36.512
641.00,36.560
642.00,36.685
643.00,36.738
644.00,36.843
645.00,36.921
646.00,37.060
647.00,37.151
648.00,37.213
649.00,37.319
650.00,37.380
651.00,37.513
652.00,37.619
653.00,37.617
654.00,37.682
655.00,37.948
656.00,38.171
657.00,38.104
658.00,38.178
659.00,38.371
660.00,38.419
661.00,38.407
662.00,38.527
663.00,38.690
664.00,38.968
665.00,39.100
666.00,39.030
667.00,39.163
668.00,39.293
669.00,39.456
670.00,39.699
671.00,39.632
672.00,39.703
673.00,39.833
674.00,39.989
675.00,40.136
676.00,40.313
677.00,40.411
678.00,40.266
679.00,40.437
680.00,40.585
681.00,40.816
682.00,40.924
683.00,40.836
684.00,41.044
685.00,40.976
686.00,41.102
687.00,41.442
688.00,41.565
689.00,41.586
690.00,41.912
691.00,42.118
692.00,41.910
693.00,41.932
694.00,42.152
695.00,42.356
696.00,42.521
697.00,42.507
698.00,42.669
699.00,42.896
700.00,42.900
701.00,42.938
702.00,43.058
703.00,43.305
704.00,43.285
705.00,43.415
706.00,43.623
707.00,43.321
708.00,43.625
709.00,44.131
710.00,43.996
711.00,43.974
712.00,44.064
713.00,44.281
714.00,44.407
715.00,44.414
716.00,44.387
717.00,44.557
718.00,44.736
719.00,44.775
720.00,44.850
721.00,49.175
722.00,49.259
723.00,49.351
724.00,49.356
725.00,49.488
726.00,49.348
727.00,49.461
728.00,49.580
729.00,49.643
730.00,49.658
731.00,49.693
732.00,49.754
733.00,49.809
734.00,49.877
735.00,49.952
736.00,50.049
737.00,50.043
738.00,50.126
739.00,50.179
740.00,50.285
741.00,50.276
742.00,50.326
743.00,50.372
744.00,50.399
745.00,50.434
746.00,50.449
747.00,50.477
748.00,50.507
749.00,50.573
750.00,50.552
751.00,50.616
752.00,50.581
753.00,50.693
754.00,50.698
755.00,50.731
756.00,50.757
757.00,50.765
758.00,50.886
759.00,50.821
760.00,50.870
761.00,50.890
762.00,50.881
763.00,50.978
764.00,50.939
765.00,51.022
766.00,51.008
767.00,51.117
768.00,51.094
769.00,51.166
770.00,51.177
771.00,51.221
772.00,51.258
773.00,51.244
774.00,51.310
775.00,51.340
776.00,51.317
777.00,51.275
778.00,51.305
779.00,51.442
780.00,51.347
781.00,51.398
782.00,51.337
783.00,51.412
784.00,51.428
785.00,51.456
786.00,51.457
787.00,51.442
788.00,51.469
789.00,51.484
790.00,51.425
791.00,51.557
792.00,51.503
793.00,51.539
794.00,51.430
795.00,51.445
796.00,51.482
797.00,51.453
798.00,51.451
799.00,51.392
800.00,51.482
801.00,51.425
802.00,51.464
803.00,51.440
804.00,51.413
805.00,51.469
806.00,51.487
807.00,51.480
808.00,51.469
809.00,51.441
810.00,51.464
811.00,51.487
812.00,51.407
813.00,51.411
814.00,51.486
815.00,51.426
816.00,51.474
817.00,51.401
818.00,51.384
819.00,51.367
820.00,51.311
821.00,51.351
822.00,51.258
823.00,51.332
824.00,51.382
825.00,51.409
826.00,51.427
827.00,51.297
828.00,51.395
829.00,51.443
830.00,51.274
831.00,53.489
832.00,53.469
833.00,53.419
834.00,53.438
835.00,53.418
836.00,53.433
837.00,53.393
838.00,53.384
839.00,53.431
840.00,53.254
841.00,53.363
842.00,53.437
843.00,53.364
844.00,53.262
845.00,53.302
846.00,53.319
847.00,53.299
848.00,53.282
849.00,53.234
850.00,53.245
851.00,53.172
852.00,53.176
853.00,53.134
854.00,53.110
855.00,53.072
856.00,53.061
857.00,53.036
858.00,53.032
859.00,52.982
860.00,52.996
861.00,53.017
862.00,52.941
863.00,52.939
864.00,52.947
865.00,52.931
866.00,52.899
867.00,52.925
868.00,52.901
869.00,52.876
870.00,52.885
871.00,52.897
872.00,52.888
873.00,52.877
874.00,52.850
875.00,53.000
876.00,52.856
877.00,52.818
878.00,52.856
879.00,52.800
880.00,52.823
881.00,52.793
882.00,52.813
883.00,52.871
884.00,52.758
885.00,52.757
886.00,52.704
887.00,52.734
888.00,52.710
889.00,52.661
890.00,52.687
891.00,52.649
892.00,52.622
893.00,52.609
894.00,52.650
895.00,52.540
896.00,52.550
897.00,52.545
898.00,52.533
899.00,52.518
900.00,52.488
901.00,52.483
902.00,52.472
903.00,52.440
904.00,52.432
905.00,52.406
906.00,52.448
907.00,52.413
908.00,52.363
909.00,52.370
910.00,52.333
911.00,52.339
912.00,52.325
913.00,52.292
914.00,52.270
915.00,52.227
916.00,52.216
917.00,52.228
918.00,52.227
919.00,52.196
920.00,52.169
921.00,52.177
922.00,52.080
923.00,52.170
924.00,52.092
925.00,52.079
926.00,52.052
927.00,52.053
928.00,52.010
929.00,52.017
930.00,51.979
931.00,51.967
932.00,51.921
933.00,51.959
934.00,51.791
935.00,51.902
936.00,51.886
937.00,51.841
938.00,51.869
939.00,51.841
940.00,51.809
941.00,51.808
942.00,51.791
943.00,51.788
944.00,51.746
945.00,51.742
946.00,51.739
947.00,51.687
948.00,51.663
949.00,51.639
950.00,51.657
951.00,51.622
952.00,51.602
953.00,51.565
954.00,51.572
955.00,51.511
956.00,51.522
957.00,51.473
958.00,51.478
959.00,51.432
960.00,51.426
961.00,51.411
962.00,51.409
963.00,51.370
964.00,51.353
965.00,51.368
966.00,51.341
967.00,51.341
968.00,51.301
969.00,51.339
970.00,51.321
971.00,51.319
972.00,51.271
973.00,51.322
974.00,51.347
975.00,51.308
976.00,51.326
977.00,51.314
978.00,51.350
979.00,51.287
980.00,51.304
981.00,51.315
982.00,51.275
983.00,51.286
984.00,51.335
985.00,51.314
986.00,51.260
987.00,51.276
988.00,51.249
989.00,51.249
990.00,51.227
991.00,51.214
992.00,51.251
993.00,51.204
994.00,51.194
995.00,51.190
996.00,51.181
997.00,51.162
998.00,51.140
999.00,51.168
1000.00,51.113
1001.00,51.115
1002.00,51.116
1003.00,51.100
1004.00,51.077
1005.00,51.034
1006.00,51.090
1007.00,51.050
1008.00,51.040
1009.00,51.018
1010.00,51.009
1011.00,51.000
1012.00,50.970
1013.00,50.964
1014.00,50.939
1015.00,50.947
1016.00,50.913
1017.00,50.909
1018.00,50.896
1019.00,50.859
1020.00,50.870
1021.00,50.831
1022.00,50.852
1023.00,50.781
1024.00,50.778
1025.00,50.781
1026.00,50.776
1027.00,50.755
1028.00,50.741
1029.00,50.730
1030.00,50.689
1031.00,50.702
1032.00,50.657
1033.00,50.671
1034.00,50.640
1035.00,50.601
1036.00,50.598
1037.00,50.576
1038.00,50.552
1039.00,50.531
1040.00,50.512
1041.00,50.478
1042.00,50.471
1043.00,50.458
1044.00,50.497
1045.00,50.476
1046.00,50.435
1047.00,50.485
1048.00,50.486
1049.00,50.492
1050.00,50.499
1051.00,50.531
1052.00,50.536
1053.00,50.536
1054.00,50.530
1055.00,50.558
1056.00,50.570
1057.00,50.553
1058.00,50.574
1059.00,50.566
1060.00,50.554
1061.00,50.548
1062.00,50.524
1063.00,50.524
1064.00,50.528
1065.00,50.510
1066.00,50.496
1067.00,50.480
1068.00,50.506
1069.00,50.474
1070.00,50.445
1071.00,50.435
1072.00,50.454
1073.00,50.416
1074.00,50.425
1075.00,50.407
1076.00,50.414
1077.00,50.396
1078.00,50.375
1079.00,50.373
1080.00,50.374
1081.00,50.348
1082.00,50.343
1083.00,50.342
1084.00,50.314
1085.00,50.326
1086.00,50.310
1087.00,50.300
1088.00,50.278
1089.00,50.280
1090.00,50.271
1091.00,50.268
1092.00,50.265
1093.00,50.242
1094.00,50.246
1095.00,50.219
1096.00,50.221
1097.00,50.226
1098.00,50.208
1099.00,50.216
1100.00,50.189
1101.00,50.167
1102.00,50.161
1103.00,50.169
1104.00,50.151
1105.00,50.143
1106.00,50.140
1107.00,50.142
1108.00,50.119
1109.00,50.118
1110.00,50.108
1111.00,50.109
1112.00,50.080
1113.00,50.067
1114.00,50.052
1115.00,50.045
1116.00,50.047
1117.00,50.023
1118.00,50.024
1119.00,50.020
1120.00,50.011
1121.00,50.019
1122.00,49.996
1123.00,49.987
1124.00,49.982
1125.00,49.980
1126.00,49.970
1127.00,49.981
1128.00,49.959
1129.00,49.945
1130.00,49.942
1131.00,49.932
1132.00,49.926
1133.00,49.931
1134.00,49.907
1135.00,49.898
1136.00,49.911
1137.00,49.908
1138.00,49.897
1139.00,49.907
1140.00,49.896
1141.00,49.889
1142.00,49.869
1143.00,49.863
1144.00,49.854
1145.00,49.853
1146.00,49.860
1147.00,49.835
1148.00,49.824
1149.00,49.844
1150.00,49.834
1151.00,49.839
1152.00,49.837
1153.00,49.836
1154.00,49.829
1155.00,49.839
1156.00,49.816
1157.00,49.811
1158.00,49.801
1159.00,49.813
1160.00,49.802
1161.00,49.801
1162.00,49.792
1163.00,49.796
1164.00,49.786
1165.00,49.791
1166.00,49.794
1167.00,49.777
1168.00,49.794
1169.00,49.794
1170.00,49.789
1171.00,49.781
1172.00,49.775
1173.00,49.770
1174.00,49.767
1175.00,49.754
1176.00,49.755
1177.00,49.734
1178.00,49.739
1179.00,49.766
1180.00,49.748
1181.00,49.771
1182.00,49.770
1183.00,49.746
1184.00,49.755
1185.00,49.760
1186.00,49.745
1187.00,49.743
1188.00,49.742
1189.00,49.740
1190.00,49.739
1191.00,49.731
1192.00,49.750
1193.00,49.745
1194.00,49.734
1195.00,49.717
1196.00,49.745
1197.00,49.739
1198.00,49.731
1199.00,49.731
1200.00,49.727
1201.00,49.741
1202.00,49.724
1203.00,49.714
1204.00,49.710
1205.00,49.733
1206.00,49.714
1207.00,49.708
1208.00,49.691
1209.00,49.692
1210.00,49.698
1211.00,49.705
1212.00,49.723
1213.00,49.675
1214.00,49.699
1215.00,49.691
1216.00,49.680
1217.00,49.694
1218.00,49.676
1219.00,49.695
1220.00,49.672
1221.00,49.703
1222.00,49.682
1223.00,49.710
1224.00,49.703
1225.00,49.697
1226.00,49.722
1227.00,49.686
1228.00,49.719
1229.00,49.733
1230.00,49.743
1231.00,49.734
1232.00,49.738
1233.00,49.736
1234.00,49.728
1235.00,49.731
1236.00,49.735
1237.00,49.742
1238.00,49.744
1239.00,49.756
1240.00,49.757
1241.00,49.751
1242.00,49.754
1243.00,49.767
1244.00,49.727
1245.00,49.764
1246.00,49.767
1247.00,49.740
1248.00,49.736
1249.00,49.746
1250.00,49.759
1251.00,49.750
1252.00,49.767
1253.00,49.752
1254.00,49.785
1255.00,49.770
1256.00,49.758
1257.00,49.745
1258.00,49.796
1259.00,49.796
1260.00,49.801
1261.00,49.809
1262.00,49.793
1263.00,49.784
1264.00,49.794
1265.00,49.801
1266.00,49.790
1267.00,49.811
1268.00,49.816
1269.00,49.813
1270.00,49.830
1271.00,49.829
1272.00,49.834
1273.00,49.848
1274.00,49.831
1275.00,49.853
1276.00,49.858
1277.00,49.827
1278.00,49.858
1279.00,49.848
1280.00,49.844
1281.00,49.863
1282.00,49.852
1283.00,49.861
1284.00,49.838
1285.00,49.862
1286.00,49.899
1287.00,49.902
1288.00,49.897
1289.00,49.877
1290.00,49.895
1291.00,49.888
1292.00,49.899
1293.00,49.881
1294.00,49.900
1295.00,49.913
1296.00,49.918
1297.00,49.925
1298.00,49.954
1299.00,49.927
1300.00,49.953
1301.00,49.946
1302.00,49.963
1303.00,49.975
1304.00,49.929
1305.00,49.953
1306.00,49.966
1307.00,49.959
1308.00,49.967
1309.00,49.955
1310.00,49.979
1311.00,49.982
1312.00,49.973
1313.00,49.979
1314.00,49.991
1315.00,49.998
1316.00,49.996
1317.00,50.029
1318.00,50.014
1319.00,50.014
1320.00,50.037
1321.00,50.196
1322.00,50.207
1323.00,50.192
1324.00,50.176
1325.00,50.165
1326.00,50.190
1327.00,50.193
1328.00,50.178
1329.00,50.188
1330.00,50.192
1331.00,50.179
1332.00,50.145
1333.00,50.157
1334.00,50.188
1335.00,50.198
1336.00,50.223
1337.00,50.266
1338.00,50.334
1339.00,50.377
1340.00,50.423
1341.00,50.488
1342.00,50.548
1343.00,50.590
1344.00,50.646
1345.00,50.710
1346.00,50.743
1347.00,50.762
1348.00,50.802
1349.00,50.812
1350.00,50.830
1351.00,50.819
1352.00,50.844
1353.00,50.867
1354.00,50.848
1355.00,50.803
1356.00,50.878
1357.00,50.852
1358.00,50.856
1359.00,50.870
1360.00,50.962
1361.00,51.349
1362.00,50.830
1363.00,50.918
1364.00,50.994
1365.00,50.874
1366.00,50.909
1367.00,50.859
1368.00,50.785
1369.00,50.867
1370.00,50.860
1371.00,50.807
1372.00,50.834
1373.00,50.863
1374.00,50.868
1375.00,50.856
1376.00,50.812
1377.00,50.816
1378.00,50.864
1379.00,50.880
1380.00,50.837
1381.00,50.904
1382.00,50.812
1383.00,50.841
1384.00,50.761
1385.00,50.769
1386.00,50.856
1387.00,50.845
1388.00,50.784
1389.00,50.805
1390.00,50.851
1391.00,50.825
1392.00,50.808
1393.00,50.757
1394.00,50.828
1395.00,50.719
1396.00,50.897
1397.00,50.836
1398.00,50.874
1399.00,50.791
1400.00,50.786
1401.00,50.803
1402.00,50.882
1403.00,50.856
1404.00,50.845
1405.00,50.871
1406.00,50.888
1407.00,50.906
1408.00,50.938
1409.00,50.875
1410.00,50.913
1411.00,50.913
1412.00,50.955
1413.00,50.873
1414.00,50.882
1415.00,50.945
1416.00,50.952
1417.00,50.970
1418.00,50.943
1419.00,50.961
1420.00,50.972
1421.00,51.022
1422.00,51.007
1423.00,51.032
1424.00,51.031
1425.00,51.050
1426.00,51.065
1427.00,51.070
1428.00,51.068
1429.00,51.094
1430.00,51.100
1431.00,51.104
1432.00,51.120
1433.00,51.145
1434.00,51.141
1435.00,51.177
1436.00,51.189
1437.00,51.188
1438.00,51.208
1439.00,51.229
1440.00,51.254
1441.00,51.250
1442.00,51.242
1443.00,51.283
1444.00,51.333
1445.00,51.286
1446.00,51.291
1447.00,51.331
1448.00,51.368
1449.00,51.373
1450.00,51.368
1451.00,51.390
1452.00,51.415
1453.00,51.399
1454.00,51.429
1455.00,51.454
1456.00,51.492
1457.00,51.474
1458.00,51.490
1459.00,51.528
1460.00,51.557
1461.00,51.560
1462.00,51.606
1463.00,51.581
1464.00,51.563
1465.00,51.600
1466.00,51.604
1467.00,51.603
1468.00,51.646
1469.00,51.631
1470.00,51.646
1471.00,51.664
1472.00,51.679
1473.00,51.698
1474.00,51.756
1475.00,51.736
1476.00,51.750
1477.00,51.733
1478.00,51.750
1479.00,51.767
1480.00,51.767
1481.00,51.774
1482.00,51.810
1483.00,51.804
1484.00,51.824
1485.00,51.830
1486.00,51.825
1487.00,51.851
1488.00,51.875
1489.00,51.859
1490.00,51.887
1491.00,51.898
1492.00,51.925
1493.00,51.904
1494.00,51.925
1495.00,51.937
1496.00,51.952
1497.00,51.934
1498.00,51.965
1499.00,51.982
1500.00,52.009
1501.00, 
1502.00, 
1503.00, 
1504.00, 
1505.00, 
1506.00, 
1507.00, 
1508.00, 
1509.00, 
1510.00, 
1511.00, 
1512.00, 
1513.00, 
1514.00, 
1515.00, 
1516.00, 
1517.00, 
1518.00, 
1519.00, 
1520.00, 
1521.00, 
1522.00, 
1523.00, 
1524.00, 
1525.00, 
1526.00, 
1527.00, 
1528.00, 
1529.00, 
1530.00, 
1531.00, 
1532.00, 
1533.00, 
1534.00, 
1535.00, 
1536.00, 
1537.00, 
1538.00, 
1539.00, 
1540.00, 
1541.00, 
1542.00, 
1543.00, 
1544.00, 
1545.00, 
1546.00, 
1547.00, 
1548.00, 
1549.00, 
1550.00, 
1551.00, 
1552.00, 
1553.00, 
1554.00, 
1555.00, 
1556.00, 
1557.00, 
1558.00, 
1559.00, 
1560.00, 
1561.00, 
1562.00, 
1563.00, 
1564.00, 
1565.00, 
1566.00, 
1567.00, 
1568.00, 
1569.00, 
1570.00, 
1571.00, 
1572.00, 
1573.00, 
1574.00, 
1575.00, 
1576.00, 
1577.00, 
1578.00, 
1579.00, 
1580.00, 
1581.00, 
1582.00, 
1583.00, 
1584.00, 
1585.00, 
1586.00, 
1587.00, 
1588.00, 
1589.00, 
1590.00, 
1591.00, 
1592.00, 
1593.00, 
1594.00, 
1595.00, 
1596.00, 
1597.00, 
1598.00, 
1599.00, 
1600.00, 
1601.00, 
1602.00, 
1603.00, 
1604.00, 
1605.00, 
1606.00, 
1607.00, 
1608.00, 
1609.00, 
1610.00, 
1611.00, 
1612.00, 
1613.00, 
1614.00, 
1615.00, 
1616.00, 
1617.00, 
1618.00, 
1619.00, 
1620.00, 
1621.00, 
1622.00, 
1623.00, 
1624.00, 
1625.00, 
1626.00, 
1627.00, 
1628.00, 
1629.00, 
1630.00, 
1631.00, 
1632.00, 
1633.00, 
1634.00, 
1635.00, 
1636.00, 
1637.00, 
1638.00, 
1639.00, 
1640.00, 
1641.00, 
1642.00, 
1643.00, 
1644.00, 
1645.00, 
1646.00, 
1647.00, 
1648.00, 
1649.00, 
1650.00, 
1651.00, 
1652.00, 
1653.00, 
1654.00, 
1655.00, 
1656.00, 
1657.00, 
1658.00, 
1659.00, 
1660.00, 
1661.00, 
1662.00, 
1663.00, 
1664.00, 
1665.00, 
1666.00, 
1667.00, 
1668.00, 
1669.00, 
1670.00, 
1671.00, 
1672.00, 
1673.00, 
1674.00, 
1675.00, 
1676.00, 
1677.00, 
1678.00, 
1679.00, 
1680.00, 
1681.00, 
1682.00, 
1683.00, 
1684.00, 
1685.00, 
1686.00, 
1687.00, 
1688.00, 
1689.00, 
1690.00, 
1691.00, 
1692.00, 
1693.00, 
1694.00, 
1695.00, 
1696.00, 
1697.00, 
1698.00, 
1699.00, 
1700.00, 
1701.00, 
1702.00, 
1703.00, 
1704.00, 
1705.00, 
1706.00, 
1707.00, 
1708.00, 
1709.00, 
1710.00, 
1711.00, 
1712.00, 
1713.00, 
1714.00, 
1715.00, 
1716.00, 
1717.00, 
1718.00, 
1719.00, 
1720.00, 
1721.00, 
1722.00, 
1723.00, 
1724.00, 
1725.00, 
1726.00, 
1727.00, 
1728.00, 
1729.00, 
1730.00, 
1731.00, 
1732.00, 
1733.00, 
1734.00, 
1735.00, 
1736.00, 
1737.00, 
1738.00, 
1739.00, 
1740.00, 
1741.00, 
1742.00, 
1743.00, 
1744.00, 
1745.00, 
1746.00, 
1747.00, 
1748.00, 
1749.00, 
1750.00, 
1751.00, 
1752.00, 
1753.00, 
1754.00, 
1755.00, 
1756.00, 
1757.00, 
1758.00, 
1759.00, 
1760.00, 
1761.00, 
1762.00, 
1763.00, 
1764.00, 
1765.00, 
1766.00, 
1767.00, 
1768.00, 
1769.00, 
1770.00, 
1771.00, 
1772.00, 
1773.00, 
1774.00, 
1775.00, 
1776.00, 
1777.00, 
1778.00, 
1779.00, 
1780.00, 
1781.00, 
1782.00, 
1783.00, 
1784.00, 
1785.00, 
1786.00, 
1787.00, 
1788.00, 
1789.00, 
1790.00, 
1791.00, 
1792.00, 
1793.00, 
1794.00, 
1795.00, 
1796.00, 
1797.00, 
1798.00, 
1799.00, 
1800.00, 
1801.00, 
1802.00, 
1803.00, 
1804.00, 
1805.00, 
1806.00, 
1807.00, 
1808.00, 
1809.00, 
1810.00, 
1811.00, 
1812.00, 
1813.00, 
1814.00, 
1815.00, 
1816.00, 
1817.00, 
1818.00, 
1819.00, 
1820.00, 
1821.00, 
1822.00, 
1823.00, 
1824.00, 
1825.00, 
1826.00, 
1827.00, 
1828.00, 
1829.00, 
1830.00, 
1831.00, 
1832.00, 
1833.00, 
1834.00, 
1835.00, 
1836.00, 
1837.00, 
1838.00, 
1839.00, 
1840.00, 
1841.00, 
1842.00, 
1843.00, 
1844.00, 
1845.00, 
1846.00, 
1847.00, 
1848.00, 
1849.00, 
1850.00, 
1851.00, 
1852.00, 
1853.00, 
1854.00, 
1855.00, 
1856.00, 
1857.00, 
1858.00, 
1859.00, 
1860.00, 
1861.00, 
1862.00, 
1863.00, 
1864.00, 
1865.00, 
1866.00, 
1867.00, 
1868.00, 
1869.00, 
1870.00, 
1871.00, 
1872.00, 
1873.00, 
1874.00, 
1875.00, 
1876.00, 
1877.00, 
1878.00, 
1879.00, 
1880.00, 
1881.00, 
1882.00, 
1883.00, 
1884.00, 
1885.00, 
1886.00, 
1887.00, 
1888.00, 
1889.00, 
1890.00, 
1891.00, 
1892.00, 
1893.00, 
1894.00, 
1895.00, 
1896.00, 
1897.00, 
1898.00, 
1899.00, 
1900.00, 
1901.00, 
1902.00, 
1903.00, 
1904.00, 
1905.00, 
1906.00, 
1907.00, 
1908.00, 
1909.00, 
1910.00, 
1911.00, 
1912.00, 
1913.00, 
1914.00, 
1915.00, 
1916.00, 
1917.00, 
1918.00, 
1919.00, 
1920.00, 
1921.00, 
1922.00, 
1923.00, 
1924.00, 
1925.00, 
1926.00, 
1927.00, 
1928.00, 
1929.00, 
1930.00, 
1931.00, 
1932.00, 
1933.00, 
1934.00, 
1935.00, 
1936.00, 
1937.00, 
1938.00, 
1939.00, 
1940.00, 
1941.00, 
1942.00, 
1943.00, 
1944.00, 
1945.00, 
1946.00, 
1947.00, 
1948.00, 
1949.00, 
1950.00, 
1951.00, 
1952.00, 
1953.00, 
1954.00, 
1955.00, 
1956.00, 
1957.00, 
1958.00, 
1959.00, 
1960.00, 
1961.00, 
1962.00, 
1963.00, 
1964.00, 
1965.00, 
1966.00, 
1967.00, 
1968.00, 
1969.00, 
1970.00, 
1971.00, 
1972.00, 
1973.00, 
1974.00, 
1975.00, 
1976.00, 
1977.00, 
1978.00, 
1979.00, 
1980.00, 
1981.00, 
1982.00, 
1983.00, 
1984.00, 
1985.00, 
1986.00, 
1987.00, 
1988.00, 
1989.00, 
1990.00, 
1991.00, 
1992.00, 
1993.00, 
1994.00, 
1995.00, 
1996.00, 
1997.00, 
1998.00, 
1999.00, 
2000.00, 
2001.00, 
2002.00, 
2003.00, 
2004.00, 
2005.00, 
2006.00, 
2007.00, 
2008.00, 
2009.00, 
2010.00, 
2011.00, 
2012.00, 
2013.00, 
2014.00, 
2015.00, 
2016.00, 
2017.00, 
2018.00, 
2019.00, 
2020.00, 
2021.00, 
2022.00, 
2023.00, 
2024.00, 
2025.00, 
2026.00, 
2027.00, 
2028.00, 
2029.00, 
2030.00, 
2031.00, 
2032.00, 
2033.00, 
2034.00, 
2035.00, 
2036.00, 
2037.00, 
2038.00, 
2039.00, 
2040.00, 
2041.00, 
2042.00, 
2043.00, 
2044.00, 
2045.00, 
2046.00, 
2047.00, 
2048.00, 
2049.00, 
2050.00, 
2051.00, 
2052.00, 
2053.00, 
2054.00, 
2055.00, 
2056.00, 
2057.00, 
2058.00, 
2059.00, 
2060.00, 
2061.00, 
2062.00, 
2063.00, 
2064.00, 
2065.00, 
2066.00, 
2067.00, 
2068.00, 
2069.00, 
2070.00, 
2071.00, 
2072.00, 
2073.00, 
2074.00, 
2075.00, 
2076.00, 
2077.00, 
2078.00, 
2079.00, 
2080.00, 
2081.00, 
2082.00, 
2083.00, 
2084.00, 
2085.00, 
2086.00, 
2087.00, 
2088.00, 
2089.00, 
2090.00, 
2091.00, 
2092.00, 
2093.00, 
2094.00, 
2095.00, 
2096.00, 
2097.00, 
2098.00, 
2099.00, 
2100.00, 
2101.00, 
2102.00, 
2103.00, 
2104.00, 
2105.00, 
2106.00, 
2107.00, 
2108.00, 
2109.00, 
2110.00, 
2111.00, 
2112.00, 
2113.00, 
2114.00, 
2115.00, 
2116.00, 
2117.00, 
2118.00, 
2119.00, 
2120.00, 
2121.00, 
2122.00, 
2123.00, 
2124.00, 
2125.00, 
2126.00, 
2127.00, 
2128.00, 
2129.00, 
2130.00, 
2131.00, 
2132.00, 
2133.00, 
2134.00, 
2135.00, 
2136.00, 
2137.00, 
2138.00, 
2139.00, 
2140.00, 
2141.00, 
2142.00, 
2143.00, 
2144.00, 
2145.00, 
2146.00, 
2147.00, 
2148.00, 
2149.00, 
2150.00, 
2151.00, 
2152.00, 
2153.00, 
2154.00, 
2155.00, 
2156.00, 
2157.00, 
2158.00, 
2159.00, 
2160.00, 
2161.00, 
2162.00, 
2163.00, 
2164.00, 
2165.00, 
2166.00, 
2167.00, 
2168.00, 
2169.00, 
2170.00, 
2171.00, 
2172.00, 
2173.00, 
2174.00, 
2175.00, 
2176.00, 
2177.00, 
2178.00, 
2179.00, 
2180.00, 
2181.00, 
2182.00, 
2183.00, 
2184.00, 
2185.00, 
2186.00, 
2187.00, 
2188.00, 
2189.00, 
2190.00, 
2191.00, 
2192.00, 
2193.00, 
2194.00, 
2195.00, 
2196.00, 
2197.00, 
2198.00, 
2199.00, 
2200.00, 
2201.00, 
2202.00, 
2203.00, 
2204.00, 
2205.00, 
2206.00, 
2207.00, 
2208.00, 
2209.00, 
2210.00, 
2211.00, 
2212.00, 
2213.00, 
2214.00, 
2215.00, 
2216.00, 
2217.00, 
2218.00, 
2219.00, 
2220.00, 
2221.00, 
2222.00, 
2223.00, 
2224.00, 
2225.00, 
2226.00, 
2227.00, 
2228.00, 
2229.00, 
2230.00, 
2231.00, 
2232.00, 
2233.00, 
2234.00, 
2235.00, 
2236.00, 
2237.00, 
2238.00, 
2239.00, 
2240.00, 
2241.00, 
2242.00, 
2243.00, 
2244.00, 
2245.00, 
2246.00, 
2247.00, 
2248.00, 
2249.00, 
2250.00, 
2251.00, 
2252.00, 
2253.00, 
2254.00, 
2255.00, 
2256.00, 
2257.00, 
2258.00, 
2259.00, 
2260.00, 
2261.00, 
2262.00, 
2263.00, 
2264.00, 
2265.00, 
2266.00, 
2267.00, 
2268.00, 
2269.00, 
2270.00, 
2271.00, 
2272.00, 
2273.00, 
2274.00, 
2275.00, 
2276.00, 
2277.00, 
2278.00, 
2279.00, 
2280.00, 
2281.00, 
2282.00, 
2283.00, 
2284.00, 
2285.00, 
2286.00, 
2287.00, 
2288.00, 
2289.00, 
2290.00, 
2291.00, 
2292.00, 
2293.00, 
2294.00, 
2295.00, 
2296.00, 
2297.00, 
2298.00, 
2299.00, 
2300.00, 
2301.00, 
2302.00, 
2303.00, 
2304.00, 
2305.00, 
2306.00, 
2307.00, 
2308.00, 
2309.00, 
2310.00, 
2311.00, 
2312.00, 
2313.00, 
2314.00, 
2315.00, 
2316.00, 
2317.00, 
2318.00, 
2319.00, 
2320.00, 
2321.00, 
2322.00, 
2323.00, 
2324.00, 
2325.00, 
2326.00, 
2327.00, 
2328.00, 
2329.00, 
2330.00, 
2331.00, 
2332.00, 
2333.00, 
2334.00, 
2335.00, 
2336.00, 
2337.00, 
2338.00, 
2339.00, 
2340.00, 
2341.00, 
2342.00, 
2343.00, 
2344.00, 
2345.00, 
2346.00, 
2347.00, 
2348.00, 
2349.00, 
2350.00, 
2351.00, 
2352.00, 
2353.00, 
2354.00, 
2355.00, 
2356.00, 
2357.00, 
2358.00, 
2359.00, 
2360.00, 
2361.00, 
2362.00, 
2363.00, 
2364.00, 
2365.00, 
2366.00, 
2367.00, 
2368.00, 
2369.00, 
2370.00, 
2371.00, 
2372.00, 
2373.00, 
2374.00, 
2375.00, 
2376.00, 
2377.00, 
2378.00, 
2379.00, 
2380.00, 
2381.00, 
2382.00, 
2383.00, 
2384.00, 
2385.00, 
2386.00, 
2387.00, 
2388.00, 
2389.00, 
2390.00, 
2391.00, 
2392.00, 
2393.00, 
2394.00, 
2395.00, 
2396.00, 
2397.00, 
2398.00, 
2399.00, 
2400.00, 
2401.00, 
2402.00, 
2403.00, 
2404.00, 
2405.00, 
2406.00, 
2407.00, 
2408.00, 
2409.00, 
2410.00, 
2411.00, 
2412.00, 
2413.00, 
2414.00, 
2415.00, 
2416.00, 
2417.00, 
2418.00, 
2419.00, 
2420.00, 
2421.00, 
2422.00, 
2423.00, 
2424.00, 
2425.00, 
2426.00, 
2427.00, 
2428.00, 
2429.00, 
2430.00, 
2431.00, 
2432.00, 
2433.00, 
2434.00, 
2435.00, 
2436.00, 
2437.00, 
2438.00, 
2439.00, 
2440.00, 
2441.00, 
2442.00, 
2443.00, 
2444.00, 
2445.00, 
2446.00, 
2447.00, 
2448.00, 
2449.00, 
2450.00, 
2451.00, 
2452.00, 
2453.00, 
2454.00, 
2455.00, 
2456.00, 
2457.00, 
2458.00, 
2459.00, 
2460.00, 
2461.00, 
2462.00, 
2463.00, 
2464.00, 
2465.00, 
2466.00, 
2467.00, 
2468.00, 
2469.00, 
2470.00, 
2471.00, 
2472.00, 
2473.00, 
2474.00, 
2475.00, 
2476.00, 
2477.00, 
2478.00, 
2479.00, 
2480.00, 
2481.00, 
2482.00, 
2483.00, 
2484.00, 
2485.00, 
2486.00, 
2487.00, 
2488.00, 
2489.00, 
2490.00, 
2491.00, 
2492.00, 
2493.00, 
2494.00, 
2495.00, 
2496.00, 
2497.00, 
2498.00, 
2499.00, 
2500.00, 
2501.00, 
2502.00, 
2503.00, 
2504.00, 
2505.00, 
2506.00, 
2507.00, 
2508.00, 
2509.00, 
2510.00, 
2511.00, 
2512.00, 
2513.00, 
2514.00, 
2515.00, 
2516.00, 
2517.00, 
2518.00, 
2519.00, 
2520.00, 
2521.00, 
2522.00, 
2523.00, 
2524.00, 
2525.00, 
2526.00, 
2527.00, 
2528.00, 
2529.00, 
2530.00, 
2531.00, 
2532.00, 
2533.00, 
2534.00, 
2535.00, 
2536.00, 
2537.00, 
2538.00, 
2539.00, 
2540.00, 
2541.00, 
2542.00, 
2543.00, 
2544.00, 
2545.00, 
2546.00, 
2547.00, 
2548.00, 
2549.00, 
2550.00, 
2551.00, 
2552.00, 
2553.00, 
2554.00, 
2555.00, 
2556.00, 
2557.00, 
2558.00, 
2559.00, 
2560.00, 
2561.00, 
2562.00, 
2563.00, 
2564.00, 
2565.00, 
2566.00, 
2567.00, 
2568.00, 
2569.00, 
2570.00, 
2571.00, 
2572.00, 
2573.00, 
2574.00, 
2575.00, 
2576.00, 
2577.00, 
2578.00, 
2579.00, 
2580.00, 
2581.00, 
2582.00, 
2583.00, 
2584.00, 
2585.00, 
2586.00, 
2587.00, 
2588.00, 
2589.00, 
2590.00, 
2591.00, 
2592.00, 
2593.00, 
2594.00, 
2595.00, 
2596.00, 
2597.00, 
2598.00, 
2599.00, 
2600.00, 
