"2bP2 - RawData"
"Wavelength nm.","T%"
200.00,0.001
201.00,0.001
202.00,0.001
203.00,0.002
204.00,0.000
205.00,-0.001
206.00,0.002
207.00,0.002
208.00,-0.001
209.00,0.003
210.00,0.000
211.00,0.003
212.00,0.003
213.00,0.002
214.00,0.001
215.00,0.002
216.00,0.002
217.00,-0.004
218.00,0.001
219.00,0.002
220.00,0.001
221.00,-0.000
222.00,0.002
223.00,0.003
224.00,0.001
225.00,0.000
226.00,0.001
227.00,0.001
228.00,-0.001
229.00,0.001
230.00,0.001
231.00,0.001
232.00,-0.002
233.00,-0.001
234.00,-0.000
235.00,0.001
236.00,0.001
237.00,-0.000
238.00,0.000
239.00,0.002
240.00,0.001
241.00,-0.001
242.00,0.001
243.00,0.001
244.00,0.002
245.00,-0.001
246.00,0.000
247.00,0.000
248.00,0.001
249.00,0.000
250.00,0.002
251.00,-0.001
252.00,-0.000
253.00,0.001
254.00,0.001
255.00,-0.002
256.00,0.000
257.00,-0.000
258.00,0.001
259.00,-0.002
260.00,-0.001
261.00,-0.002
262.00,-0.001
263.00,-0.001
264.00,0.001
265.00,-0.000
266.00,-0.000
267.00,0.000
268.00,-0.002
269.00,0.000
270.00,-0.000
271.00,0.001
272.00,-0.001
273.00,0.001
274.00,0.001
275.00,0.001
276.00,-0.000
277.00,-0.001
278.00,-0.001
279.00,0.001
280.00,-0.001
281.00,0.001
282.00,0.000
283.00,0.000
284.00,0.002
285.00,-0.000
286.00,0.001
287.00,0.002
288.00,0.002
289.00,-0.003
290.00,0.000
291.00,0.000
292.00,0.001
293.00,0.000
294.00,-0.002
295.00,0.002
296.00,0.000
297.00,-0.000
298.00,-0.001
299.00,0.000
300.00,0.002
301.00,0.004
302.00,0.006
303.00,0.008
304.00,0.015
305.00,0.022
306.00,0.036
307.00,0.051
308.00,0.082
309.00,0.120
310.00,0.167
311.00,0.232
312.00,0.310
313.00,0.420
314.00,0.552
315.00,0.698
316.00,0.886
317.00,1.129
318.00,1.375
319.00,1.671
320.00,2.038
321.00,2.431
322.00,2.862
323.00,3.354
324.00,3.873
325.00,4.400
326.00,4.946
327.00,5.565
328.00,6.173
329.00,6.825
330.00,7.498
331.00,8.159
332.00,8.857
333.00,9.571
334.00,10.248
335.00,10.951
336.00,11.638
337.00,12.322
338.00,13.021
339.00,13.629
340.00,14.270
341.00,14.926
342.00,15.473
343.00,16.035
344.00,16.583
345.00,17.160
346.00,17.615
347.00,18.037
348.00,18.448
349.00,18.888
350.00,19.245
351.00,19.598
352.00,19.902
353.00,20.233
354.00,20.523
355.00,20.816
356.00,21.078
357.00,21.305
358.00,21.500
359.00,21.746
360.00,21.964
361.00,22.126
362.00,22.264
363.00,22.431
364.00,22.521
365.00,22.610
366.00,22.719
367.00,22.796
368.00,22.841
369.00,22.867
370.00,22.954
371.00,22.957
372.00,22.968
373.00,22.950
374.00,22.998
375.00,22.986
376.00,22.910
377.00,22.881
378.00,22.828
379.00,22.753
380.00,22.765
381.00,22.718
382.00,22.710
383.00,22.708
384.00,22.721
385.00,22.760
386.00,22.717
387.00,22.818
388.00,22.892
389.00,22.872
390.00,22.876
391.00,22.914
392.00,22.945
393.00,22.912
394.00,22.977
395.00,23.025
396.00,22.969
397.00,22.938
398.00,22.965
399.00,22.985
400.00,22.939
401.00,22.975
402.00,22.898
403.00,22.976
404.00,22.958
405.00,22.961
406.00,22.917
407.00,22.906
408.00,22.892
409.00,22.824
410.00,22.805
411.00,22.797
412.00,22.765
413.00,22.780
414.00,22.761
415.00,22.764
416.00,22.825
417.00,22.848
418.00,22.832
419.00,22.863
420.00,22.915
421.00,22.964
422.00,23.007
423.00,22.983
424.00,23.047
425.00,23.071
426.00,23.147
427.00,23.163
428.00,23.225
429.00,23.240
430.00,23.284
431.00,23.364
432.00,23.420
433.00,23.458
434.00,23.517
435.00,23.582
436.00,23.647
437.00,23.720
438.00,23.774
439.00,23.864
440.00,23.919
441.00,24.002
442.00,24.102
443.00,24.133
444.00,24.264
445.00,24.304
446.00,24.435
447.00,24.538
448.00,24.629
449.00,24.734
450.00,24.850
451.00,24.924
452.00,25.008
453.00,25.160
454.00,25.231
455.00,25.329
456.00,25.452
457.00,25.562
458.00,25.697
459.00,25.816
460.00,25.938
461.00,26.085
462.00,26.149
463.00,26.305
464.00,26.417
465.00,26.582
466.00,26.716
467.00,26.830
468.00,26.931
469.00,27.070
470.00,27.146
471.00,27.225
472.00,27.381
473.00,27.419
474.00,27.526
475.00,27.676
476.00,27.735
477.00,27.887
478.00,28.016
479.00,28.184
480.00,28.309
481.00,28.427
482.00,28.559
483.00,28.729
484.00,28.899
485.00,29.029
486.00,29.206
487.00,29.400
488.00,29.531
489.00,29.614
490.00,29.775
491.00,29.917
492.00,30.162
493.00,30.300
494.00,30.333
495.00,30.468
496.00,30.563
497.00,30.698
498.00,30.833
499.00,31.007
500.00,31.148
501.00,31.220
502.00,31.401
503.00,31.501
504.00,31.577
505.00,31.683
506.00,31.823
507.00,31.920
508.00,32.018
509.00,32.207
510.00,32.302
511.00,32.385
512.00,32.552
513.00,32.699
514.00,32.790
515.00,32.954
516.00,33.055
517.00,33.099
518.00,33.235
519.00,33.287
520.00,33.336
521.00,33.429
522.00,33.523
523.00,33.599
524.00,33.654
525.00,33.780
526.00,33.915
527.00,33.948
528.00,34.036
529.00,34.222
530.00,34.395
531.00,34.491
532.00,34.573
533.00,34.626
534.00,34.736
535.00,34.827
536.00,34.901
537.00,34.974
538.00,35.086
539.00,35.125
540.00,35.149
541.00,35.250
542.00,35.289
543.00,35.365
544.00,35.368
545.00,35.500
546.00,35.531
547.00,35.683
548.00,35.791
549.00,35.828
550.00,35.914
551.00,36.008
552.00,36.054
553.00,36.087
554.00,36.115
555.00,36.183
556.00,36.270
557.00,36.339
558.00,36.370
559.00,36.453
560.00,36.488
561.00,36.551
562.00,36.639
563.00,36.700
564.00,36.716
565.00,36.743
566.00,36.754
567.00,36.843
568.00,36.907
569.00,36.902
570.00,36.932
571.00,37.000
572.00,37.025
573.00,37.027
574.00,37.045
575.00,37.058
576.00,37.052
577.00,37.153
578.00,37.272
579.00,37.300
580.00,37.343
581.00,37.503
582.00,37.594
583.00,37.569
584.00,37.670
585.00,37.757
586.00,37.773
587.00,37.846
588.00,37.849
589.00,37.821
590.00,37.952
591.00,37.987
592.00,37.932
593.00,37.992
594.00,38.064
595.00,38.143
596.00,38.176
597.00,38.257
598.00,38.374
599.00,38.381
600.00,38.432
601.00,38.397
602.00,38.389
603.00,38.468
604.00,38.511
605.00,38.490
606.00,38.534
607.00,38.626
608.00,38.795
609.00,38.860
610.00,38.781
611.00,38.846
612.00,38.840
613.00,38.924
614.00,38.916
615.00,39.051
616.00,39.181
617.00,39.164
618.00,39.151
619.00,39.225
620.00,39.267
621.00,39.316
622.00,39.389
623.00,39.474
624.00,39.561
625.00,39.612
626.00,39.657
627.00,39.699
628.00,39.708
629.00,39.818
630.00,39.816
631.00,39.882
632.00,40.012
633.00,40.051
634.00,40.183
635.00,40.313
636.00,40.323
637.00,40.276
638.00,40.400
639.00,40.512
640.00,40.533
641.00,40.582
642.00,40.659
643.00,40.699
644.00,40.837
645.00,40.920
646.00,41.005
647.00,41.015
648.00,41.127
649.00,41.087
650.00,41.181
651.00,41.396
652.00,41.384
653.00,41.468
654.00,41.505
655.00,41.735
656.00,42.010
657.00,42.016
658.00,42.098
659.00,42.085
660.00,42.045
661.00,42.095
662.00,42.269
663.00,42.337
664.00,42.468
665.00,42.723
666.00,42.772
667.00,42.794
668.00,42.933
669.00,42.870
670.00,43.236
671.00,43.137
672.00,43.212
673.00,43.278
674.00,43.344
675.00,43.425
676.00,43.611
677.00,43.699
678.00,43.570
679.00,44.083
680.00,43.888
681.00,44.112
682.00,44.112
683.00,44.065
684.00,44.267
685.00,44.422
686.00,44.261
687.00,44.441
688.00,44.538
689.00,44.533
690.00,44.788
691.00,44.998
692.00,44.859
693.00,44.822
694.00,45.136
695.00,45.201
696.00,45.312
697.00,45.258
698.00,45.355
699.00,45.496
700.00,45.642
701.00,45.524
702.00,45.672
703.00,46.002
704.00,45.993
705.00,45.855
706.00,45.998
707.00,46.068
708.00,46.017
709.00,46.409
710.00,46.791
711.00,46.338
712.00,46.401
713.00,46.534
714.00,46.585
715.00,46.618
716.00,46.699
717.00,46.939
718.00,47.009
719.00,47.002
720.00,47.060
721.00,51.442
722.00,51.444
723.00,51.467
724.00,51.526
725.00,51.497
726.00,51.532
727.00,51.605
728.00,51.565
729.00,51.610
730.00,51.685
731.00,51.797
732.00,51.673
733.00,51.827
734.00,51.776
735.00,51.870
736.00,51.871
737.00,51.893
738.00,51.954
739.00,51.912
740.00,52.043
741.00,52.117
742.00,52.046
743.00,52.080
744.00,52.006
745.00,52.092
746.00,52.112
747.00,52.121
748.00,52.155
749.00,52.106
750.00,52.151
751.00,52.029
752.00,52.163
753.00,52.132
754.00,52.116
755.00,52.114
756.00,52.163
757.00,52.186
758.00,52.162
759.00,52.311
760.00,52.302
761.00,52.175
762.00,52.271
763.00,52.290
764.00,52.276
765.00,52.260
766.00,52.199
767.00,52.342
768.00,52.336
769.00,52.345
770.00,52.301
771.00,52.396
772.00,52.345
773.00,52.328
774.00,52.417
775.00,52.392
776.00,52.362
777.00,52.329
778.00,52.412
779.00,52.459
780.00,52.441
781.00,52.449
782.00,52.488
783.00,52.410
784.00,52.504
785.00,52.409
786.00,52.461
787.00,52.441
788.00,52.453
789.00,52.386
790.00,52.414
791.00,52.417
792.00,52.390
793.00,52.376
794.00,52.307
795.00,52.401
796.00,52.389
797.00,52.325
798.00,52.372
799.00,52.318
800.00,52.214
801.00,52.285
802.00,52.369
803.00,52.292
804.00,52.220
805.00,52.296
806.00,52.244
807.00,52.191
808.00,52.217
809.00,52.207
810.00,52.210
811.00,52.207
812.00,52.260
813.00,52.181
814.00,52.179
815.00,52.216
816.00,52.175
817.00,52.130
818.00,52.076
819.00,52.101
820.00,51.989
821.00,52.076
822.00,52.114
823.00,52.052
824.00,51.961
825.00,51.999
826.00,51.989
827.00,52.088
828.00,52.033
829.00,51.983
830.00,51.967
831.00,54.460
832.00,54.361
833.00,54.344
834.00,54.323
835.00,54.306
836.00,54.324
837.00,54.296
838.00,54.267
839.00,54.296
840.00,54.249
841.00,54.253
842.00,54.251
843.00,54.248
844.00,54.185
845.00,54.183
846.00,54.200
847.00,54.149
848.00,54.121
849.00,54.063
850.00,54.057
851.00,54.003
852.00,54.054
853.00,53.970
854.00,53.978
855.00,53.889
856.00,53.891
857.00,53.902
858.00,53.848
859.00,53.835
860.00,53.841
861.00,53.808
862.00,53.779
863.00,53.817
864.00,53.757
865.00,53.793
866.00,53.740
867.00,53.731
868.00,53.711
869.00,53.718
870.00,53.719
871.00,53.716
872.00,53.646
873.00,53.660
874.00,53.624
875.00,53.572
876.00,53.591
877.00,53.590
878.00,53.606
879.00,53.607
880.00,53.607
881.00,53.567
882.00,53.612
883.00,53.564
884.00,53.522
885.00,53.511
886.00,53.505
887.00,53.469
888.00,53.430
889.00,53.408
890.00,53.409
891.00,53.354
892.00,53.360
893.00,53.335
894.00,53.328
895.00,53.303
896.00,53.302
897.00,53.275
898.00,53.246
899.00,53.245
900.00,53.231
901.00,53.227
902.00,53.209
903.00,53.168
904.00,53.194
905.00,53.155
906.00,53.157
907.00,53.118
908.00,53.097
909.00,53.090
910.00,53.063
911.00,53.064
912.00,53.052
913.00,52.983
914.00,52.992
915.00,52.992
916.00,52.988
917.00,52.939
918.00,52.929
919.00,52.895
920.00,52.879
921.00,52.886
922.00,52.844
923.00,52.859
924.00,52.799
925.00,52.820
926.00,52.807
927.00,52.800
928.00,52.681
929.00,52.833
930.00,52.715
931.00,52.728
932.00,52.685
933.00,52.692
934.00,52.663
935.00,52.631
936.00,52.605
937.00,52.595
938.00,52.579
939.00,52.587
940.00,52.562
941.00,52.556
942.00,52.505
943.00,52.493
944.00,52.453
945.00,52.455
946.00,52.454
947.00,52.424
948.00,52.392
949.00,52.350
950.00,52.419
951.00,52.341
952.00,52.309
953.00,52.275
954.00,52.281
955.00,52.223
956.00,52.225
957.00,52.177
958.00,52.206
959.00,52.144
960.00,52.147
961.00,52.128
962.00,52.134
963.00,52.076
964.00,52.087
965.00,52.159
966.00,52.047
967.00,52.051
968.00,52.038
969.00,52.065
970.00,52.032
971.00,52.055
972.00,52.024
973.00,52.056
974.00,52.048
975.00,52.011
976.00,52.040
977.00,52.029
978.00,52.072
979.00,52.038
980.00,52.057
981.00,52.032
982.00,52.019
983.00,52.042
984.00,52.022
985.00,52.041
986.00,52.006
987.00,52.022
988.00,51.984
989.00,51.981
990.00,51.978
991.00,51.935
992.00,51.950
993.00,51.917
994.00,51.900
995.00,51.901
996.00,51.879
997.00,51.856
998.00,51.837
999.00,51.867
1000.00,51.817
1001.00,51.823
1002.00,51.811
1003.00,51.806
1004.00,51.792
1005.00,51.757
1006.00,51.784
1007.00,51.735
1008.00,51.729
1009.00,51.694
1010.00,51.697
1011.00,51.724
1012.00,51.657
1013.00,51.670
1014.00,51.630
1015.00,51.651
1016.00,51.611
1017.00,51.613
1018.00,51.601
1019.00,51.574
1020.00,51.569
1021.00,51.552
1022.00,51.535
1023.00,51.521
1024.00,51.507
1025.00,51.474
1026.00,51.496
1027.00,51.468
1028.00,51.468
1029.00,51.450
1030.00,51.405
1031.00,51.429
1032.00,51.379
1033.00,51.384
1034.00,51.354
1035.00,51.314
1036.00,51.290
1037.00,51.279
1038.00,51.270
1039.00,51.219
1040.00,51.221
1041.00,51.182
1042.00,51.185
1043.00,51.164
1044.00,51.196
1045.00,51.194
1046.00,51.182
1047.00,51.192
1048.00,51.206
1049.00,51.210
1050.00,51.200
1051.00,51.255
1052.00,51.250
1053.00,51.247
1054.00,51.259
1055.00,51.248
1056.00,51.266
1057.00,51.293
1058.00,51.256
1059.00,51.250
1060.00,51.251
1061.00,51.230
1062.00,51.225
1063.00,51.228
1064.00,51.231
1065.00,51.225
1066.00,51.227
1067.00,51.199
1068.00,51.226
1069.00,51.202
1070.00,51.165
1071.00,51.142
1072.00,51.184
1073.00,51.124
1074.00,51.119
1075.00,51.107
1076.00,51.129
1077.00,51.118
1078.00,51.094
1079.00,51.104
1080.00,51.094
1081.00,51.098
1082.00,51.091
1083.00,51.076
1084.00,51.074
1085.00,51.059
1086.00,51.048
1087.00,51.073
1088.00,51.012
1089.00,51.010
1090.00,51.007
1091.00,51.012
1092.00,51.012
1093.00,50.986
1094.00,50.977
1095.00,50.973
1096.00,50.947
1097.00,50.945
1098.00,50.947
1099.00,50.935
1100.00,50.937
1101.00,50.942
1102.00,50.923
1103.00,50.890
1104.00,50.878
1105.00,50.860
1106.00,50.843
1107.00,50.832
1108.00,50.833
1109.00,50.831
1110.00,50.815
1111.00,50.812
1112.00,50.797
1113.00,50.798
1114.00,50.797
1115.00,50.795
1116.00,50.792
1117.00,50.778
1118.00,50.760
1119.00,50.752
1120.00,50.748
1121.00,50.739
1122.00,50.732
1123.00,50.733
1124.00,50.707
1125.00,50.713
1126.00,50.701
1127.00,50.709
1128.00,50.686
1129.00,50.673
1130.00,50.652
1131.00,50.647
1132.00,50.661
1133.00,50.627
1134.00,50.618
1135.00,50.633
1136.00,50.628
1137.00,50.643
1138.00,50.641
1139.00,50.650
1140.00,50.634
1141.00,50.629
1142.00,50.622
1143.00,50.634
1144.00,50.592
1145.00,50.602
1146.00,50.589
1147.00,50.600
1148.00,50.591
1149.00,50.586
1150.00,50.587
1151.00,50.570
1152.00,50.563
1153.00,50.571
1154.00,50.563
1155.00,50.571
1156.00,50.558
1157.00,50.563
1158.00,50.564
1159.00,50.553
1160.00,50.562
1161.00,50.582
1162.00,50.544
1163.00,50.543
1164.00,50.558
1165.00,50.546
1166.00,50.553
1167.00,50.532
1168.00,50.545
1169.00,50.533
1170.00,50.537
1171.00,50.508
1172.00,50.514
1173.00,50.509
1174.00,50.518
1175.00,50.521
1176.00,50.513
1177.00,50.497
1178.00,50.493
1179.00,50.494
1180.00,50.483
1181.00,50.504
1182.00,50.485
1183.00,50.479
1184.00,50.479
1185.00,50.514
1186.00,50.505
1187.00,50.504
1188.00,50.506
1189.00,50.492
1190.00,50.469
1191.00,50.483
1192.00,50.493
1193.00,50.475
1194.00,50.494
1195.00,50.449
1196.00,50.479
1197.00,50.479
1198.00,50.458
1199.00,50.458
1200.00,50.456
1201.00,50.489
1202.00,50.483
1203.00,50.474
1204.00,50.464
1205.00,50.485
1206.00,50.463
1207.00,50.474
1208.00,50.466
1209.00,50.482
1210.00,50.460
1211.00,50.456
1212.00,50.472
1213.00,50.444
1214.00,50.466
1215.00,50.447
1216.00,50.450
1217.00,50.443
1218.00,50.440
1219.00,50.458
1220.00,50.439
1221.00,50.454
1222.00,50.447
1223.00,50.461
1224.00,50.468
1225.00,50.455
1226.00,50.452
1227.00,50.444
1228.00,50.472
1229.00,50.474
1230.00,50.500
1231.00,50.479
1232.00,50.500
1233.00,50.489
1234.00,50.496
1235.00,50.498
1236.00,50.489
1237.00,50.491
1238.00,50.471
1239.00,50.458
1240.00,50.460
1241.00,50.484
1242.00,50.487
1243.00,50.503
1244.00,50.474
1245.00,50.507
1246.00,50.518
1247.00,50.508
1248.00,50.505
1249.00,50.518
1250.00,50.523
1251.00,50.519
1252.00,50.526
1253.00,50.513
1254.00,50.557
1255.00,50.526
1256.00,50.494
1257.00,50.517
1258.00,50.561
1259.00,50.532
1260.00,50.558
1261.00,50.543
1262.00,50.537
1263.00,50.545
1264.00,50.554
1265.00,50.551
1266.00,50.545
1267.00,50.568
1268.00,50.578
1269.00,50.583
1270.00,50.604
1271.00,50.591
1272.00,50.572
1273.00,50.588
1274.00,50.589
1275.00,50.603
1276.00,50.597
1277.00,50.597
1278.00,50.610
1279.00,50.615
1280.00,50.608
1281.00,50.624
1282.00,50.634
1283.00,50.600
1284.00,50.619
1285.00,50.617
1286.00,50.624
1287.00,50.637
1288.00,50.641
1289.00,50.636
1290.00,50.675
1291.00,50.661
1292.00,50.660
1293.00,50.658
1294.00,50.669
1295.00,50.690
1296.00,50.693
1297.00,50.700
1298.00,50.725
1299.00,50.696
1300.00,50.705
1301.00,50.692
1302.00,50.722
1303.00,50.726
1304.00,50.699
1305.00,50.717
1306.00,50.722
1307.00,50.732
1308.00,50.724
1309.00,50.737
1310.00,50.750
1311.00,50.739
1312.00,50.741
1313.00,50.748
1314.00,50.764
1315.00,50.782
1316.00,50.765
1317.00,50.812
1318.00,50.804
1319.00,50.798
1320.00,50.810
1321.00,50.961
1322.00,50.962
1323.00,50.938
1324.00,50.935
1325.00,50.924
1326.00,50.955
1327.00,50.942
1328.00,50.941
1329.00,50.937
1330.00,50.936
1331.00,50.951
1332.00,50.930
1333.00,50.948
1334.00,50.939
1335.00,50.962
1336.00,50.973
1337.00,51.026
1338.00,51.092
1339.00,51.147
1340.00,51.184
1341.00,51.230
1342.00,51.306
1343.00,51.350
1344.00,51.402
1345.00,51.451
1346.00,51.491
1347.00,51.528
1348.00,51.527
1349.00,51.548
1350.00,51.604
1351.00,51.575
1352.00,51.586
1353.00,51.614
1354.00,51.604
1355.00,51.578
1356.00,51.629
1357.00,51.647
1358.00,51.670
1359.00,51.728
1360.00,51.951
1361.00,51.623
1362.00,51.662
1363.00,51.654
1364.00,51.699
1365.00,51.641
1366.00,51.673
1367.00,51.624
1368.00,51.613
1369.00,51.651
1370.00,51.656
1371.00,51.589
1372.00,51.630
1373.00,51.632
1374.00,51.633
1375.00,51.620
1376.00,51.589
1377.00,51.623
1378.00,51.663
1379.00,51.640
1380.00,51.613
1381.00,51.627
1382.00,51.622
1383.00,51.619
1384.00,51.588
1385.00,51.581
1386.00,51.610
1387.00,51.618
1388.00,51.542
1389.00,51.554
1390.00,51.303
1391.00,51.614
1392.00,51.580
1393.00,51.570
1394.00,51.575
1395.00,51.563
1396.00,51.548
1397.00,51.570
1398.00,51.664
1399.00,51.649
1400.00,51.579
1401.00,51.552
1402.00,51.586
1403.00,51.601
1404.00,51.641
1405.00,51.601
1406.00,51.654
1407.00,51.623
1408.00,51.668
1409.00,51.599
1410.00,51.672
1411.00,51.652
1412.00,51.640
1413.00,51.616
1414.00,51.665
1415.00,51.699
1416.00,51.704
1417.00,51.697
1418.00,51.711
1419.00,51.728
1420.00,51.744
1421.00,51.738
1422.00,51.761
1423.00,51.779
1424.00,51.801
1425.00,51.811
1426.00,51.803
1427.00,51.823
1428.00,51.807
1429.00,51.816
1430.00,51.832
1431.00,51.850
1432.00,51.878
1433.00,51.867
1434.00,51.883
1435.00,51.936
1436.00,51.928
1437.00,51.924
1438.00,51.957
1439.00,51.968
1440.00,51.987
1441.00,51.985
1442.00,51.996
1443.00,52.108
1444.00,52.067
1445.00,51.995
1446.00,52.078
1447.00,52.069
1448.00,52.098
1449.00,52.131
1450.00,52.115
1451.00,52.139
1452.00,52.171
1453.00,52.172
1454.00,52.192
1455.00,52.208
1456.00,52.234
1457.00,52.241
1458.00,52.251
1459.00,52.266
1460.00,52.294
1461.00,52.274
1462.00,52.304
1463.00,52.316
1464.00,52.315
1465.00,52.339
1466.00,52.355
1467.00,52.343
1468.00,52.401
1469.00,52.389
1470.00,52.403
1471.00,52.433
1472.00,52.435
1473.00,52.431
1474.00,52.467
1475.00,52.462
1476.00,52.494
1477.00,52.460
1478.00,52.481
1479.00,52.536
1480.00,52.510
1481.00,52.519
1482.00,52.558
1483.00,52.555
1484.00,52.583
1485.00,52.584
1486.00,52.590
1487.00,52.612
1488.00,52.626
1489.00,52.613
1490.00,52.637
1491.00,52.633
1492.00,52.660
1493.00,52.655
1494.00,52.686
1495.00,52.683
1496.00,52.717
1497.00,52.696
1498.00,52.711
1499.00,52.727
1500.00,52.746
1501.00, 
1502.00, 
1503.00, 
1504.00, 
1505.00, 
1506.00, 
1507.00, 
1508.00, 
1509.00, 
1510.00, 
1511.00, 
1512.00, 
1513.00, 
1514.00, 
1515.00, 
1516.00, 
1517.00, 
1518.00, 
1519.00, 
1520.00, 
1521.00, 
1522.00, 
1523.00, 
1524.00, 
1525.00, 
1526.00, 
1527.00, 
1528.00, 
1529.00, 
1530.00, 
1531.00, 
1532.00, 
1533.00, 
1534.00, 
1535.00, 
1536.00, 
1537.00, 
1538.00, 
1539.00, 
1540.00, 
1541.00, 
1542.00, 
1543.00, 
1544.00, 
1545.00, 
1546.00, 
1547.00, 
1548.00, 
1549.00, 
1550.00, 
1551.00, 
1552.00, 
1553.00, 
1554.00, 
1555.00, 
1556.00, 
1557.00, 
1558.00, 
1559.00, 
1560.00, 
1561.00, 
1562.00, 
1563.00, 
1564.00, 
1565.00, 
1566.00, 
1567.00, 
1568.00, 
1569.00, 
1570.00, 
1571.00, 
1572.00, 
1573.00, 
1574.00, 
1575.00, 
1576.00, 
1577.00, 
1578.00, 
1579.00, 
1580.00, 
1581.00, 
1582.00, 
1583.00, 
1584.00, 
1585.00, 
1586.00, 
1587.00, 
1588.00, 
1589.00, 
1590.00, 
1591.00, 
1592.00, 
1593.00, 
1594.00, 
1595.00, 
1596.00, 
1597.00, 
1598.00, 
1599.00, 
1600.00, 
1601.00, 
1602.00, 
1603.00, 
1604.00, 
1605.00, 
1606.00, 
1607.00, 
1608.00, 
1609.00, 
1610.00, 
1611.00, 
1612.00, 
1613.00, 
1614.00, 
1615.00, 
1616.00, 
1617.00, 
1618.00, 
1619.00, 
1620.00, 
1621.00, 
1622.00, 
1623.00, 
1624.00, 
1625.00, 
1626.00, 
1627.00, 
1628.00, 
1629.00, 
1630.00, 
1631.00, 
1632.00, 
1633.00, 
1634.00, 
1635.00, 
1636.00, 
1637.00, 
1638.00, 
1639.00, 
1640.00, 
1641.00, 
1642.00, 
1643.00, 
1644.00, 
1645.00, 
1646.00, 
1647.00, 
1648.00, 
1649.00, 
1650.00, 
1651.00, 
1652.00, 
1653.00, 
1654.00, 
1655.00, 
1656.00, 
1657.00, 
1658.00, 
1659.00, 
1660.00, 
1661.00, 
1662.00, 
1663.00, 
1664.00, 
1665.00, 
1666.00, 
1667.00, 
1668.00, 
1669.00, 
1670.00, 
1671.00, 
1672.00, 
1673.00, 
1674.00, 
1675.00, 
1676.00, 
1677.00, 
1678.00, 
1679.00, 
1680.00, 
1681.00, 
1682.00, 
1683.00, 
1684.00, 
1685.00, 
1686.00, 
1687.00, 
1688.00, 
1689.00, 
1690.00, 
1691.00, 
1692.00, 
1693.00, 
1694.00, 
1695.00, 
1696.00, 
1697.00, 
1698.00, 
1699.00, 
1700.00, 
1701.00, 
1702.00, 
1703.00, 
1704.00, 
1705.00, 
1706.00, 
1707.00, 
1708.00, 
1709.00, 
1710.00, 
1711.00, 
1712.00, 
1713.00, 
1714.00, 
1715.00, 
1716.00, 
1717.00, 
1718.00, 
1719.00, 
1720.00, 
1721.00, 
1722.00, 
1723.00, 
1724.00, 
1725.00, 
1726.00, 
1727.00, 
1728.00, 
1729.00, 
1730.00, 
1731.00, 
1732.00, 
1733.00, 
1734.00, 
1735.00, 
1736.00, 
1737.00, 
1738.00, 
1739.00, 
1740.00, 
1741.00, 
1742.00, 
1743.00, 
1744.00, 
1745.00, 
1746.00, 
1747.00, 
1748.00, 
1749.00, 
1750.00, 
1751.00, 
1752.00, 
1753.00, 
1754.00, 
1755.00, 
1756.00, 
1757.00, 
1758.00, 
1759.00, 
1760.00, 
1761.00, 
1762.00, 
1763.00, 
1764.00, 
1765.00, 
1766.00, 
1767.00, 
1768.00, 
1769.00, 
1770.00, 
1771.00, 
1772.00, 
1773.00, 
1774.00, 
1775.00, 
1776.00, 
1777.00, 
1778.00, 
1779.00, 
1780.00, 
1781.00, 
1782.00, 
1783.00, 
1784.00, 
1785.00, 
1786.00, 
1787.00, 
1788.00, 
1789.00, 
1790.00, 
1791.00, 
1792.00, 
1793.00, 
1794.00, 
1795.00, 
1796.00, 
1797.00, 
1798.00, 
1799.00, 
1800.00, 
1801.00, 
1802.00, 
1803.00, 
1804.00, 
1805.00, 
1806.00, 
1807.00, 
1808.00, 
1809.00, 
1810.00, 
1811.00, 
1812.00, 
1813.00, 
1814.00, 
1815.00, 
1816.00, 
1817.00, 
1818.00, 
1819.00, 
1820.00, 
1821.00, 
1822.00, 
1823.00, 
1824.00, 
1825.00, 
1826.00, 
1827.00, 
1828.00, 
1829.00, 
1830.00, 
1831.00, 
1832.00, 
1833.00, 
1834.00, 
1835.00, 
1836.00, 
1837.00, 
1838.00, 
1839.00, 
1840.00, 
1841.00, 
1842.00, 
1843.00, 
1844.00, 
1845.00, 
1846.00, 
1847.00, 
1848.00, 
1849.00, 
1850.00, 
1851.00, 
1852.00, 
1853.00, 
1854.00, 
1855.00, 
1856.00, 
1857.00, 
1858.00, 
1859.00, 
1860.00, 
1861.00, 
1862.00, 
1863.00, 
1864.00, 
1865.00, 
1866.00, 
1867.00, 
1868.00, 
1869.00, 
1870.00, 
1871.00, 
1872.00, 
1873.00, 
1874.00, 
1875.00, 
1876.00, 
1877.00, 
1878.00, 
1879.00, 
1880.00, 
1881.00, 
1882.00, 
1883.00, 
1884.00, 
1885.00, 
1886.00, 
1887.00, 
1888.00, 
1889.00, 
1890.00, 
1891.00, 
1892.00, 
1893.00, 
1894.00, 
1895.00, 
1896.00, 
1897.00, 
1898.00, 
1899.00, 
1900.00, 
1901.00, 
1902.00, 
1903.00, 
1904.00, 
1905.00, 
1906.00, 
1907.00, 
1908.00, 
1909.00, 
1910.00, 
1911.00, 
1912.00, 
1913.00, 
1914.00, 
1915.00, 
1916.00, 
1917.00, 
1918.00, 
1919.00, 
1920.00, 
1921.00, 
1922.00, 
1923.00, 
1924.00, 
1925.00, 
1926.00, 
1927.00, 
1928.00, 
1929.00, 
1930.00, 
1931.00, 
1932.00, 
1933.00, 
1934.00, 
1935.00, 
1936.00, 
1937.00, 
1938.00, 
1939.00, 
1940.00, 
1941.00, 
1942.00, 
1943.00, 
1944.00, 
1945.00, 
1946.00, 
1947.00, 
1948.00, 
1949.00, 
1950.00, 
1951.00, 
1952.00, 
1953.00, 
1954.00, 
1955.00, 
1956.00, 
1957.00, 
1958.00, 
1959.00, 
1960.00, 
1961.00, 
1962.00, 
1963.00, 
1964.00, 
1965.00, 
1966.00, 
1967.00, 
1968.00, 
1969.00, 
1970.00, 
1971.00, 
1972.00, 
1973.00, 
1974.00, 
1975.00, 
1976.00, 
1977.00, 
1978.00, 
1979.00, 
1980.00, 
1981.00, 
1982.00, 
1983.00, 
1984.00, 
1985.00, 
1986.00, 
1987.00, 
1988.00, 
1989.00, 
1990.00, 
1991.00, 
1992.00, 
1993.00, 
1994.00, 
1995.00, 
1996.00, 
1997.00, 
1998.00, 
1999.00, 
2000.00, 
2001.00, 
2002.00, 
2003.00, 
2004.00, 
2005.00, 
2006.00, 
2007.00, 
2008.00, 
2009.00, 
2010.00, 
2011.00, 
2012.00, 
2013.00, 
2014.00, 
2015.00, 
2016.00, 
2017.00, 
2018.00, 
2019.00, 
2020.00, 
2021.00, 
2022.00, 
2023.00, 
2024.00, 
2025.00, 
2026.00, 
2027.00, 
2028.00, 
2029.00, 
2030.00, 
2031.00, 
2032.00, 
2033.00, 
2034.00, 
2035.00, 
2036.00, 
2037.00, 
2038.00, 
2039.00, 
2040.00, 
2041.00, 
2042.00, 
2043.00, 
2044.00, 
2045.00, 
2046.00, 
2047.00, 
2048.00, 
2049.00, 
2050.00, 
2051.00, 
2052.00, 
2053.00, 
2054.00, 
2055.00, 
2056.00, 
2057.00, 
2058.00, 
2059.00, 
2060.00, 
2061.00, 
2062.00, 
2063.00, 
2064.00, 
2065.00, 
2066.00, 
2067.00, 
2068.00, 
2069.00, 
2070.00, 
2071.00, 
2072.00, 
2073.00, 
2074.00, 
2075.00, 
2076.00, 
2077.00, 
2078.00, 
2079.00, 
2080.00, 
2081.00, 
2082.00, 
2083.00, 
2084.00, 
2085.00, 
2086.00, 
2087.00, 
2088.00, 
2089.00, 
2090.00, 
2091.00, 
2092.00, 
2093.00, 
2094.00, 
2095.00, 
2096.00, 
2097.00, 
2098.00, 
2099.00, 
2100.00, 
2101.00, 
2102.00, 
2103.00, 
2104.00, 
2105.00, 
2106.00, 
2107.00, 
2108.00, 
2109.00, 
2110.00, 
2111.00, 
2112.00, 
2113.00, 
2114.00, 
2115.00, 
2116.00, 
2117.00, 
2118.00, 
2119.00, 
2120.00, 
2121.00, 
2122.00, 
2123.00, 
2124.00, 
2125.00, 
2126.00, 
2127.00, 
2128.00, 
2129.00, 
2130.00, 
2131.00, 
2132.00, 
2133.00, 
2134.00, 
2135.00, 
2136.00, 
2137.00, 
2138.00, 
2139.00, 
2140.00, 
2141.00, 
2142.00, 
2143.00, 
2144.00, 
2145.00, 
2146.00, 
2147.00, 
2148.00, 
2149.00, 
2150.00, 
2151.00, 
2152.00, 
2153.00, 
2154.00, 
2155.00, 
2156.00, 
2157.00, 
2158.00, 
2159.00, 
2160.00, 
2161.00, 
2162.00, 
2163.00, 
2164.00, 
2165.00, 
2166.00, 
2167.00, 
2168.00, 
2169.00, 
2170.00, 
2171.00, 
2172.00, 
2173.00, 
2174.00, 
2175.00, 
2176.00, 
2177.00, 
2178.00, 
2179.00, 
2180.00, 
2181.00, 
2182.00, 
2183.00, 
2184.00, 
2185.00, 
2186.00, 
2187.00, 
2188.00, 
2189.00, 
2190.00, 
2191.00, 
2192.00, 
2193.00, 
2194.00, 
2195.00, 
2196.00, 
2197.00, 
2198.00, 
2199.00, 
2200.00, 
2201.00, 
2202.00, 
2203.00, 
2204.00, 
2205.00, 
2206.00, 
2207.00, 
2208.00, 
2209.00, 
2210.00, 
2211.00, 
2212.00, 
2213.00, 
2214.00, 
2215.00, 
2216.00, 
2217.00, 
2218.00, 
2219.00, 
2220.00, 
2221.00, 
2222.00, 
2223.00, 
2224.00, 
2225.00, 
2226.00, 
2227.00, 
2228.00, 
2229.00, 
2230.00, 
2231.00, 
2232.00, 
2233.00, 
2234.00, 
2235.00, 
2236.00, 
2237.00, 
2238.00, 
2239.00, 
2240.00, 
2241.00, 
2242.00, 
2243.00, 
2244.00, 
2245.00, 
2246.00, 
2247.00, 
2248.00, 
2249.00, 
2250.00, 
2251.00, 
2252.00, 
2253.00, 
2254.00, 
2255.00, 
2256.00, 
2257.00, 
2258.00, 
2259.00, 
2260.00, 
2261.00, 
2262.00, 
2263.00, 
2264.00, 
2265.00, 
2266.00, 
2267.00, 
2268.00, 
2269.00, 
2270.00, 
2271.00, 
2272.00, 
2273.00, 
2274.00, 
2275.00, 
2276.00, 
2277.00, 
2278.00, 
2279.00, 
2280.00, 
2281.00, 
2282.00, 
2283.00, 
2284.00, 
2285.00, 
2286.00, 
2287.00, 
2288.00, 
2289.00, 
2290.00, 
2291.00, 
2292.00, 
2293.00, 
2294.00, 
2295.00, 
2296.00, 
2297.00, 
2298.00, 
2299.00, 
2300.00, 
2301.00, 
2302.00, 
2303.00, 
2304.00, 
2305.00, 
2306.00, 
2307.00, 
2308.00, 
2309.00, 
2310.00, 
2311.00, 
2312.00, 
2313.00, 
2314.00, 
2315.00, 
2316.00, 
2317.00, 
2318.00, 
2319.00, 
2320.00, 
2321.00, 
2322.00, 
2323.00, 
2324.00, 
2325.00, 
2326.00, 
2327.00, 
2328.00, 
2329.00, 
2330.00, 
2331.00, 
2332.00, 
2333.00, 
2334.00, 
2335.00, 
2336.00, 
2337.00, 
2338.00, 
2339.00, 
2340.00, 
2341.00, 
2342.00, 
2343.00, 
2344.00, 
2345.00, 
2346.00, 
2347.00, 
2348.00, 
2349.00, 
2350.00, 
2351.00, 
2352.00, 
2353.00, 
2354.00, 
2355.00, 
2356.00, 
2357.00, 
2358.00, 
2359.00, 
2360.00, 
2361.00, 
2362.00, 
2363.00, 
2364.00, 
2365.00, 
2366.00, 
2367.00, 
2368.00, 
2369.00, 
2370.00, 
2371.00, 
2372.00, 
2373.00, 
2374.00, 
2375.00, 
2376.00, 
2377.00, 
2378.00, 
2379.00, 
2380.00, 
2381.00, 
2382.00, 
2383.00, 
2384.00, 
2385.00, 
2386.00, 
2387.00, 
2388.00, 
2389.00, 
2390.00, 
2391.00, 
2392.00, 
2393.00, 
2394.00, 
2395.00, 
2396.00, 
2397.00, 
2398.00, 
2399.00, 
2400.00, 
2401.00, 
2402.00, 
2403.00, 
2404.00, 
2405.00, 
2406.00, 
2407.00, 
2408.00, 
2409.00, 
2410.00, 
2411.00, 
2412.00, 
2413.00, 
2414.00, 
2415.00, 
2416.00, 
2417.00, 
2418.00, 
2419.00, 
2420.00, 
2421.00, 
2422.00, 
2423.00, 
2424.00, 
2425.00, 
2426.00, 
2427.00, 
2428.00, 
2429.00, 
2430.00, 
2431.00, 
2432.00, 
2433.00, 
2434.00, 
2435.00, 
2436.00, 
2437.00, 
2438.00, 
2439.00, 
2440.00, 
2441.00, 
2442.00, 
2443.00, 
2444.00, 
2445.00, 
2446.00, 
2447.00, 
2448.00, 
2449.00, 
2450.00, 
2451.00, 
2452.00, 
2453.00, 
2454.00, 
2455.00, 
2456.00, 
2457.00, 
2458.00, 
2459.00, 
2460.00, 
2461.00, 
2462.00, 
2463.00, 
2464.00, 
2465.00, 
2466.00, 
2467.00, 
2468.00, 
2469.00, 
2470.00, 
2471.00, 
2472.00, 
2473.00, 
2474.00, 
2475.00, 
2476.00, 
2477.00, 
2478.00, 
2479.00, 
2480.00, 
2481.00, 
2482.00, 
2483.00, 
2484.00, 
2485.00, 
2486.00, 
2487.00, 
2488.00, 
2489.00, 
2490.00, 
2491.00, 
2492.00, 
2493.00, 
2494.00, 
2495.00, 
2496.00, 
2497.00, 
2498.00, 
2499.00, 
2500.00, 
2501.00, 
2502.00, 
2503.00, 
2504.00, 
2505.00, 
2506.00, 
2507.00, 
2508.00, 
2509.00, 
2510.00, 
2511.00, 
2512.00, 
2513.00, 
2514.00, 
2515.00, 
2516.00, 
2517.00, 
2518.00, 
2519.00, 
2520.00, 
2521.00, 
2522.00, 
2523.00, 
2524.00, 
2525.00, 
2526.00, 
2527.00, 
2528.00, 
2529.00, 
2530.00, 
2531.00, 
2532.00, 
2533.00, 
2534.00, 
2535.00, 
2536.00, 
2537.00, 
2538.00, 
2539.00, 
2540.00, 
2541.00, 
2542.00, 
2543.00, 
2544.00, 
2545.00, 
2546.00, 
2547.00, 
2548.00, 
2549.00, 
2550.00, 
2551.00, 
2552.00, 
2553.00, 
2554.00, 
2555.00, 
2556.00, 
2557.00, 
2558.00, 
2559.00, 
2560.00, 
2561.00, 
2562.00, 
2563.00, 
2564.00, 
2565.00, 
2566.00, 
2567.00, 
2568.00, 
2569.00, 
2570.00, 
2571.00, 
2572.00, 
2573.00, 
2574.00, 
2575.00, 
2576.00, 
2577.00, 
2578.00, 
2579.00, 
2580.00, 
2581.00, 
2582.00, 
2583.00, 
2584.00, 
2585.00, 
2586.00, 
2587.00, 
2588.00, 
2589.00, 
2590.00, 
2591.00, 
2592.00, 
2593.00, 
2594.00, 
2595.00, 
2596.00, 
2597.00, 
2598.00, 
2599.00, 
2600.00, 
