"1cP2 - RawData"
"Wavelength nm.","T%"
200.00,0.002
201.00,0.002
202.00,0.003
203.00,0.003
204.00,0.001
205.00,-0.002
206.00,0.002
207.00,0.000
208.00,0.003
209.00,0.005
210.00,0.001
211.00,0.002
212.00,0.002
213.00,-0.001
214.00,0.002
215.00,0.000
216.00,0.001
217.00,0.000
218.00,-0.001
219.00,0.002
220.00,0.000
221.00,0.002
222.00,0.003
223.00,0.002
224.00,0.001
225.00,0.001
226.00,0.001
227.00,0.002
228.00,-0.001
229.00,0.001
230.00,-0.001
231.00,0.001
232.00,0.002
233.00,0.000
234.00,0.000
235.00,0.003
236.00,-0.001
237.00,0.001
238.00,0.002
239.00,-0.002
240.00,0.001
241.00,0.001
242.00,0.001
243.00,0.000
244.00,-0.001
245.00,-0.000
246.00,-0.000
247.00,0.000
248.00,0.002
249.00,0.001
250.00,0.002
251.00,-0.000
252.00,-0.001
253.00,-0.000
254.00,-0.001
255.00,-0.001
256.00,0.000
257.00,-0.001
258.00,0.001
259.00,-0.001
260.00,0.000
261.00,0.000
262.00,-0.001
263.00,0.000
264.00,0.001
265.00,-0.001
266.00,0.002
267.00,0.001
268.00,-0.001
269.00,-0.000
270.00,0.000
271.00,0.000
272.00,0.001
273.00,0.001
274.00,-0.000
275.00,0.001
276.00,0.000
277.00,-0.000
278.00,0.001
279.00,0.001
280.00,0.001
281.00,-0.000
282.00,-0.001
283.00,0.000
284.00,-0.000
285.00,-0.001
286.00,-0.000
287.00,-0.002
288.00,0.001
289.00,0.000
290.00,-0.001
291.00,-0.001
292.00,-0.000
293.00,0.000
294.00,0.001
295.00,0.000
296.00,0.001
297.00,-0.001
298.00,0.001
299.00,-0.001
300.00,-0.000
301.00,0.000
302.00,0.001
303.00,0.001
304.00,0.001
305.00,0.003
306.00,0.003
307.00,0.005
308.00,0.009
309.00,0.019
310.00,0.026
311.00,0.044
312.00,0.065
313.00,0.105
314.00,0.159
315.00,0.230
316.00,0.332
317.00,0.481
318.00,0.650
319.00,0.872
320.00,1.155
321.00,1.514
322.00,1.954
323.00,2.462
324.00,3.059
325.00,3.687
326.00,4.356
327.00,5.211
328.00,6.088
329.00,7.009
330.00,8.076
331.00,9.130
332.00,10.302
333.00,11.583
334.00,12.739
335.00,14.018
336.00,15.282
337.00,16.621
338.00,17.956
339.00,19.192
340.00,20.525
341.00,21.827
342.00,23.023
343.00,24.198
344.00,25.299
345.00,26.556
346.00,27.549
347.00,28.540
348.00,29.528
349.00,30.453
350.00,31.377
351.00,32.197
352.00,32.924
353.00,33.629
354.00,34.439
355.00,35.105
356.00,35.737
357.00,36.286
358.00,36.846
359.00,37.432
360.00,37.993
361.00,38.431
362.00,38.900
363.00,39.275
364.00,39.528
365.00,39.869
366.00,40.181
367.00,40.462
368.00,40.598
369.00,40.795
370.00,41.042
371.00,41.161
372.00,41.123
373.00,41.219
374.00,41.289
375.00,41.320
376.00,41.151
377.00,41.138
378.00,41.031
379.00,40.883
380.00,40.986
381.00,40.977
382.00,41.117
383.00,41.295
384.00,41.307
385.00,41.599
386.00,41.580
387.00,42.029
388.00,42.299
389.00,42.339
390.00,42.567
391.00,42.707
392.00,42.847
393.00,42.942
394.00,43.065
395.00,43.192
396.00,43.207
397.00,43.351
398.00,43.417
399.00,43.365
400.00,43.522
401.00,43.431
402.00,43.542
403.00,43.603
404.00,43.636
405.00,43.599
406.00,43.681
407.00,43.580
408.00,43.541
409.00,43.465
410.00,43.320
411.00,43.424
412.00,43.336
413.00,43.400
414.00,43.298
415.00,43.250
416.00,43.428
417.00,43.382
418.00,43.313
419.00,43.430
420.00,43.480
421.00,43.483
422.00,43.410
423.00,43.499
424.00,43.554
425.00,43.542
426.00,43.506
427.00,43.542
428.00,43.597
429.00,43.550
430.00,43.629
431.00,43.741
432.00,43.656
433.00,43.708
434.00,43.754
435.00,43.772
436.00,43.763
437.00,43.818
438.00,43.838
439.00,43.860
440.00,43.968
441.00,44.028
442.00,43.971
443.00,43.955
444.00,44.090
445.00,44.019
446.00,44.206
447.00,44.328
448.00,44.293
449.00,44.386
450.00,44.495
451.00,44.479
452.00,44.532
453.00,44.632
454.00,44.656
455.00,44.675
456.00,44.839
457.00,44.919
458.00,44.916
459.00,45.008
460.00,45.081
461.00,45.152
462.00,45.184
463.00,45.298
464.00,45.381
465.00,45.455
466.00,45.548
467.00,45.584
468.00,45.568
469.00,45.653
470.00,45.658
471.00,45.631
472.00,45.658
473.00,45.641
474.00,45.725
475.00,45.726
476.00,45.749
477.00,45.819
478.00,45.815
479.00,46.058
480.00,46.056
481.00,46.090
482.00,46.178
483.00,46.227
484.00,46.434
485.00,46.450
486.00,46.560
487.00,46.680
488.00,46.584
489.00,46.751
490.00,46.860
491.00,46.921
492.00,47.088
493.00,47.172
494.00,47.082
495.00,47.180
496.00,47.183
497.00,47.242
498.00,47.351
499.00,47.379
500.00,47.476
501.00,47.560
502.00,47.576
503.00,47.667
504.00,47.553
505.00,47.664
506.00,47.752
507.00,47.699
508.00,47.803
509.00,47.911
510.00,47.990
511.00,47.969
512.00,48.116
513.00,48.230
514.00,48.244
515.00,48.414
516.00,48.370
517.00,48.359
518.00,48.477
519.00,48.398
520.00,48.315
521.00,48.443
522.00,48.541
523.00,48.449
524.00,48.456
525.00,48.600
526.00,48.596
527.00,48.650
528.00,48.628
529.00,48.901
530.00,48.949
531.00,49.048
532.00,49.112
533.00,49.125
534.00,49.097
535.00,49.238
536.00,49.278
537.00,49.299
538.00,49.425
539.00,49.285
540.00,49.351
541.00,49.303
542.00,49.303
543.00,49.256
544.00,49.249
545.00,49.401
546.00,49.418
547.00,49.583
548.00,49.674
549.00,49.639
550.00,49.720
551.00,49.809
552.00,49.787
553.00,49.819
554.00,49.833
555.00,49.758
556.00,49.882
557.00,49.947
558.00,50.030
559.00,50.013
560.00,49.993
561.00,50.100
562.00,50.130
563.00,50.043
564.00,50.135
565.00,50.121
566.00,50.094
567.00,50.053
568.00,50.087
569.00,50.190
570.00,50.081
571.00,50.142
572.00,50.165
573.00,49.957
574.00,50.009
575.00,50.135
576.00,50.051
577.00,50.108
578.00,50.177
579.00,50.295
580.00,50.246
581.00,50.435
582.00,50.433
583.00,50.421
584.00,50.528
585.00,50.521
586.00,50.577
587.00,50.654
588.00,50.586
589.00,50.487
590.00,50.531
591.00,50.522
592.00,50.473
593.00,50.576
594.00,50.676
595.00,50.738
596.00,50.736
597.00,50.754
598.00,50.761
599.00,50.667
600.00,50.752
601.00,50.828
602.00,50.764
603.00,50.729
604.00,50.726
605.00,50.774
606.00,50.756
607.00,50.687
608.00,50.907
609.00,50.934
610.00,50.755
611.00,50.824
612.00,50.839
613.00,50.771
614.00,50.853
615.00,50.913
616.00,50.921
617.00,50.895
618.00,50.853
619.00,50.910
620.00,50.760
621.00,50.900
622.00,50.962
623.00,50.963
624.00,50.961
625.00,50.986
626.00,51.000
627.00,51.008
628.00,50.939
629.00,50.850
630.00,50.903
631.00,50.916
632.00,50.931
633.00,51.024
634.00,51.020
635.00,51.114
636.00,51.125
637.00,51.031
638.00,51.051
639.00,51.099
640.00,51.047
641.00,51.030
642.00,50.995
643.00,51.082
644.00,51.114
645.00,51.055
646.00,51.127
647.00,51.103
648.00,51.078
649.00,51.008
650.00,50.990
651.00,51.175
652.00,51.143
653.00,50.968
654.00,51.047
655.00,51.253
656.00,51.458
657.00,51.215
658.00,51.336
659.00,51.263
660.00,51.275
661.00,51.173
662.00,51.175
663.00,51.186
664.00,51.312
665.00,51.464
666.00,51.225
667.00,51.305
668.00,51.212
669.00,51.403
670.00,51.552
671.00,51.284
672.00,51.309
673.00,51.324
674.00,51.219
675.00,51.402
676.00,51.624
677.00,51.576
678.00,51.263
679.00,51.338
680.00,51.384
681.00,51.489
682.00,51.396
683.00,51.335
684.00,51.428
685.00,51.448
686.00,51.166
687.00,51.229
688.00,51.181
689.00,51.251
690.00,51.525
691.00,51.662
692.00,51.244
693.00,51.194
694.00,51.328
695.00,51.421
696.00,51.423
697.00,51.208
698.00,51.324
699.00,51.548
700.00,51.388
701.00,51.240
702.00,51.317
703.00,51.481
704.00,51.445
705.00,51.180
706.00,51.253
707.00,51.153
708.00,51.220
709.00,51.747
710.00,51.354
711.00,51.303
712.00,51.188
713.00,51.223
714.00,51.303
715.00,51.296
716.00,51.087
717.00,51.228
718.00,51.302
719.00,51.176
720.00,51.243
721.00,56.051
722.00,55.945
723.00,55.862
724.00,55.883
725.00,55.790
726.00,55.798
727.00,55.663
728.00,55.605
729.00,55.576
730.00,55.546
731.00,55.579
732.00,55.409
733.00,55.474
734.00,55.312
735.00,55.352
736.00,55.368
737.00,55.352
738.00,55.233
739.00,55.211
740.00,55.139
741.00,55.173
742.00,55.147
743.00,55.081
744.00,54.945
745.00,54.968
746.00,54.883
747.00,54.810
748.00,54.738
749.00,54.682
750.00,54.671
751.00,54.669
752.00,54.541
753.00,54.479
754.00,54.493
755.00,54.377
756.00,54.359
757.00,54.287
758.00,54.212
759.00,54.204
760.00,54.112
761.00,54.217
762.00,54.119
763.00,54.151
764.00,54.091
765.00,53.964
766.00,54.032
767.00,53.988
768.00,53.995
769.00,53.848
770.00,53.907
771.00,53.806
772.00,53.753
773.00,53.725
774.00,53.672
775.00,53.689
776.00,53.612
777.00,53.558
778.00,53.645
779.00,53.627
780.00,53.498
781.00,53.545
782.00,53.498
783.00,53.414
784.00,53.430
785.00,53.366
786.00,53.302
787.00,53.223
788.00,53.164
789.00,53.241
790.00,53.032
791.00,53.119
792.00,53.043
793.00,52.984
794.00,52.988
795.00,52.912
796.00,52.965
797.00,52.839
798.00,52.885
799.00,52.794
800.00,52.768
801.00,52.682
802.00,52.705
803.00,52.676
804.00,52.561
805.00,52.578
806.00,52.502
807.00,52.473
808.00,52.482
809.00,52.465
810.00,52.348
811.00,52.375
812.00,52.345
813.00,52.277
814.00,52.299
815.00,52.222
816.00,52.261
817.00,52.188
818.00,52.081
819.00,52.039
820.00,52.063
821.00,51.972
822.00,52.070
823.00,51.896
824.00,51.961
825.00,51.779
826.00,51.829
827.00,51.834
828.00,51.896
829.00,51.701
830.00,51.728
831.00,54.079
832.00,54.065
833.00,54.012
834.00,53.983
835.00,53.929
836.00,53.975
837.00,53.872
838.00,53.860
839.00,53.842
840.00,53.750
841.00,53.766
842.00,53.699
843.00,53.684
844.00,53.695
845.00,53.620
846.00,53.582
847.00,53.566
848.00,53.701
849.00,53.501
850.00,53.435
851.00,53.359
852.00,53.349
853.00,53.302
854.00,53.278
855.00,53.216
856.00,53.247
857.00,53.200
858.00,53.152
859.00,53.116
860.00,53.139
861.00,53.087
862.00,53.016
863.00,53.081
864.00,52.969
865.00,53.010
866.00,52.933
867.00,52.922
868.00,52.881
869.00,52.858
870.00,52.855
871.00,52.874
872.00,52.836
873.00,52.837
874.00,52.808
875.00,52.780
876.00,52.779
877.00,52.737
878.00,52.698
879.00,52.768
880.00,52.585
881.00,52.673
882.00,52.669
883.00,52.608
884.00,52.597
885.00,52.555
886.00,52.536
887.00,52.512
888.00,52.466
889.00,52.478
890.00,52.465
891.00,52.396
892.00,52.379
893.00,52.368
894.00,52.399
895.00,52.188
896.00,52.286
897.00,52.257
898.00,52.228
899.00,52.212
900.00,52.206
901.00,52.184
902.00,52.154
903.00,52.151
904.00,52.154
905.00,52.079
906.00,52.132
907.00,52.065
908.00,52.049
909.00,52.034
910.00,51.957
911.00,51.976
912.00,51.979
913.00,51.937
914.00,51.908
915.00,51.878
916.00,51.864
917.00,51.843
918.00,51.818
919.00,51.761
920.00,51.743
921.00,51.753
922.00,51.707
923.00,51.683
924.00,51.657
925.00,51.645
926.00,51.646
927.00,51.611
928.00,51.588
929.00,51.572
930.00,51.551
931.00,51.532
932.00,51.444
933.00,51.500
934.00,51.446
935.00,51.430
936.00,51.399
937.00,51.390
938.00,51.360
939.00,51.356
940.00,51.337
941.00,51.313
942.00,51.286
943.00,51.281
944.00,51.227
945.00,51.233
946.00,51.198
947.00,51.159
948.00,51.150
949.00,51.133
950.00,51.103
951.00,51.089
952.00,51.072
953.00,51.036
954.00,51.011
955.00,50.974
956.00,50.976
957.00,50.930
958.00,50.930
959.00,50.929
960.00,50.878
961.00,50.869
962.00,50.861
963.00,50.800
964.00,50.794
965.00,50.800
966.00,50.778
967.00,50.759
968.00,50.729
969.00,50.758
970.00,50.748
971.00,50.752
972.00,50.708
973.00,50.749
974.00,50.735
975.00,50.727
976.00,50.732
977.00,50.715
978.00,50.752
979.00,50.701
980.00,50.731
981.00,50.724
982.00,50.713
983.00,50.707
984.00,50.704
985.00,50.704
986.00,50.666
987.00,50.689
988.00,50.646
989.00,50.641
990.00,50.645
991.00,50.619
992.00,50.640
993.00,50.601
994.00,50.590
995.00,50.575
996.00,50.568
997.00,50.551
998.00,50.547
999.00,50.549
1000.00,50.504
1001.00,50.495
1002.00,50.479
1003.00,50.471
1004.00,50.427
1005.00,50.419
1006.00,50.451
1007.00,50.416
1008.00,50.404
1009.00,50.391
1010.00,50.371
1011.00,50.357
1012.00,50.336
1013.00,50.322
1014.00,50.309
1015.00,50.317
1016.00,50.253
1017.00,50.273
1018.00,50.252
1019.00,50.223
1020.00,50.230
1021.00,50.197
1022.00,50.190
1023.00,50.151
1024.00,50.150
1025.00,50.134
1026.00,50.137
1027.00,50.104
1028.00,50.111
1029.00,50.082
1030.00,50.040
1031.00,50.063
1032.00,50.013
1033.00,50.014
1034.00,49.989
1035.00,49.945
1036.00,49.934
1037.00,49.915
1038.00,49.893
1039.00,49.860
1040.00,49.851
1041.00,49.824
1042.00,49.846
1043.00,49.819
1044.00,49.849
1045.00,49.842
1046.00,49.808
1047.00,49.836
1048.00,49.856
1049.00,49.842
1050.00,49.857
1051.00,49.919
1052.00,49.880
1053.00,49.888
1054.00,49.881
1055.00,49.923
1056.00,49.893
1057.00,49.915
1058.00,49.942
1059.00,49.914
1060.00,49.916
1061.00,49.904
1062.00,49.885
1063.00,49.897
1064.00,49.880
1065.00,49.862
1066.00,49.892
1067.00,49.879
1068.00,49.888
1069.00,49.858
1070.00,49.833
1071.00,49.810
1072.00,49.832
1073.00,49.802
1074.00,49.801
1075.00,49.799
1076.00,49.796
1077.00,49.780
1078.00,49.762
1079.00,49.755
1080.00,49.769
1081.00,49.744
1082.00,49.731
1083.00,49.731
1084.00,49.723
1085.00,49.729
1086.00,49.718
1087.00,49.718
1088.00,49.694
1089.00,49.683
1090.00,49.680
1091.00,49.684
1092.00,49.675
1093.00,49.651
1094.00,49.637
1095.00,49.622
1096.00,49.607
1097.00,49.610
1098.00,49.598
1099.00,49.594
1100.00,49.579
1101.00,49.571
1102.00,49.558
1103.00,49.572
1104.00,49.565
1105.00,49.552
1106.00,49.523
1107.00,49.511
1108.00,49.512
1109.00,49.500
1110.00,49.486
1111.00,49.493
1112.00,49.484
1113.00,49.472
1114.00,49.460
1115.00,49.462
1116.00,49.451
1117.00,49.444
1118.00,49.445
1119.00,49.444
1120.00,49.437
1121.00,49.441
1122.00,49.418
1123.00,49.412
1124.00,49.423
1125.00,49.411
1126.00,49.401
1127.00,49.422
1128.00,49.385
1129.00,49.360
1130.00,49.353
1131.00,49.351
1132.00,49.352
1133.00,49.351
1134.00,49.337
1135.00,49.320
1136.00,49.337
1137.00,49.350
1138.00,49.347
1139.00,49.344
1140.00,49.329
1141.00,49.325
1142.00,49.326
1143.00,49.340
1144.00,49.311
1145.00,49.314
1146.00,49.322
1147.00,49.313
1148.00,49.294
1149.00,49.313
1150.00,49.315
1151.00,49.327
1152.00,49.332
1153.00,49.277
1154.00,49.272
1155.00,49.286
1156.00,49.272
1157.00,49.293
1158.00,49.294
1159.00,49.267
1160.00,49.273
1161.00,49.278
1162.00,49.283
1163.00,49.282
1164.00,49.280
1165.00,49.288
1166.00,49.284
1167.00,49.265
1168.00,49.283
1169.00,49.266
1170.00,49.264
1171.00,49.253
1172.00,49.257
1173.00,49.251
1174.00,49.269
1175.00,49.258
1176.00,49.266
1177.00,49.251
1178.00,49.247
1179.00,49.282
1180.00,49.259
1181.00,49.261
1182.00,49.263
1183.00,49.267
1184.00,49.281
1185.00,49.267
1186.00,49.253
1187.00,49.272
1188.00,49.249
1189.00,49.249
1190.00,49.258
1191.00,49.248
1192.00,49.259
1193.00,49.266
1194.00,49.263
1195.00,49.238
1196.00,49.268
1197.00,49.265
1198.00,49.265
1199.00,49.269
1200.00,49.280
1201.00,49.296
1202.00,49.267
1203.00,49.272
1204.00,49.266
1205.00,49.277
1206.00,49.264
1207.00,49.276
1208.00,49.255
1209.00,49.272
1210.00,49.273
1211.00,49.269
1212.00,49.291
1213.00,49.257
1214.00,49.266
1215.00,49.250
1216.00,49.249
1217.00,49.264
1218.00,49.260
1219.00,49.282
1220.00,49.259
1221.00,49.278
1222.00,49.253
1223.00,49.298
1224.00,49.301
1225.00,49.269
1226.00,49.279
1227.00,49.274
1228.00,49.299
1229.00,49.297
1230.00,49.309
1231.00,49.317
1232.00,49.325
1233.00,49.323
1234.00,49.345
1235.00,49.338
1236.00,49.344
1237.00,49.364
1238.00,49.358
1239.00,49.363
1240.00,49.350
1241.00,49.354
1242.00,49.376
1243.00,49.387
1244.00,49.351
1245.00,49.384
1246.00,49.391
1247.00,49.370
1248.00,49.361
1249.00,49.381
1250.00,49.380
1251.00,49.377
1252.00,49.398
1253.00,49.390
1254.00,49.403
1255.00,49.382
1256.00,49.368
1257.00,49.368
1258.00,49.410
1259.00,49.417
1260.00,49.435
1261.00,49.442
1262.00,49.446
1263.00,49.448
1264.00,49.458
1265.00,49.455
1266.00,49.451
1267.00,49.464
1268.00,49.457
1269.00,49.454
1270.00,49.483
1271.00,49.482
1272.00,49.497
1273.00,49.530
1274.00,49.514
1275.00,49.527
1276.00,49.524
1277.00,49.520
1278.00,49.531
1279.00,49.529
1280.00,49.519
1281.00,49.538
1282.00,49.538
1283.00,49.555
1284.00,49.572
1285.00,49.557
1286.00,49.582
1287.00,49.578
1288.00,49.564
1289.00,49.569
1290.00,49.595
1291.00,49.575
1292.00,49.567
1293.00,49.595
1294.00,49.636
1295.00,49.635
1296.00,49.625
1297.00,49.640
1298.00,49.676
1299.00,49.649
1300.00,49.660
1301.00,49.652
1302.00,49.671
1303.00,49.679
1304.00,49.673
1305.00,49.692
1306.00,49.703
1307.00,49.700
1308.00,49.702
1309.00,49.720
1310.00,49.718
1311.00,49.718
1312.00,49.723
1313.00,49.748
1314.00,49.760
1315.00,49.757
1316.00,49.754
1317.00,49.797
1318.00,49.798
1319.00,49.798
1320.00,49.809
1321.00,49.972
1322.00,49.967
1323.00,49.948
1324.00,49.976
1325.00,49.941
1326.00,49.946
1327.00,49.946
1328.00,49.942
1329.00,49.925
1330.00,49.946
1331.00,49.954
1332.00,49.956
1333.00,49.942
1334.00,49.964
1335.00,50.021
1336.00,50.061
1337.00,50.048
1338.00,50.136
1339.00,50.186
1340.00,50.235
1341.00,50.295
1342.00,50.363
1343.00,50.426
1344.00,50.483
1345.00,50.524
1346.00,50.580
1347.00,50.594
1348.00,50.610
1349.00,50.639
1350.00,50.654
1351.00,50.670
1352.00,50.691
1353.00,50.724
1354.00,50.683
1355.00,50.654
1356.00,50.735
1357.00,50.715
1358.00,50.742
1359.00,50.705
1360.00,50.720
1361.00,50.765
1362.00,50.685
1363.00,50.752
1364.00,50.809
1365.00,50.735
1366.00,50.783
1367.00,50.735
1368.00,50.744
1369.00,50.763
1370.00,50.757
1371.00,50.731
1372.00,50.759
1373.00,50.740
1374.00,50.763
1375.00,50.741
1376.00,50.735
1377.00,50.748
1378.00,50.731
1379.00,50.732
1380.00,50.753
1381.00,50.721
1382.00,50.748
1383.00,50.760
1384.00,50.707
1385.00,50.723
1386.00,50.763
1387.00,50.687
1388.00,50.709
1389.00,50.763
1390.00,50.736
1391.00,50.740
1392.00,50.701
1393.00,50.715
1394.00,50.717
1395.00,50.717
1396.00,50.673
1397.00,50.770
1398.00,50.749
1399.00,50.741
1400.00,50.689
1401.00,50.726
1402.00,50.830
1403.00,50.771
1404.00,50.761
1405.00,50.795
1406.00,50.841
1407.00,50.768
1408.00,50.793
1409.00,50.805
1410.00,50.842
1411.00,50.818
1412.00,50.861
1413.00,50.759
1414.00,50.824
1415.00,50.865
1416.00,50.878
1417.00,50.909
1418.00,50.890
1419.00,50.894
1420.00,50.906
1421.00,50.931
1422.00,50.934
1423.00,50.950
1424.00,50.959
1425.00,50.984
1426.00,50.989
1427.00,51.005
1428.00,51.017
1429.00,51.046
1430.00,51.058
1431.00,51.085
1432.00,51.107
1433.00,51.126
1434.00,51.115
1435.00,51.179
1436.00,51.178
1437.00,51.173
1438.00,51.188
1439.00,51.223
1440.00,51.246
1441.00,51.243
1442.00,51.273
1443.00,51.309
1444.00,51.371
1445.00,51.314
1446.00,51.322
1447.00,51.356
1448.00,51.398
1449.00,51.414
1450.00,51.419
1451.00,51.415
1452.00,51.438
1453.00,51.450
1454.00,51.476
1455.00,51.500
1456.00,51.530
1457.00,51.517
1458.00,51.554
1459.00,51.567
1460.00,51.591
1461.00,51.588
1462.00,51.634
1463.00,51.656
1464.00,51.674
1465.00,51.674
1466.00,51.668
1467.00,51.702
1468.00,51.773
1469.00,51.738
1470.00,51.762
1471.00,51.797
1472.00,51.759
1473.00,51.789
1474.00,51.827
1475.00,51.838
1476.00,51.851
1477.00,51.821
1478.00,51.874
1479.00,51.890
1480.00,51.878
1481.00,51.884
1482.00,51.932
1483.00,51.949
1484.00,51.958
1485.00,51.959
1486.00,51.974
1487.00,51.996
1488.00,52.028
1489.00,52.018
1490.00,52.027
1491.00,52.044
1492.00,52.068
1493.00,52.058
1494.00,52.081
1495.00,52.068
1496.00,52.107
1497.00,52.096
1498.00,52.119
1499.00,52.125
1500.00,52.145
1501.00, 
1502.00, 
1503.00, 
1504.00, 
1505.00, 
1506.00, 
1507.00, 
1508.00, 
1509.00, 
1510.00, 
1511.00, 
1512.00, 
1513.00, 
1514.00, 
1515.00, 
1516.00, 
1517.00, 
1518.00, 
1519.00, 
1520.00, 
1521.00, 
1522.00, 
1523.00, 
1524.00, 
1525.00, 
1526.00, 
1527.00, 
1528.00, 
1529.00, 
1530.00, 
1531.00, 
1532.00, 
1533.00, 
1534.00, 
1535.00, 
1536.00, 
1537.00, 
1538.00, 
1539.00, 
1540.00, 
1541.00, 
1542.00, 
1543.00, 
1544.00, 
1545.00, 
1546.00, 
1547.00, 
1548.00, 
1549.00, 
1550.00, 
1551.00, 
1552.00, 
1553.00, 
1554.00, 
1555.00, 
1556.00, 
1557.00, 
1558.00, 
1559.00, 
1560.00, 
1561.00, 
1562.00, 
1563.00, 
1564.00, 
1565.00, 
1566.00, 
1567.00, 
1568.00, 
1569.00, 
1570.00, 
1571.00, 
1572.00, 
1573.00, 
1574.00, 
1575.00, 
1576.00, 
1577.00, 
1578.00, 
1579.00, 
1580.00, 
1581.00, 
1582.00, 
1583.00, 
1584.00, 
1585.00, 
1586.00, 
1587.00, 
1588.00, 
1589.00, 
1590.00, 
1591.00, 
1592.00, 
1593.00, 
1594.00, 
1595.00, 
1596.00, 
1597.00, 
1598.00, 
1599.00, 
1600.00, 
1601.00, 
1602.00, 
1603.00, 
1604.00, 
1605.00, 
1606.00, 
1607.00, 
1608.00, 
1609.00, 
1610.00, 
1611.00, 
1612.00, 
1613.00, 
1614.00, 
1615.00, 
1616.00, 
1617.00, 
1618.00, 
1619.00, 
1620.00, 
1621.00, 
1622.00, 
1623.00, 
1624.00, 
1625.00, 
1626.00, 
1627.00, 
1628.00, 
1629.00, 
1630.00, 
1631.00, 
1632.00, 
1633.00, 
1634.00, 
1635.00, 
1636.00, 
1637.00, 
1638.00, 
1639.00, 
1640.00, 
1641.00, 
1642.00, 
1643.00, 
1644.00, 
1645.00, 
1646.00, 
1647.00, 
1648.00, 
1649.00, 
1650.00, 
1651.00, 
1652.00, 
1653.00, 
1654.00, 
1655.00, 
1656.00, 
1657.00, 
1658.00, 
1659.00, 
1660.00, 
1661.00, 
1662.00, 
1663.00, 
1664.00, 
1665.00, 
1666.00, 
1667.00, 
1668.00, 
1669.00, 
1670.00, 
1671.00, 
1672.00, 
1673.00, 
1674.00, 
1675.00, 
1676.00, 
1677.00, 
1678.00, 
1679.00, 
1680.00, 
1681.00, 
1682.00, 
1683.00, 
1684.00, 
1685.00, 
1686.00, 
1687.00, 
1688.00, 
1689.00, 
1690.00, 
1691.00, 
1692.00, 
1693.00, 
1694.00, 
1695.00, 
1696.00, 
1697.00, 
1698.00, 
1699.00, 
1700.00, 
1701.00, 
1702.00, 
1703.00, 
1704.00, 
1705.00, 
1706.00, 
1707.00, 
1708.00, 
1709.00, 
1710.00, 
1711.00, 
1712.00, 
1713.00, 
1714.00, 
1715.00, 
1716.00, 
1717.00, 
1718.00, 
1719.00, 
1720.00, 
1721.00, 
1722.00, 
1723.00, 
1724.00, 
1725.00, 
1726.00, 
1727.00, 
1728.00, 
1729.00, 
1730.00, 
1731.00, 
1732.00, 
1733.00, 
1734.00, 
1735.00, 
1736.00, 
1737.00, 
1738.00, 
1739.00, 
1740.00, 
1741.00, 
1742.00, 
1743.00, 
1744.00, 
1745.00, 
1746.00, 
1747.00, 
1748.00, 
1749.00, 
1750.00, 
1751.00, 
1752.00, 
1753.00, 
1754.00, 
1755.00, 
1756.00, 
1757.00, 
1758.00, 
1759.00, 
1760.00, 
1761.00, 
1762.00, 
1763.00, 
1764.00, 
1765.00, 
1766.00, 
1767.00, 
1768.00, 
1769.00, 
1770.00, 
1771.00, 
1772.00, 
1773.00, 
1774.00, 
1775.00, 
1776.00, 
1777.00, 
1778.00, 
1779.00, 
1780.00, 
1781.00, 
1782.00, 
1783.00, 
1784.00, 
1785.00, 
1786.00, 
1787.00, 
1788.00, 
1789.00, 
1790.00, 
1791.00, 
1792.00, 
1793.00, 
1794.00, 
1795.00, 
1796.00, 
1797.00, 
1798.00, 
1799.00, 
1800.00, 
1801.00, 
1802.00, 
1803.00, 
1804.00, 
1805.00, 
1806.00, 
1807.00, 
1808.00, 
1809.00, 
1810.00, 
1811.00, 
1812.00, 
1813.00, 
1814.00, 
1815.00, 
1816.00, 
1817.00, 
1818.00, 
1819.00, 
1820.00, 
1821.00, 
1822.00, 
1823.00, 
1824.00, 
1825.00, 
1826.00, 
1827.00, 
1828.00, 
1829.00, 
1830.00, 
1831.00, 
1832.00, 
1833.00, 
1834.00, 
1835.00, 
1836.00, 
1837.00, 
1838.00, 
1839.00, 
1840.00, 
1841.00, 
1842.00, 
1843.00, 
1844.00, 
1845.00, 
1846.00, 
1847.00, 
1848.00, 
1849.00, 
1850.00, 
1851.00, 
1852.00, 
1853.00, 
1854.00, 
1855.00, 
1856.00, 
1857.00, 
1858.00, 
1859.00, 
1860.00, 
1861.00, 
1862.00, 
1863.00, 
1864.00, 
1865.00, 
1866.00, 
1867.00, 
1868.00, 
1869.00, 
1870.00, 
1871.00, 
1872.00, 
1873.00, 
1874.00, 
1875.00, 
1876.00, 
1877.00, 
1878.00, 
1879.00, 
1880.00, 
1881.00, 
1882.00, 
1883.00, 
1884.00, 
1885.00, 
1886.00, 
1887.00, 
1888.00, 
1889.00, 
1890.00, 
1891.00, 
1892.00, 
1893.00, 
1894.00, 
1895.00, 
1896.00, 
1897.00, 
1898.00, 
1899.00, 
1900.00, 
1901.00, 
1902.00, 
1903.00, 
1904.00, 
1905.00, 
1906.00, 
1907.00, 
1908.00, 
1909.00, 
1910.00, 
1911.00, 
1912.00, 
1913.00, 
1914.00, 
1915.00, 
1916.00, 
1917.00, 
1918.00, 
1919.00, 
1920.00, 
1921.00, 
1922.00, 
1923.00, 
1924.00, 
1925.00, 
1926.00, 
1927.00, 
1928.00, 
1929.00, 
1930.00, 
1931.00, 
1932.00, 
1933.00, 
1934.00, 
1935.00, 
1936.00, 
1937.00, 
1938.00, 
1939.00, 
1940.00, 
1941.00, 
1942.00, 
1943.00, 
1944.00, 
1945.00, 
1946.00, 
1947.00, 
1948.00, 
1949.00, 
1950.00, 
1951.00, 
1952.00, 
1953.00, 
1954.00, 
1955.00, 
1956.00, 
1957.00, 
1958.00, 
1959.00, 
1960.00, 
1961.00, 
1962.00, 
1963.00, 
1964.00, 
1965.00, 
1966.00, 
1967.00, 
1968.00, 
1969.00, 
1970.00, 
1971.00, 
1972.00, 
1973.00, 
1974.00, 
1975.00, 
1976.00, 
1977.00, 
1978.00, 
1979.00, 
1980.00, 
1981.00, 
1982.00, 
1983.00, 
1984.00, 
1985.00, 
1986.00, 
1987.00, 
1988.00, 
1989.00, 
1990.00, 
1991.00, 
1992.00, 
1993.00, 
1994.00, 
1995.00, 
1996.00, 
1997.00, 
1998.00, 
1999.00, 
2000.00, 
2001.00, 
2002.00, 
2003.00, 
2004.00, 
2005.00, 
2006.00, 
2007.00, 
2008.00, 
2009.00, 
2010.00, 
2011.00, 
2012.00, 
2013.00, 
2014.00, 
2015.00, 
2016.00, 
2017.00, 
2018.00, 
2019.00, 
2020.00, 
2021.00, 
2022.00, 
2023.00, 
2024.00, 
2025.00, 
2026.00, 
2027.00, 
2028.00, 
2029.00, 
2030.00, 
2031.00, 
2032.00, 
2033.00, 
2034.00, 
2035.00, 
2036.00, 
2037.00, 
2038.00, 
2039.00, 
2040.00, 
2041.00, 
2042.00, 
2043.00, 
2044.00, 
2045.00, 
2046.00, 
2047.00, 
2048.00, 
2049.00, 
2050.00, 
2051.00, 
2052.00, 
2053.00, 
2054.00, 
2055.00, 
2056.00, 
2057.00, 
2058.00, 
2059.00, 
2060.00, 
2061.00, 
2062.00, 
2063.00, 
2064.00, 
2065.00, 
2066.00, 
2067.00, 
2068.00, 
2069.00, 
2070.00, 
2071.00, 
2072.00, 
2073.00, 
2074.00, 
2075.00, 
2076.00, 
2077.00, 
2078.00, 
2079.00, 
2080.00, 
2081.00, 
2082.00, 
2083.00, 
2084.00, 
2085.00, 
2086.00, 
2087.00, 
2088.00, 
2089.00, 
2090.00, 
2091.00, 
2092.00, 
2093.00, 
2094.00, 
2095.00, 
2096.00, 
2097.00, 
2098.00, 
2099.00, 
2100.00, 
2101.00, 
2102.00, 
2103.00, 
2104.00, 
2105.00, 
2106.00, 
2107.00, 
2108.00, 
2109.00, 
2110.00, 
2111.00, 
2112.00, 
2113.00, 
2114.00, 
2115.00, 
2116.00, 
2117.00, 
2118.00, 
2119.00, 
2120.00, 
2121.00, 
2122.00, 
2123.00, 
2124.00, 
2125.00, 
2126.00, 
2127.00, 
2128.00, 
2129.00, 
2130.00, 
2131.00, 
2132.00, 
2133.00, 
2134.00, 
2135.00, 
2136.00, 
2137.00, 
2138.00, 
2139.00, 
2140.00, 
2141.00, 
2142.00, 
2143.00, 
2144.00, 
2145.00, 
2146.00, 
2147.00, 
2148.00, 
2149.00, 
2150.00, 
2151.00, 
2152.00, 
2153.00, 
2154.00, 
2155.00, 
2156.00, 
2157.00, 
2158.00, 
2159.00, 
2160.00, 
2161.00, 
2162.00, 
2163.00, 
2164.00, 
2165.00, 
2166.00, 
2167.00, 
2168.00, 
2169.00, 
2170.00, 
2171.00, 
2172.00, 
2173.00, 
2174.00, 
2175.00, 
2176.00, 
2177.00, 
2178.00, 
2179.00, 
2180.00, 
2181.00, 
2182.00, 
2183.00, 
2184.00, 
2185.00, 
2186.00, 
2187.00, 
2188.00, 
2189.00, 
2190.00, 
2191.00, 
2192.00, 
2193.00, 
2194.00, 
2195.00, 
2196.00, 
2197.00, 
2198.00, 
2199.00, 
2200.00, 
2201.00, 
2202.00, 
2203.00, 
2204.00, 
2205.00, 
2206.00, 
2207.00, 
2208.00, 
2209.00, 
2210.00, 
2211.00, 
2212.00, 
2213.00, 
2214.00, 
2215.00, 
2216.00, 
2217.00, 
2218.00, 
2219.00, 
2220.00, 
2221.00, 
2222.00, 
2223.00, 
2224.00, 
2225.00, 
2226.00, 
2227.00, 
2228.00, 
2229.00, 
2230.00, 
2231.00, 
2232.00, 
2233.00, 
2234.00, 
2235.00, 
2236.00, 
2237.00, 
2238.00, 
2239.00, 
2240.00, 
2241.00, 
2242.00, 
2243.00, 
2244.00, 
2245.00, 
2246.00, 
2247.00, 
2248.00, 
2249.00, 
2250.00, 
2251.00, 
2252.00, 
2253.00, 
2254.00, 
2255.00, 
2256.00, 
2257.00, 
2258.00, 
2259.00, 
2260.00, 
2261.00, 
2262.00, 
2263.00, 
2264.00, 
2265.00, 
2266.00, 
2267.00, 
2268.00, 
2269.00, 
2270.00, 
2271.00, 
2272.00, 
2273.00, 
2274.00, 
2275.00, 
2276.00, 
2277.00, 
2278.00, 
2279.00, 
2280.00, 
2281.00, 
2282.00, 
2283.00, 
2284.00, 
2285.00, 
2286.00, 
2287.00, 
2288.00, 
2289.00, 
2290.00, 
2291.00, 
2292.00, 
2293.00, 
2294.00, 
2295.00, 
2296.00, 
2297.00, 
2298.00, 
2299.00, 
2300.00, 
2301.00, 
2302.00, 
2303.00, 
2304.00, 
2305.00, 
2306.00, 
2307.00, 
2308.00, 
2309.00, 
2310.00, 
2311.00, 
2312.00, 
2313.00, 
2314.00, 
2315.00, 
2316.00, 
2317.00, 
2318.00, 
2319.00, 
2320.00, 
2321.00, 
2322.00, 
2323.00, 
2324.00, 
2325.00, 
2326.00, 
2327.00, 
2328.00, 
2329.00, 
2330.00, 
2331.00, 
2332.00, 
2333.00, 
2334.00, 
2335.00, 
2336.00, 
2337.00, 
2338.00, 
2339.00, 
2340.00, 
2341.00, 
2342.00, 
2343.00, 
2344.00, 
2345.00, 
2346.00, 
2347.00, 
2348.00, 
2349.00, 
2350.00, 
2351.00, 
2352.00, 
2353.00, 
2354.00, 
2355.00, 
2356.00, 
2357.00, 
2358.00, 
2359.00, 
2360.00, 
2361.00, 
2362.00, 
2363.00, 
2364.00, 
2365.00, 
2366.00, 
2367.00, 
2368.00, 
2369.00, 
2370.00, 
2371.00, 
2372.00, 
2373.00, 
2374.00, 
2375.00, 
2376.00, 
2377.00, 
2378.00, 
2379.00, 
2380.00, 
2381.00, 
2382.00, 
2383.00, 
2384.00, 
2385.00, 
2386.00, 
2387.00, 
2388.00, 
2389.00, 
2390.00, 
2391.00, 
2392.00, 
2393.00, 
2394.00, 
2395.00, 
2396.00, 
2397.00, 
2398.00, 
2399.00, 
2400.00, 
2401.00, 
2402.00, 
2403.00, 
2404.00, 
2405.00, 
2406.00, 
2407.00, 
2408.00, 
2409.00, 
2410.00, 
2411.00, 
2412.00, 
2413.00, 
2414.00, 
2415.00, 
2416.00, 
2417.00, 
2418.00, 
2419.00, 
2420.00, 
2421.00, 
2422.00, 
2423.00, 
2424.00, 
2425.00, 
2426.00, 
2427.00, 
2428.00, 
2429.00, 
2430.00, 
2431.00, 
2432.00, 
2433.00, 
2434.00, 
2435.00, 
2436.00, 
2437.00, 
2438.00, 
2439.00, 
2440.00, 
2441.00, 
2442.00, 
2443.00, 
2444.00, 
2445.00, 
2446.00, 
2447.00, 
2448.00, 
2449.00, 
2450.00, 
2451.00, 
2452.00, 
2453.00, 
2454.00, 
2455.00, 
2456.00, 
2457.00, 
2458.00, 
2459.00, 
2460.00, 
2461.00, 
2462.00, 
2463.00, 
2464.00, 
2465.00, 
2466.00, 
2467.00, 
2468.00, 
2469.00, 
2470.00, 
2471.00, 
2472.00, 
2473.00, 
2474.00, 
2475.00, 
2476.00, 
2477.00, 
2478.00, 
2479.00, 
2480.00, 
2481.00, 
2482.00, 
2483.00, 
2484.00, 
2485.00, 
2486.00, 
2487.00, 
2488.00, 
2489.00, 
2490.00, 
2491.00, 
2492.00, 
2493.00, 
2494.00, 
2495.00, 
2496.00, 
2497.00, 
2498.00, 
2499.00, 
2500.00, 
2501.00, 
2502.00, 
2503.00, 
2504.00, 
2505.00, 
2506.00, 
2507.00, 
2508.00, 
2509.00, 
2510.00, 
2511.00, 
2512.00, 
2513.00, 
2514.00, 
2515.00, 
2516.00, 
2517.00, 
2518.00, 
2519.00, 
2520.00, 
2521.00, 
2522.00, 
2523.00, 
2524.00, 
2525.00, 
2526.00, 
2527.00, 
2528.00, 
2529.00, 
2530.00, 
2531.00, 
2532.00, 
2533.00, 
2534.00, 
2535.00, 
2536.00, 
2537.00, 
2538.00, 
2539.00, 
2540.00, 
2541.00, 
2542.00, 
2543.00, 
2544.00, 
2545.00, 
2546.00, 
2547.00, 
2548.00, 
2549.00, 
2550.00, 
2551.00, 
2552.00, 
2553.00, 
2554.00, 
2555.00, 
2556.00, 
2557.00, 
2558.00, 
2559.00, 
2560.00, 
2561.00, 
2562.00, 
2563.00, 
2564.00, 
2565.00, 
2566.00, 
2567.00, 
2568.00, 
2569.00, 
2570.00, 
2571.00, 
2572.00, 
2573.00, 
2574.00, 
2575.00, 
2576.00, 
2577.00, 
2578.00, 
2579.00, 
2580.00, 
2581.00, 
2582.00, 
2583.00, 
2584.00, 
2585.00, 
2586.00, 
2587.00, 
2588.00, 
2589.00, 
2590.00, 
2591.00, 
2592.00, 
2593.00, 
2594.00, 
2595.00, 
2596.00, 
2597.00, 
2598.00, 
2599.00, 
2600.00, 
