"2cP2 - RawData"
"Wavelength nm.","T%"
200.00,0.001
201.00,-0.001
202.00,0.003
203.00,0.001
204.00,0.003
205.00,0.002
206.00,-0.001
207.00,0.002
208.00,0.001
209.00,-0.002
210.00,0.002
211.00,0.003
212.00,0.003
213.00,0.001
214.00,0.001
215.00,0.000
216.00,0.002
217.00,0.002
218.00,0.000
219.00,0.000
220.00,0.002
221.00,0.002
222.00,0.002
223.00,0.001
224.00,0.000
225.00,0.003
226.00,-0.000
227.00,0.002
228.00,0.002
229.00,0.002
230.00,0.000
231.00,0.000
232.00,0.003
233.00,0.002
234.00,-0.001
235.00,0.002
236.00,-0.000
237.00,0.002
238.00,-0.000
239.00,0.001
240.00,0.000
241.00,0.001
242.00,-0.000
243.00,-0.000
244.00,0.001
245.00,0.002
246.00,0.002
247.00,0.001
248.00,-0.001
249.00,-0.001
250.00,0.001
251.00,0.001
252.00,0.001
253.00,0.000
254.00,0.001
255.00,0.000
256.00,-0.001
257.00,0.001
258.00,-0.000
259.00,-0.000
260.00,0.001
261.00,0.003
262.00,0.000
263.00,-0.001
264.00,0.001
265.00,0.001
266.00,-0.001
267.00,0.000
268.00,-0.000
269.00,-0.000
270.00,0.001
271.00,-0.000
272.00,-0.001
273.00,0.000
274.00,-0.000
275.00,0.000
276.00,0.001
277.00,0.001
278.00,0.001
279.00,0.000
280.00,-0.000
281.00,-0.001
282.00,0.001
283.00,0.000
284.00,0.001
285.00,0.000
286.00,0.001
287.00,-0.001
288.00,0.001
289.00,-0.001
290.00,-0.001
291.00,-0.001
292.00,-0.000
293.00,0.001
294.00,-0.001
295.00,0.000
296.00,0.000
297.00,0.001
298.00,0.001
299.00,0.002
300.00,0.003
301.00,0.005
302.00,0.009
303.00,0.013
304.00,0.020
305.00,0.033
306.00,0.051
307.00,0.072
308.00,0.113
309.00,0.179
310.00,0.246
311.00,0.340
312.00,0.463
313.00,0.635
314.00,0.830
315.00,1.083
316.00,1.382
317.00,1.761
318.00,2.162
319.00,2.664
320.00,3.265
321.00,3.908
322.00,4.611
323.00,5.448
324.00,6.315
325.00,7.205
326.00,8.135
327.00,9.188
328.00,10.280
329.00,11.382
330.00,12.559
331.00,13.780
332.00,14.940
333.00,16.193
334.00,17.376
335.00,18.604
336.00,19.848
337.00,21.088
338.00,22.300
339.00,23.484
340.00,24.670
341.00,25.792
342.00,26.841
343.00,27.815
344.00,28.829
345.00,29.769
346.00,30.583
347.00,31.529
348.00,32.362
349.00,33.210
350.00,33.871
351.00,34.570
352.00,35.239
353.00,35.855
354.00,36.468
355.00,36.955
356.00,37.545
357.00,38.075
358.00,38.546
359.00,38.962
360.00,39.381
361.00,39.749
362.00,40.072
363.00,40.495
364.00,40.796
365.00,41.138
366.00,41.326
367.00,41.596
368.00,41.774
369.00,41.956
370.00,42.154
371.00,42.282
372.00,42.397
373.00,42.432
374.00,42.458
375.00,42.540
376.00,42.587
377.00,42.572
378.00,42.535
379.00,42.482
380.00,42.493
381.00,42.570
382.00,42.656
383.00,42.776
384.00,42.880
385.00,43.071
386.00,43.139
387.00,43.344
388.00,43.479
389.00,43.580
390.00,43.723
391.00,43.844
392.00,43.941
393.00,44.054
394.00,44.103
395.00,44.191
396.00,44.280
397.00,44.311
398.00,44.377
399.00,44.452
400.00,44.442
401.00,44.529
402.00,44.595
403.00,44.594
404.00,44.627
405.00,44.634
406.00,44.616
407.00,44.593
408.00,44.588
409.00,44.582
410.00,44.500
411.00,44.473
412.00,44.433
413.00,44.436
414.00,44.444
415.00,44.445
416.00,44.573
417.00,44.541
418.00,44.489
419.00,44.522
420.00,44.500
421.00,44.680
422.00,44.683
423.00,44.689
424.00,44.698
425.00,44.723
426.00,44.708
427.00,44.712
428.00,44.758
429.00,44.637
430.00,44.729
431.00,44.760
432.00,44.741
433.00,44.991
434.00,44.975
435.00,45.041
436.00,45.039
437.00,45.068
438.00,45.124
439.00,45.116
440.00,45.178
441.00,45.212
442.00,45.245
443.00,45.275
444.00,45.394
445.00,45.384
446.00,45.481
447.00,45.612
448.00,45.592
449.00,45.615
450.00,45.714
451.00,45.722
452.00,45.810
453.00,45.812
454.00,45.851
455.00,45.925
456.00,46.016
457.00,46.086
458.00,46.126
459.00,46.165
460.00,46.262
461.00,46.295
462.00,46.320
463.00,46.425
464.00,46.487
465.00,46.536
466.00,46.610
467.00,46.634
468.00,46.626
469.00,46.681
470.00,46.709
471.00,46.728
472.00,46.720
473.00,46.766
474.00,46.756
475.00,46.799
476.00,46.741
477.00,46.773
478.00,46.808
479.00,47.043
480.00,47.131
481.00,47.144
482.00,47.217
483.00,47.243
484.00,47.344
485.00,47.517
486.00,47.540
487.00,47.625
488.00,47.684
489.00,47.827
490.00,47.813
491.00,47.899
492.00,48.037
493.00,47.985
494.00,47.995
495.00,48.027
496.00,48.059
497.00,48.114
498.00,48.239
499.00,48.309
500.00,48.344
501.00,48.414
502.00,48.462
503.00,48.503
504.00,48.473
505.00,48.574
506.00,48.647
507.00,48.570
508.00,48.674
509.00,48.746
510.00,48.783
511.00,48.825
512.00,48.918
513.00,48.938
514.00,48.996
515.00,49.097
516.00,49.127
517.00,49.070
518.00,49.157
519.00,49.148
520.00,49.095
521.00,49.176
522.00,49.307
523.00,49.312
524.00,49.309
525.00,49.398
526.00,49.425
527.00,49.462
528.00,49.371
529.00,49.470
530.00,49.498
531.00,49.722
532.00,49.755
533.00,49.792
534.00,49.751
535.00,49.885
536.00,49.946
537.00,49.916
538.00,50.154
539.00,49.975
540.00,49.956
541.00,50.048
542.00,50.039
543.00,50.083
544.00,50.114
545.00,50.129
546.00,50.147
547.00,50.208
548.00,50.252
549.00,50.286
550.00,50.386
551.00,50.364
552.00,50.402
553.00,50.450
554.00,50.470
555.00,50.509
556.00,50.520
557.00,50.528
558.00,50.592
559.00,50.619
560.00,50.647
561.00,50.664
562.00,50.672
563.00,50.674
564.00,50.694
565.00,50.704
566.00,50.653
567.00,50.724
568.00,50.667
569.00,50.708
570.00,50.679
571.00,50.705
572.00,50.708
573.00,50.766
574.00,50.783
575.00,50.744
576.00,50.732
577.00,50.818
578.00,50.813
579.00,50.851
580.00,50.960
581.00,51.006
582.00,51.015
583.00,51.099
584.00,51.190
585.00,51.200
586.00,51.195
587.00,51.293
588.00,51.315
589.00,51.263
590.00,51.288
591.00,51.269
592.00,51.248
593.00,51.310
594.00,51.400
595.00,51.288
596.00,51.361
597.00,51.414
598.00,51.478
599.00,51.469
600.00,51.504
601.00,51.466
602.00,51.508
603.00,51.475
604.00,51.454
605.00,51.528
606.00,51.561
607.00,51.490
608.00,51.570
609.00,51.491
610.00,51.499
611.00,51.554
612.00,51.615
613.00,51.505
614.00,51.582
615.00,51.573
616.00,51.605
617.00,51.657
618.00,51.646
619.00,51.627
620.00,51.455
621.00,51.601
622.00,51.605
623.00,51.648
624.00,51.634
625.00,51.675
626.00,51.656
627.00,51.674
628.00,51.712
629.00,51.688
630.00,51.663
631.00,51.687
632.00,51.701
633.00,51.734
634.00,51.708
635.00,51.777
636.00,51.853
637.00,51.792
638.00,51.845
639.00,51.850
640.00,51.813
641.00,51.781
642.00,51.770
643.00,51.770
644.00,51.812
645.00,51.872
646.00,51.883
647.00,51.845
648.00,51.841
649.00,51.807
650.00,51.789
651.00,51.810
652.00,51.888
653.00,51.873
654.00,51.877
655.00,51.939
656.00,51.963
657.00,52.083
658.00,52.013
659.00,51.933
660.00,51.918
661.00,51.941
662.00,52.038
663.00,52.005
664.00,51.791
665.00,51.972
666.00,52.093
667.00,51.846
668.00,52.016
669.00,51.989
670.00,51.908
671.00,51.898
672.00,51.888
673.00,51.691
674.00,51.942
675.00,52.338
676.00,52.147
677.00,51.950
678.00,51.966
679.00,51.933
680.00,51.958
681.00,52.002
682.00,52.084
683.00,51.979
684.00,52.107
685.00,52.057
686.00,51.943
687.00,52.028
688.00,51.973
689.00,51.982
690.00,51.955
691.00,51.989
692.00,51.914
693.00,51.979
694.00,51.932
695.00,51.925
696.00,52.014
697.00,51.927
698.00,52.017
699.00,52.067
700.00,52.066
701.00,51.934
702.00,52.017
703.00,51.991
704.00,52.063
705.00,51.859
706.00,51.987
707.00,51.829
708.00,51.770
709.00,51.992
710.00,51.894
711.00,51.938
712.00,51.867
713.00,51.770
714.00,51.822
715.00,51.859
716.00,51.845
717.00,51.824
718.00,51.804
719.00,51.840
720.00,51.767
721.00,56.288
722.00,56.129
723.00,56.115
724.00,55.999
725.00,55.909
726.00,55.862
727.00,55.812
728.00,55.767
729.00,55.774
730.00,55.685
731.00,55.704
732.00,55.613
733.00,55.498
734.00,55.450
735.00,55.441
736.00,55.494
737.00,55.448
738.00,55.366
739.00,55.376
740.00,55.226
741.00,55.296
742.00,55.311
743.00,55.208
744.00,55.103
745.00,55.036
746.00,54.944
747.00,54.917
748.00,54.819
749.00,54.750
750.00,54.740
751.00,54.716
752.00,54.679
753.00,54.578
754.00,54.560
755.00,54.525
756.00,54.450
757.00,54.343
758.00,54.351
759.00,54.294
760.00,54.343
761.00,54.314
762.00,54.202
763.00,54.254
764.00,54.222
765.00,54.108
766.00,54.154
767.00,54.072
768.00,54.111
769.00,53.993
770.00,54.021
771.00,53.988
772.00,53.852
773.00,53.878
774.00,53.805
775.00,53.821
776.00,53.817
777.00,53.688
778.00,53.712
779.00,53.701
780.00,53.638
781.00,53.625
782.00,53.626
783.00,53.561
784.00,53.631
785.00,53.502
786.00,53.563
787.00,53.533
788.00,53.373
789.00,53.420
790.00,53.290
791.00,53.232
792.00,53.263
793.00,53.163
794.00,53.129
795.00,53.192
796.00,53.118
797.00,53.015
798.00,53.072
799.00,52.977
800.00,52.953
801.00,52.863
802.00,52.889
803.00,52.797
804.00,52.753
805.00,52.778
806.00,52.666
807.00,52.651
808.00,52.712
809.00,52.568
810.00,52.578
811.00,52.514
812.00,52.492
813.00,52.471
814.00,52.473
815.00,52.466
816.00,52.410
817.00,52.324
818.00,52.217
819.00,52.301
820.00,52.247
821.00,52.218
822.00,52.299
823.00,52.131
824.00,52.150
825.00,52.066
826.00,52.068
827.00,52.073
828.00,52.009
829.00,51.954
830.00,51.979
831.00,54.556
832.00,54.487
833.00,54.446
834.00,54.441
835.00,54.367
836.00,54.367
837.00,54.304
838.00,54.264
839.00,54.254
840.00,54.177
841.00,54.218
842.00,54.175
843.00,54.150
844.00,54.100
845.00,54.088
846.00,54.055
847.00,54.029
848.00,53.997
849.00,53.936
850.00,53.888
851.00,53.842
852.00,53.837
853.00,53.805
854.00,53.758
855.00,53.693
856.00,53.683
857.00,53.633
858.00,53.608
859.00,53.547
860.00,53.500
861.00,53.473
862.00,53.470
863.00,53.454
864.00,53.350
865.00,53.388
866.00,53.359
867.00,53.379
868.00,53.361
869.00,53.309
870.00,53.361
871.00,53.297
872.00,53.288
873.00,53.286
874.00,53.249
875.00,53.232
876.00,53.225
877.00,53.199
878.00,53.140
879.00,53.220
880.00,53.047
881.00,53.090
882.00,53.077
883.00,53.063
884.00,53.040
885.00,52.985
886.00,52.994
887.00,52.965
888.00,52.956
889.00,52.915
890.00,52.922
891.00,52.851
892.00,52.834
893.00,52.777
894.00,52.842
895.00,52.614
896.00,52.761
897.00,52.722
898.00,52.689
899.00,52.698
900.00,52.675
901.00,52.652
902.00,52.639
903.00,52.609
904.00,52.621
905.00,52.569
906.00,52.558
907.00,52.524
908.00,52.532
909.00,52.496
910.00,52.435
911.00,52.442
912.00,52.452
913.00,52.395
914.00,52.367
915.00,52.347
916.00,52.312
917.00,52.315
918.00,52.251
919.00,52.148
920.00,52.281
921.00,52.177
922.00,52.181
923.00,52.162
924.00,52.131
925.00,52.095
926.00,52.096
927.00,52.066
928.00,52.055
929.00,52.025
930.00,51.983
931.00,52.002
932.00,51.948
933.00,51.955
934.00,51.924
935.00,51.884
936.00,51.899
937.00,51.865
938.00,51.832
939.00,51.846
940.00,51.803
941.00,51.781
942.00,51.753
943.00,51.765
944.00,51.697
945.00,51.709
946.00,51.674
947.00,51.656
948.00,51.630
949.00,51.611
950.00,51.591
951.00,51.585
952.00,51.534
953.00,51.566
954.00,51.487
955.00,51.454
956.00,51.454
957.00,51.386
958.00,51.417
959.00,51.376
960.00,51.356
961.00,51.319
962.00,51.347
963.00,51.277
964.00,51.277
965.00,51.258
966.00,51.253
967.00,51.251
968.00,51.212
969.00,51.233
970.00,51.230
971.00,51.222
972.00,51.192
973.00,51.229
974.00,51.223
975.00,51.206
976.00,51.222
977.00,51.176
978.00,51.226
979.00,51.191
980.00,51.228
981.00,51.203
982.00,51.195
983.00,51.175
984.00,51.175
985.00,51.170
986.00,51.140
987.00,51.145
988.00,51.121
989.00,51.125
990.00,51.121
991.00,51.079
992.00,51.111
993.00,51.075
994.00,51.069
995.00,51.077
996.00,51.044
997.00,51.045
998.00,51.011
999.00,51.023
1000.00,50.989
1001.00,50.982
1002.00,50.956
1003.00,50.978
1004.00,50.955
1005.00,50.919
1006.00,50.937
1007.00,50.902
1008.00,50.888
1009.00,50.882
1010.00,50.845
1011.00,50.855
1012.00,50.822
1013.00,50.818
1014.00,50.797
1015.00,50.805
1016.00,50.744
1017.00,50.760
1018.00,50.732
1019.00,50.713
1020.00,50.683
1021.00,50.667
1022.00,50.675
1023.00,50.624
1024.00,50.630
1025.00,50.606
1026.00,50.622
1027.00,50.588
1028.00,50.593
1029.00,50.567
1030.00,50.543
1031.00,50.553
1032.00,50.506
1033.00,50.523
1034.00,50.481
1035.00,50.439
1036.00,50.426
1037.00,50.396
1038.00,50.377
1039.00,50.354
1040.00,50.346
1041.00,50.322
1042.00,50.324
1043.00,50.285
1044.00,50.328
1045.00,50.316
1046.00,50.290
1047.00,50.313
1048.00,50.314
1049.00,50.322
1050.00,50.333
1051.00,50.346
1052.00,50.366
1053.00,50.363
1054.00,50.354
1055.00,50.392
1056.00,50.363
1057.00,50.391
1058.00,50.389
1059.00,50.386
1060.00,50.374
1061.00,50.383
1062.00,50.356
1063.00,50.357
1064.00,50.322
1065.00,50.321
1066.00,50.324
1067.00,50.310
1068.00,50.311
1069.00,50.294
1070.00,50.277
1071.00,50.261
1072.00,50.280
1073.00,50.241
1074.00,50.255
1075.00,50.238
1076.00,50.220
1077.00,50.217
1078.00,50.202
1079.00,50.181
1080.00,50.199
1081.00,50.163
1082.00,50.164
1083.00,50.165
1084.00,50.153
1085.00,50.143
1086.00,50.139
1087.00,50.134
1088.00,50.123
1089.00,50.116
1090.00,50.104
1091.00,50.113
1092.00,50.090
1093.00,50.062
1094.00,50.071
1095.00,50.042
1096.00,50.044
1097.00,50.027
1098.00,50.016
1099.00,50.028
1100.00,49.997
1101.00,49.975
1102.00,49.976
1103.00,49.977
1104.00,49.973
1105.00,49.960
1106.00,49.955
1107.00,49.942
1108.00,49.936
1109.00,49.900
1110.00,49.910
1111.00,49.911
1112.00,49.899
1113.00,49.885
1114.00,49.884
1115.00,49.883
1116.00,49.882
1117.00,49.857
1118.00,49.858
1119.00,49.845
1120.00,49.847
1121.00,49.846
1122.00,49.847
1123.00,49.812
1124.00,49.832
1125.00,49.818
1126.00,49.803
1127.00,49.799
1128.00,49.771
1129.00,49.754
1130.00,49.758
1131.00,49.756
1132.00,49.768
1133.00,49.767
1134.00,49.742
1135.00,49.721
1136.00,49.727
1137.00,49.718
1138.00,49.724
1139.00,49.707
1140.00,49.709
1141.00,49.682
1142.00,49.702
1143.00,49.707
1144.00,49.671
1145.00,49.661
1146.00,49.682
1147.00,49.663
1148.00,49.655
1149.00,49.670
1150.00,49.665
1151.00,49.668
1152.00,49.640
1153.00,49.620
1154.00,49.637
1155.00,49.648
1156.00,49.628
1157.00,49.633
1158.00,49.615
1159.00,49.608
1160.00,49.625
1161.00,49.626
1162.00,49.627
1163.00,49.622
1164.00,49.607
1165.00,49.612
1166.00,49.620
1167.00,49.602
1168.00,49.622
1169.00,49.607
1170.00,49.617
1171.00,49.605
1172.00,49.595
1173.00,49.596
1174.00,49.603
1175.00,49.589
1176.00,49.605
1177.00,49.596
1178.00,49.584
1179.00,49.606
1180.00,49.587
1181.00,49.599
1182.00,49.600
1183.00,49.578
1184.00,49.567
1185.00,49.581
1186.00,49.566
1187.00,49.588
1188.00,49.567
1189.00,49.559
1190.00,49.574
1191.00,49.565
1192.00,49.564
1193.00,49.565
1194.00,49.570
1195.00,49.550
1196.00,49.565
1197.00,49.554
1198.00,49.560
1199.00,49.555
1200.00,49.546
1201.00,49.571
1202.00,49.550
1203.00,49.550
1204.00,49.542
1205.00,49.549
1206.00,49.546
1207.00,49.560
1208.00,49.535
1209.00,49.546
1210.00,49.543
1211.00,49.531
1212.00,49.563
1213.00,49.525
1214.00,49.536
1215.00,49.529
1216.00,49.526
1217.00,49.539
1218.00,49.527
1219.00,49.532
1220.00,49.531
1221.00,49.541
1222.00,49.522
1223.00,49.558
1224.00,49.533
1225.00,49.520
1226.00,49.536
1227.00,49.523
1228.00,49.550
1229.00,49.551
1230.00,49.588
1231.00,49.582
1232.00,49.605
1233.00,49.588
1234.00,49.593
1235.00,49.584
1236.00,49.576
1237.00,49.589
1238.00,49.581
1239.00,49.593
1240.00,49.593
1241.00,49.576
1242.00,49.610
1243.00,49.612
1244.00,49.590
1245.00,49.614
1246.00,49.616
1247.00,49.607
1248.00,49.598
1249.00,49.601
1250.00,49.603
1251.00,49.610
1252.00,49.609
1253.00,49.631
1254.00,49.658
1255.00,49.622
1256.00,49.612
1257.00,49.589
1258.00,49.634
1259.00,49.627
1260.00,49.638
1261.00,49.642
1262.00,49.629
1263.00,49.622
1264.00,49.650
1265.00,49.644
1266.00,49.646
1267.00,49.661
1268.00,49.676
1269.00,49.661
1270.00,49.674
1271.00,49.677
1272.00,49.693
1273.00,49.694
1274.00,49.678
1275.00,49.692
1276.00,49.692
1277.00,49.690
1278.00,49.714
1279.00,49.703
1280.00,49.701
1281.00,49.720
1282.00,49.722
1283.00,49.724
1284.00,49.732
1285.00,49.701
1286.00,49.730
1287.00,49.729
1288.00,49.730
1289.00,49.735
1290.00,49.747
1291.00,49.750
1292.00,49.763
1293.00,49.753
1294.00,49.782
1295.00,49.788
1296.00,49.772
1297.00,49.800
1298.00,49.799
1299.00,49.773
1300.00,49.802
1301.00,49.790
1302.00,49.787
1303.00,49.827
1304.00,49.803
1305.00,49.829
1306.00,49.827
1307.00,49.830
1308.00,49.855
1309.00,49.847
1310.00,49.844
1311.00,49.847
1312.00,49.852
1313.00,49.855
1314.00,49.873
1315.00,49.870
1316.00,49.876
1317.00,49.889
1318.00,49.870
1319.00,49.893
1320.00,49.911
1321.00,50.061
1322.00,50.092
1323.00,50.061
1324.00,50.068
1325.00,50.058
1326.00,50.067
1327.00,50.062
1328.00,50.058
1329.00,50.051
1330.00,50.059
1331.00,50.061
1332.00,50.040
1333.00,50.062
1334.00,50.074
1335.00,50.110
1336.00,50.136
1337.00,50.153
1338.00,50.216
1339.00,50.271
1340.00,50.318
1341.00,50.375
1342.00,50.443
1343.00,50.500
1344.00,50.558
1345.00,50.597
1346.00,50.659
1347.00,50.676
1348.00,50.685
1349.00,50.728
1350.00,50.735
1351.00,50.763
1352.00,50.748
1353.00,50.777
1354.00,50.751
1355.00,50.613
1356.00,50.764
1357.00,50.772
1358.00,50.767
1359.00,50.786
1360.00,50.829
1361.00,50.831
1362.00,50.760
1363.00,50.831
1364.00,50.819
1365.00,50.891
1366.00,50.738
1367.00,50.743
1368.00,50.716
1369.00,50.561
1370.00,50.758
1371.00,50.721
1372.00,50.764
1373.00,50.732
1374.00,50.757
1375.00,50.732
1376.00,50.723
1377.00,50.747
1378.00,50.746
1379.00,50.748
1380.00,50.753
1381.00,50.723
1382.00,50.707
1383.00,50.735
1384.00,50.708
1385.00,50.676
1386.00,50.763
1387.00,50.685
1388.00,50.685
1389.00,50.712
1390.00,50.759
1391.00,50.726
1392.00,50.710
1393.00,50.773
1394.00,50.705
1395.00,50.740
1396.00,50.669
1397.00,50.706
1398.00,50.788
1399.00,50.784
1400.00,50.684
1401.00,50.708
1402.00,50.816
1403.00,50.743
1404.00,50.723
1405.00,50.808
1406.00,50.762
1407.00,50.785
1408.00,50.779
1409.00,50.745
1410.00,50.801
1411.00,50.820
1412.00,50.833
1413.00,50.746
1414.00,50.790
1415.00,50.837
1416.00,50.871
1417.00,50.868
1418.00,50.865
1419.00,50.836
1420.00,50.877
1421.00,50.891
1422.00,50.895
1423.00,50.896
1424.00,50.927
1425.00,50.922
1426.00,50.951
1427.00,50.975
1428.00,50.965
1429.00,50.986
1430.00,50.997
1431.00,51.008
1432.00,51.029
1433.00,51.050
1434.00,51.036
1435.00,51.097
1436.00,51.084
1437.00,51.094
1438.00,51.111
1439.00,51.134
1440.00,51.147
1441.00,51.146
1442.00,51.166
1443.00,51.207
1444.00,51.203
1445.00,51.206
1446.00,51.219
1447.00,51.247
1448.00,51.291
1449.00,51.288
1450.00,51.267
1451.00,51.293
1452.00,51.292
1453.00,51.327
1454.00,51.341
1455.00,51.352
1456.00,51.372
1457.00,51.376
1458.00,51.396
1459.00,51.409
1460.00,51.433
1461.00,51.441
1462.00,51.477
1463.00,51.477
1464.00,51.482
1465.00,51.501
1466.00,51.497
1467.00,51.537
1468.00,51.585
1469.00,51.559
1470.00,51.567
1471.00,51.594
1472.00,51.594
1473.00,51.608
1474.00,51.630
1475.00,51.633
1476.00,51.655
1477.00,51.638
1478.00,51.666
1479.00,51.676
1480.00,51.670
1481.00,51.687
1482.00,51.725
1483.00,51.724
1484.00,51.731
1485.00,51.741
1486.00,51.733
1487.00,51.761
1488.00,51.773
1489.00,51.778
1490.00,51.787
1491.00,51.794
1492.00,51.812
1493.00,51.822
1494.00,51.813
1495.00,51.844
1496.00,51.847
1497.00,51.850
1498.00,51.852
1499.00,51.870
1500.00,51.901
1501.00, 
1502.00, 
1503.00, 
1504.00, 
1505.00, 
1506.00, 
1507.00, 
1508.00, 
1509.00, 
1510.00, 
1511.00, 
1512.00, 
1513.00, 
1514.00, 
1515.00, 
1516.00, 
1517.00, 
1518.00, 
1519.00, 
1520.00, 
1521.00, 
1522.00, 
1523.00, 
1524.00, 
1525.00, 
1526.00, 
1527.00, 
1528.00, 
1529.00, 
1530.00, 
1531.00, 
1532.00, 
1533.00, 
1534.00, 
1535.00, 
1536.00, 
1537.00, 
1538.00, 
1539.00, 
1540.00, 
1541.00, 
1542.00, 
1543.00, 
1544.00, 
1545.00, 
1546.00, 
1547.00, 
1548.00, 
1549.00, 
1550.00, 
1551.00, 
1552.00, 
1553.00, 
1554.00, 
1555.00, 
1556.00, 
1557.00, 
1558.00, 
1559.00, 
1560.00, 
1561.00, 
1562.00, 
1563.00, 
1564.00, 
1565.00, 
1566.00, 
1567.00, 
1568.00, 
1569.00, 
1570.00, 
1571.00, 
1572.00, 
1573.00, 
1574.00, 
1575.00, 
1576.00, 
1577.00, 
1578.00, 
1579.00, 
1580.00, 
1581.00, 
1582.00, 
1583.00, 
1584.00, 
1585.00, 
1586.00, 
1587.00, 
1588.00, 
1589.00, 
1590.00, 
1591.00, 
1592.00, 
1593.00, 
1594.00, 
1595.00, 
1596.00, 
1597.00, 
1598.00, 
1599.00, 
1600.00, 
1601.00, 
1602.00, 
1603.00, 
1604.00, 
1605.00, 
1606.00, 
1607.00, 
1608.00, 
1609.00, 
1610.00, 
1611.00, 
1612.00, 
1613.00, 
1614.00, 
1615.00, 
1616.00, 
1617.00, 
1618.00, 
1619.00, 
1620.00, 
1621.00, 
1622.00, 
1623.00, 
1624.00, 
1625.00, 
1626.00, 
1627.00, 
1628.00, 
1629.00, 
1630.00, 
1631.00, 
1632.00, 
1633.00, 
1634.00, 
1635.00, 
1636.00, 
1637.00, 
1638.00, 
1639.00, 
1640.00, 
1641.00, 
1642.00, 
1643.00, 
1644.00, 
1645.00, 
1646.00, 
1647.00, 
1648.00, 
1649.00, 
1650.00, 
1651.00, 
1652.00, 
1653.00, 
1654.00, 
1655.00, 
1656.00, 
1657.00, 
1658.00, 
1659.00, 
1660.00, 
1661.00, 
1662.00, 
1663.00, 
1664.00, 
1665.00, 
1666.00, 
1667.00, 
1668.00, 
1669.00, 
1670.00, 
1671.00, 
1672.00, 
1673.00, 
1674.00, 
1675.00, 
1676.00, 
1677.00, 
1678.00, 
1679.00, 
1680.00, 
1681.00, 
1682.00, 
1683.00, 
1684.00, 
1685.00, 
1686.00, 
1687.00, 
1688.00, 
1689.00, 
1690.00, 
1691.00, 
1692.00, 
1693.00, 
1694.00, 
1695.00, 
1696.00, 
1697.00, 
1698.00, 
1699.00, 
1700.00, 
1701.00, 
1702.00, 
1703.00, 
1704.00, 
1705.00, 
1706.00, 
1707.00, 
1708.00, 
1709.00, 
1710.00, 
1711.00, 
1712.00, 
1713.00, 
1714.00, 
1715.00, 
1716.00, 
1717.00, 
1718.00, 
1719.00, 
1720.00, 
1721.00, 
1722.00, 
1723.00, 
1724.00, 
1725.00, 
1726.00, 
1727.00, 
1728.00, 
1729.00, 
1730.00, 
1731.00, 
1732.00, 
1733.00, 
1734.00, 
1735.00, 
1736.00, 
1737.00, 
1738.00, 
1739.00, 
1740.00, 
1741.00, 
1742.00, 
1743.00, 
1744.00, 
1745.00, 
1746.00, 
1747.00, 
1748.00, 
1749.00, 
1750.00, 
1751.00, 
1752.00, 
1753.00, 
1754.00, 
1755.00, 
1756.00, 
1757.00, 
1758.00, 
1759.00, 
1760.00, 
1761.00, 
1762.00, 
1763.00, 
1764.00, 
1765.00, 
1766.00, 
1767.00, 
1768.00, 
1769.00, 
1770.00, 
1771.00, 
1772.00, 
1773.00, 
1774.00, 
1775.00, 
1776.00, 
1777.00, 
1778.00, 
1779.00, 
1780.00, 
1781.00, 
1782.00, 
1783.00, 
1784.00, 
1785.00, 
1786.00, 
1787.00, 
1788.00, 
1789.00, 
1790.00, 
1791.00, 
1792.00, 
1793.00, 
1794.00, 
1795.00, 
1796.00, 
1797.00, 
1798.00, 
1799.00, 
1800.00, 
1801.00, 
1802.00, 
1803.00, 
1804.00, 
1805.00, 
1806.00, 
1807.00, 
1808.00, 
1809.00, 
1810.00, 
1811.00, 
1812.00, 
1813.00, 
1814.00, 
1815.00, 
1816.00, 
1817.00, 
1818.00, 
1819.00, 
1820.00, 
1821.00, 
1822.00, 
1823.00, 
1824.00, 
1825.00, 
1826.00, 
1827.00, 
1828.00, 
1829.00, 
1830.00, 
1831.00, 
1832.00, 
1833.00, 
1834.00, 
1835.00, 
1836.00, 
1837.00, 
1838.00, 
1839.00, 
1840.00, 
1841.00, 
1842.00, 
1843.00, 
1844.00, 
1845.00, 
1846.00, 
1847.00, 
1848.00, 
1849.00, 
1850.00, 
1851.00, 
1852.00, 
1853.00, 
1854.00, 
1855.00, 
1856.00, 
1857.00, 
1858.00, 
1859.00, 
1860.00, 
1861.00, 
1862.00, 
1863.00, 
1864.00, 
1865.00, 
1866.00, 
1867.00, 
1868.00, 
1869.00, 
1870.00, 
1871.00, 
1872.00, 
1873.00, 
1874.00, 
1875.00, 
1876.00, 
1877.00, 
1878.00, 
1879.00, 
1880.00, 
1881.00, 
1882.00, 
1883.00, 
1884.00, 
1885.00, 
1886.00, 
1887.00, 
1888.00, 
1889.00, 
1890.00, 
1891.00, 
1892.00, 
1893.00, 
1894.00, 
1895.00, 
1896.00, 
1897.00, 
1898.00, 
1899.00, 
1900.00, 
1901.00, 
1902.00, 
1903.00, 
1904.00, 
1905.00, 
1906.00, 
1907.00, 
1908.00, 
1909.00, 
1910.00, 
1911.00, 
1912.00, 
1913.00, 
1914.00, 
1915.00, 
1916.00, 
1917.00, 
1918.00, 
1919.00, 
1920.00, 
1921.00, 
1922.00, 
1923.00, 
1924.00, 
1925.00, 
1926.00, 
1927.00, 
1928.00, 
1929.00, 
1930.00, 
1931.00, 
1932.00, 
1933.00, 
1934.00, 
1935.00, 
1936.00, 
1937.00, 
1938.00, 
1939.00, 
1940.00, 
1941.00, 
1942.00, 
1943.00, 
1944.00, 
1945.00, 
1946.00, 
1947.00, 
1948.00, 
1949.00, 
1950.00, 
1951.00, 
1952.00, 
1953.00, 
1954.00, 
1955.00, 
1956.00, 
1957.00, 
1958.00, 
1959.00, 
1960.00, 
1961.00, 
1962.00, 
1963.00, 
1964.00, 
1965.00, 
1966.00, 
1967.00, 
1968.00, 
1969.00, 
1970.00, 
1971.00, 
1972.00, 
1973.00, 
1974.00, 
1975.00, 
1976.00, 
1977.00, 
1978.00, 
1979.00, 
1980.00, 
1981.00, 
1982.00, 
1983.00, 
1984.00, 
1985.00, 
1986.00, 
1987.00, 
1988.00, 
1989.00, 
1990.00, 
1991.00, 
1992.00, 
1993.00, 
1994.00, 
1995.00, 
1996.00, 
1997.00, 
1998.00, 
1999.00, 
2000.00, 
2001.00, 
2002.00, 
2003.00, 
2004.00, 
2005.00, 
2006.00, 
2007.00, 
2008.00, 
2009.00, 
2010.00, 
2011.00, 
2012.00, 
2013.00, 
2014.00, 
2015.00, 
2016.00, 
2017.00, 
2018.00, 
2019.00, 
2020.00, 
2021.00, 
2022.00, 
2023.00, 
2024.00, 
2025.00, 
2026.00, 
2027.00, 
2028.00, 
2029.00, 
2030.00, 
2031.00, 
2032.00, 
2033.00, 
2034.00, 
2035.00, 
2036.00, 
2037.00, 
2038.00, 
2039.00, 
2040.00, 
2041.00, 
2042.00, 
2043.00, 
2044.00, 
2045.00, 
2046.00, 
2047.00, 
2048.00, 
2049.00, 
2050.00, 
2051.00, 
2052.00, 
2053.00, 
2054.00, 
2055.00, 
2056.00, 
2057.00, 
2058.00, 
2059.00, 
2060.00, 
2061.00, 
2062.00, 
2063.00, 
2064.00, 
2065.00, 
2066.00, 
2067.00, 
2068.00, 
2069.00, 
2070.00, 
2071.00, 
2072.00, 
2073.00, 
2074.00, 
2075.00, 
2076.00, 
2077.00, 
2078.00, 
2079.00, 
2080.00, 
2081.00, 
2082.00, 
2083.00, 
2084.00, 
2085.00, 
2086.00, 
2087.00, 
2088.00, 
2089.00, 
2090.00, 
2091.00, 
2092.00, 
2093.00, 
2094.00, 
2095.00, 
2096.00, 
2097.00, 
2098.00, 
2099.00, 
2100.00, 
2101.00, 
2102.00, 
2103.00, 
2104.00, 
2105.00, 
2106.00, 
2107.00, 
2108.00, 
2109.00, 
2110.00, 
2111.00, 
2112.00, 
2113.00, 
2114.00, 
2115.00, 
2116.00, 
2117.00, 
2118.00, 
2119.00, 
2120.00, 
2121.00, 
2122.00, 
2123.00, 
2124.00, 
2125.00, 
2126.00, 
2127.00, 
2128.00, 
2129.00, 
2130.00, 
2131.00, 
2132.00, 
2133.00, 
2134.00, 
2135.00, 
2136.00, 
2137.00, 
2138.00, 
2139.00, 
2140.00, 
2141.00, 
2142.00, 
2143.00, 
2144.00, 
2145.00, 
2146.00, 
2147.00, 
2148.00, 
2149.00, 
2150.00, 
2151.00, 
2152.00, 
2153.00, 
2154.00, 
2155.00, 
2156.00, 
2157.00, 
2158.00, 
2159.00, 
2160.00, 
2161.00, 
2162.00, 
2163.00, 
2164.00, 
2165.00, 
2166.00, 
2167.00, 
2168.00, 
2169.00, 
2170.00, 
2171.00, 
2172.00, 
2173.00, 
2174.00, 
2175.00, 
2176.00, 
2177.00, 
2178.00, 
2179.00, 
2180.00, 
2181.00, 
2182.00, 
2183.00, 
2184.00, 
2185.00, 
2186.00, 
2187.00, 
2188.00, 
2189.00, 
2190.00, 
2191.00, 
2192.00, 
2193.00, 
2194.00, 
2195.00, 
2196.00, 
2197.00, 
2198.00, 
2199.00, 
2200.00, 
2201.00, 
2202.00, 
2203.00, 
2204.00, 
2205.00, 
2206.00, 
2207.00, 
2208.00, 
2209.00, 
2210.00, 
2211.00, 
2212.00, 
2213.00, 
2214.00, 
2215.00, 
2216.00, 
2217.00, 
2218.00, 
2219.00, 
2220.00, 
2221.00, 
2222.00, 
2223.00, 
2224.00, 
2225.00, 
2226.00, 
2227.00, 
2228.00, 
2229.00, 
2230.00, 
2231.00, 
2232.00, 
2233.00, 
2234.00, 
2235.00, 
2236.00, 
2237.00, 
2238.00, 
2239.00, 
2240.00, 
2241.00, 
2242.00, 
2243.00, 
2244.00, 
2245.00, 
2246.00, 
2247.00, 
2248.00, 
2249.00, 
2250.00, 
2251.00, 
2252.00, 
2253.00, 
2254.00, 
2255.00, 
2256.00, 
2257.00, 
2258.00, 
2259.00, 
2260.00, 
2261.00, 
2262.00, 
2263.00, 
2264.00, 
2265.00, 
2266.00, 
2267.00, 
2268.00, 
2269.00, 
2270.00, 
2271.00, 
2272.00, 
2273.00, 
2274.00, 
2275.00, 
2276.00, 
2277.00, 
2278.00, 
2279.00, 
2280.00, 
2281.00, 
2282.00, 
2283.00, 
2284.00, 
2285.00, 
2286.00, 
2287.00, 
2288.00, 
2289.00, 
2290.00, 
2291.00, 
2292.00, 
2293.00, 
2294.00, 
2295.00, 
2296.00, 
2297.00, 
2298.00, 
2299.00, 
2300.00, 
2301.00, 
2302.00, 
2303.00, 
2304.00, 
2305.00, 
2306.00, 
2307.00, 
2308.00, 
2309.00, 
2310.00, 
2311.00, 
2312.00, 
2313.00, 
2314.00, 
2315.00, 
2316.00, 
2317.00, 
2318.00, 
2319.00, 
2320.00, 
2321.00, 
2322.00, 
2323.00, 
2324.00, 
2325.00, 
2326.00, 
2327.00, 
2328.00, 
2329.00, 
2330.00, 
2331.00, 
2332.00, 
2333.00, 
2334.00, 
2335.00, 
2336.00, 
2337.00, 
2338.00, 
2339.00, 
2340.00, 
2341.00, 
2342.00, 
2343.00, 
2344.00, 
2345.00, 
2346.00, 
2347.00, 
2348.00, 
2349.00, 
2350.00, 
2351.00, 
2352.00, 
2353.00, 
2354.00, 
2355.00, 
2356.00, 
2357.00, 
2358.00, 
2359.00, 
2360.00, 
2361.00, 
2362.00, 
2363.00, 
2364.00, 
2365.00, 
2366.00, 
2367.00, 
2368.00, 
2369.00, 
2370.00, 
2371.00, 
2372.00, 
2373.00, 
2374.00, 
2375.00, 
2376.00, 
2377.00, 
2378.00, 
2379.00, 
2380.00, 
2381.00, 
2382.00, 
2383.00, 
2384.00, 
2385.00, 
2386.00, 
2387.00, 
2388.00, 
2389.00, 
2390.00, 
2391.00, 
2392.00, 
2393.00, 
2394.00, 
2395.00, 
2396.00, 
2397.00, 
2398.00, 
2399.00, 
2400.00, 
2401.00, 
2402.00, 
2403.00, 
2404.00, 
2405.00, 
2406.00, 
2407.00, 
2408.00, 
2409.00, 
2410.00, 
2411.00, 
2412.00, 
2413.00, 
2414.00, 
2415.00, 
2416.00, 
2417.00, 
2418.00, 
2419.00, 
2420.00, 
2421.00, 
2422.00, 
2423.00, 
2424.00, 
2425.00, 
2426.00, 
2427.00, 
2428.00, 
2429.00, 
2430.00, 
2431.00, 
2432.00, 
2433.00, 
2434.00, 
2435.00, 
2436.00, 
2437.00, 
2438.00, 
2439.00, 
2440.00, 
2441.00, 
2442.00, 
2443.00, 
2444.00, 
2445.00, 
2446.00, 
2447.00, 
2448.00, 
2449.00, 
2450.00, 
2451.00, 
2452.00, 
2453.00, 
2454.00, 
2455.00, 
2456.00, 
2457.00, 
2458.00, 
2459.00, 
2460.00, 
2461.00, 
2462.00, 
2463.00, 
2464.00, 
2465.00, 
2466.00, 
2467.00, 
2468.00, 
2469.00, 
2470.00, 
2471.00, 
2472.00, 
2473.00, 
2474.00, 
2475.00, 
2476.00, 
2477.00, 
2478.00, 
2479.00, 
2480.00, 
2481.00, 
2482.00, 
2483.00, 
2484.00, 
2485.00, 
2486.00, 
2487.00, 
2488.00, 
2489.00, 
2490.00, 
2491.00, 
2492.00, 
2493.00, 
2494.00, 
2495.00, 
2496.00, 
2497.00, 
2498.00, 
2499.00, 
2500.00, 
2501.00, 
2502.00, 
2503.00, 
2504.00, 
2505.00, 
2506.00, 
2507.00, 
2508.00, 
2509.00, 
2510.00, 
2511.00, 
2512.00, 
2513.00, 
2514.00, 
2515.00, 
2516.00, 
2517.00, 
2518.00, 
2519.00, 
2520.00, 
2521.00, 
2522.00, 
2523.00, 
2524.00, 
2525.00, 
2526.00, 
2527.00, 
2528.00, 
2529.00, 
2530.00, 
2531.00, 
2532.00, 
2533.00, 
2534.00, 
2535.00, 
2536.00, 
2537.00, 
2538.00, 
2539.00, 
2540.00, 
2541.00, 
2542.00, 
2543.00, 
2544.00, 
2545.00, 
2546.00, 
2547.00, 
2548.00, 
2549.00, 
2550.00, 
2551.00, 
2552.00, 
2553.00, 
2554.00, 
2555.00, 
2556.00, 
2557.00, 
2558.00, 
2559.00, 
2560.00, 
2561.00, 
2562.00, 
2563.00, 
2564.00, 
2565.00, 
2566.00, 
2567.00, 
2568.00, 
2569.00, 
2570.00, 
2571.00, 
2572.00, 
2573.00, 
2574.00, 
2575.00, 
2576.00, 
2577.00, 
2578.00, 
2579.00, 
2580.00, 
2581.00, 
2582.00, 
2583.00, 
2584.00, 
2585.00, 
2586.00, 
2587.00, 
2588.00, 
2589.00, 
2590.00, 
2591.00, 
2592.00, 
2593.00, 
2594.00, 
2595.00, 
2596.00, 
2597.00, 
2598.00, 
2599.00, 
2600.00, 
