"2cP4 - RawData"
"Wavelength nm.","T%"
200.00,0.003
201.00,-0.000
202.00,0.002
203.00,0.001
204.00,0.002
205.00,0.004
206.00,0.000
207.00,0.003
208.00,0.000
209.00,0.002
210.00,0.002
211.00,0.002
212.00,-0.001
213.00,-0.001
214.00,0.001
215.00,0.002
216.00,0.002
217.00,-0.003
218.00,-0.001
219.00,0.003
220.00,-0.000
221.00,-0.001
222.00,0.003
223.00,0.000
224.00,0.000
225.00,0.001
226.00,0.001
227.00,0.001
228.00,-0.000
229.00,0.002
230.00,0.001
231.00,0.001
232.00,-0.000
233.00,-0.001
234.00,0.001
235.00,0.000
236.00,0.001
237.00,-0.001
238.00,0.001
239.00,0.001
240.00,0.001
241.00,0.000
242.00,-0.000
243.00,0.000
244.00,0.001
245.00,0.000
246.00,0.000
247.00,0.001
248.00,0.000
249.00,-0.001
250.00,-0.001
251.00,-0.003
252.00,0.001
253.00,0.001
254.00,0.001
255.00,-0.001
256.00,0.001
257.00,0.001
258.00,-0.001
259.00,-0.002
260.00,-0.001
261.00,-0.001
262.00,0.001
263.00,0.000
264.00,0.002
265.00,0.000
266.00,0.001
267.00,0.001
268.00,-0.000
269.00,0.000
270.00,-0.001
271.00,0.001
272.00,0.001
273.00,0.001
274.00,-0.001
275.00,0.001
276.00,0.000
277.00,0.001
278.00,0.001
279.00,0.001
280.00,-0.000
281.00,0.001
282.00,-0.001
283.00,-0.002
284.00,0.000
285.00,-0.001
286.00,0.000
287.00,-0.000
288.00,0.002
289.00,-0.000
290.00,-0.001
291.00,0.002
292.00,-0.001
293.00,-0.001
294.00,0.001
295.00,0.000
296.00,0.001
297.00,-0.001
298.00,0.001
299.00,0.000
300.00,0.003
301.00,0.004
302.00,0.006
303.00,0.006
304.00,0.012
305.00,0.017
306.00,0.028
307.00,0.041
308.00,0.064
309.00,0.098
310.00,0.134
311.00,0.182
312.00,0.253
313.00,0.341
314.00,0.441
315.00,0.584
316.00,0.739
317.00,0.950
318.00,1.164
319.00,1.433
320.00,1.753
321.00,2.079
322.00,2.455
323.00,2.902
324.00,3.366
325.00,3.840
326.00,4.331
327.00,4.886
328.00,5.468
329.00,5.970
330.00,6.669
331.00,7.266
332.00,7.882
333.00,8.544
334.00,9.189
335.00,9.829
336.00,10.450
337.00,11.146
338.00,11.775
339.00,12.354
340.00,12.961
341.00,13.538
342.00,14.083
343.00,14.563
344.00,15.082
345.00,15.595
346.00,16.040
347.00,16.473
348.00,16.854
349.00,17.289
350.00,17.627
351.00,17.993
352.00,18.243
353.00,18.563
354.00,18.859
355.00,19.106
356.00,19.387
357.00,19.593
358.00,19.782
359.00,20.030
360.00,20.247
361.00,20.339
362.00,20.531
363.00,20.671
364.00,20.755
365.00,20.897
366.00,20.949
367.00,21.088
368.00,21.099
369.00,21.141
370.00,21.197
371.00,21.213
372.00,21.207
373.00,21.255
374.00,21.252
375.00,21.259
376.00,21.210
377.00,21.211
378.00,21.112
379.00,21.067
380.00,21.017
381.00,21.029
382.00,21.033
383.00,21.034
384.00,21.082
385.00,21.119
386.00,21.063
387.00,21.166
388.00,21.170
389.00,21.220
390.00,21.293
391.00,21.286
392.00,21.323
393.00,21.317
394.00,21.326
395.00,21.365
396.00,21.298
397.00,21.358
398.00,21.367
399.00,21.324
400.00,21.296
401.00,21.318
402.00,21.343
403.00,21.358
404.00,21.360
405.00,21.351
406.00,21.340
407.00,21.331
408.00,21.348
409.00,21.313
410.00,21.251
411.00,21.262
412.00,21.221
413.00,21.260
414.00,21.273
415.00,21.235
416.00,21.312
417.00,21.332
418.00,21.320
419.00,21.382
420.00,21.413
421.00,21.469
422.00,21.474
423.00,21.558
424.00,21.576
425.00,21.626
426.00,21.661
427.00,21.700
428.00,21.750
429.00,21.782
430.00,21.831
431.00,21.924
432.00,21.952
433.00,22.036
434.00,22.071
435.00,22.128
436.00,22.178
437.00,22.291
438.00,22.366
439.00,22.408
440.00,22.508
441.00,22.589
442.00,22.662
443.00,22.731
444.00,22.845
445.00,22.925
446.00,23.062
447.00,23.170
448.00,23.233
449.00,23.344
450.00,23.446
451.00,23.547
452.00,23.648
453.00,23.777
454.00,23.843
455.00,23.946
456.00,24.097
457.00,24.206
458.00,24.322
459.00,24.482
460.00,24.612
461.00,24.731
462.00,24.807
463.00,24.984
464.00,25.124
465.00,25.223
466.00,25.379
467.00,25.502
468.00,25.572
469.00,25.671
470.00,25.797
471.00,25.908
472.00,26.076
473.00,26.150
474.00,26.221
475.00,26.373
476.00,26.459
477.00,26.638
478.00,26.742
479.00,26.951
480.00,27.092
481.00,27.195
482.00,27.348
483.00,27.506
484.00,27.683
485.00,27.828
486.00,27.973
487.00,28.147
488.00,28.279
489.00,28.436
490.00,28.593
491.00,28.699
492.00,28.932
493.00,29.076
494.00,29.094
495.00,29.219
496.00,29.354
497.00,29.485
498.00,29.660
499.00,29.766
500.00,29.928
501.00,30.059
502.00,30.152
503.00,30.293
504.00,30.342
505.00,30.521
506.00,30.645
507.00,30.694
508.00,30.853
509.00,31.007
510.00,31.138
511.00,31.213
512.00,31.371
513.00,31.536
514.00,31.658
515.00,31.727
516.00,31.852
517.00,31.946
518.00,32.078
519.00,32.133
520.00,32.160
521.00,32.298
522.00,32.433
523.00,32.452
524.00,32.559
525.00,32.705
526.00,32.761
527.00,32.832
528.00,32.881
529.00,33.085
530.00,33.194
531.00,33.255
532.00,33.424
533.00,33.523
534.00,33.577
535.00,33.694
536.00,33.762
537.00,33.870
538.00,33.953
539.00,33.961
540.00,34.111
541.00,34.030
542.00,34.111
543.00,34.188
544.00,34.272
545.00,34.392
546.00,34.429
547.00,34.569
548.00,34.638
549.00,34.660
550.00,34.802
551.00,34.852
552.00,34.909
553.00,34.981
554.00,35.075
555.00,35.100
556.00,35.152
557.00,35.223
558.00,35.289
559.00,35.346
560.00,35.411
561.00,35.496
562.00,35.543
563.00,35.566
564.00,35.648
565.00,35.652
566.00,35.682
567.00,35.735
568.00,35.787
569.00,35.837
570.00,35.850
571.00,35.900
572.00,35.969
573.00,35.913
574.00,35.995
575.00,36.030
576.00,36.016
577.00,36.127
578.00,36.167
579.00,36.256
580.00,36.329
581.00,36.429
582.00,36.492
583.00,36.566
584.00,36.664
585.00,36.701
586.00,36.747
587.00,36.875
588.00,36.915
589.00,36.791
590.00,36.872
591.00,36.963
592.00,36.947
593.00,36.982
594.00,37.107
595.00,37.127
596.00,37.182
597.00,37.324
598.00,37.385
599.00,37.331
600.00,37.345
601.00,37.446
602.00,37.481
603.00,37.548
604.00,37.530
605.00,37.622
606.00,37.609
607.00,37.652
608.00,37.839
609.00,37.878
610.00,37.775
611.00,37.915
612.00,37.869
613.00,37.916
614.00,38.129
615.00,38.029
616.00,38.072
617.00,38.214
618.00,38.355
619.00,38.370
620.00,38.288
621.00,38.440
622.00,38.528
623.00,38.592
624.00,38.571
625.00,38.653
626.00,38.744
627.00,38.780
628.00,38.834
629.00,38.895
630.00,38.953
631.00,39.016
632.00,39.147
633.00,39.255
634.00,39.302
635.00,39.370
636.00,39.492
637.00,39.530
638.00,39.565
639.00,39.700
640.00,39.732
641.00,39.774
642.00,39.805
643.00,39.974
644.00,40.040
645.00,40.070
646.00,40.126
647.00,40.188
648.00,40.350
649.00,40.381
650.00,40.509
651.00,40.617
652.00,40.722
653.00,40.740
654.00,40.825
655.00,41.088
656.00,41.236
657.00,41.148
658.00,41.248
659.00,41.427
660.00,41.488
661.00,41.647
662.00,41.672
663.00,41.703
664.00,41.827
665.00,42.024
666.00,42.038
667.00,42.104
668.00,42.156
669.00,42.287
670.00,42.548
671.00,42.485
672.00,42.571
673.00,42.637
674.00,42.784
675.00,42.876
676.00,43.071
677.00,43.243
678.00,43.074
679.00,43.254
680.00,43.370
681.00,43.529
682.00,43.583
683.00,43.672
684.00,43.879
685.00,43.910
686.00,43.816
687.00,44.000
688.00,44.028
689.00,44.035
690.00,44.272
691.00,44.530
692.00,44.437
693.00,44.444
694.00,44.580
695.00,44.768
696.00,44.820
697.00,44.792
698.00,44.991
699.00,45.351
700.00,45.309
701.00,45.195
702.00,45.472
703.00,45.579
704.00,45.632
705.00,45.506
706.00,45.661
707.00,45.709
708.00,45.747
709.00,46.191
710.00,45.938
711.00,46.074
712.00,46.135
713.00,46.198
714.00,46.273
715.00,46.425
716.00,46.439
717.00,46.541
718.00,46.766
719.00,46.759
720.00,46.735
721.00,51.265
722.00,51.239
723.00,51.274
724.00,51.340
725.00,51.293
726.00,51.393
727.00,51.416
728.00,51.411
729.00,51.436
730.00,51.551
731.00,51.525
732.00,51.517
733.00,51.618
734.00,51.540
735.00,51.608
736.00,51.798
737.00,51.794
738.00,51.778
739.00,51.811
740.00,51.828
741.00,51.897
742.00,52.021
743.00,51.914
744.00,51.960
745.00,51.921
746.00,51.909
747.00,51.954
748.00,51.944
749.00,51.907
750.00,51.978
751.00,51.994
752.00,52.057
753.00,51.976
754.00,52.046
755.00,52.048
756.00,51.993
757.00,52.097
758.00,52.051
759.00,52.095
760.00,52.143
761.00,52.142
762.00,52.152
763.00,52.157
764.00,52.208
765.00,52.194
766.00,52.255
767.00,52.274
768.00,52.281
769.00,52.248
770.00,52.299
771.00,52.295
772.00,52.374
773.00,52.337
774.00,52.287
775.00,52.416
776.00,52.344
777.00,52.317
778.00,52.456
779.00,52.442
780.00,52.332
781.00,52.434
782.00,52.399
783.00,52.314
784.00,52.416
785.00,52.407
786.00,52.383
787.00,52.406
788.00,52.352
789.00,52.416
790.00,52.371
791.00,52.397
792.00,52.378
793.00,52.346
794.00,52.363
795.00,52.340
796.00,52.338
797.00,52.289
798.00,52.399
799.00,52.308
800.00,52.323
801.00,52.245
802.00,52.284
803.00,52.346
804.00,52.254
805.00,52.220
806.00,52.204
807.00,52.120
808.00,52.309
809.00,52.156
810.00,52.185
811.00,52.159
812.00,52.177
813.00,52.101
814.00,52.188
815.00,52.160
816.00,52.162
817.00,52.122
818.00,52.060
819.00,52.042
820.00,52.073
821.00,52.062
822.00,52.082
823.00,52.025
824.00,52.040
825.00,51.965
826.00,51.912
827.00,52.044
828.00,52.063
829.00,51.944
830.00,51.951
831.00,54.123
832.00,54.062
833.00,54.023
834.00,54.055
835.00,54.018
836.00,54.027
837.00,53.984
838.00,53.959
839.00,53.947
840.00,53.895
841.00,53.935
842.00,53.890
843.00,53.882
844.00,53.894
845.00,53.848
846.00,53.829
847.00,53.844
848.00,53.832
849.00,53.771
850.00,53.719
851.00,53.668
852.00,53.710
853.00,53.656
854.00,53.640
855.00,53.581
856.00,53.600
857.00,53.556
858.00,53.526
859.00,53.460
860.00,53.640
861.00,53.469
862.00,53.460
863.00,53.444
864.00,53.426
865.00,53.439
866.00,53.376
867.00,53.383
868.00,53.355
869.00,53.334
870.00,53.332
871.00,53.360
872.00,53.324
873.00,53.334
874.00,53.308
875.00,53.305
876.00,53.287
877.00,53.272
878.00,53.240
879.00,53.327
880.00,53.120
881.00,53.202
882.00,53.224
883.00,53.195
884.00,53.140
885.00,53.155
886.00,53.149
887.00,53.137
888.00,53.092
889.00,53.096
890.00,53.109
891.00,53.032
892.00,53.019
893.00,52.968
894.00,53.022
895.00,52.802
896.00,52.953
897.00,52.960
898.00,52.926
899.00,52.916
900.00,52.901
901.00,52.887
902.00,52.875
903.00,52.858
904.00,52.846
905.00,52.816
906.00,52.801
907.00,52.772
908.00,52.764
909.00,52.737
910.00,52.711
911.00,52.713
912.00,52.701
913.00,52.662
914.00,52.648
915.00,52.623
916.00,52.620
917.00,52.602
918.00,52.596
919.00,52.543
920.00,52.529
921.00,52.512
922.00,52.501
923.00,52.466
924.00,52.453
925.00,52.427
926.00,52.426
927.00,52.407
928.00,52.428
929.00,52.389
930.00,52.354
931.00,52.364
932.00,52.306
933.00,52.305
934.00,52.274
935.00,52.263
936.00,52.254
937.00,52.235
938.00,52.206
939.00,52.214
940.00,52.184
941.00,52.151
942.00,52.156
943.00,52.138
944.00,52.093
945.00,52.077
946.00,52.071
947.00,52.058
948.00,52.021
949.00,52.016
950.00,52.002
951.00,51.985
952.00,51.940
953.00,51.937
954.00,51.890
955.00,51.863
956.00,51.852
957.00,51.807
958.00,51.817
959.00,51.777
960.00,51.754
961.00,51.745
962.00,51.758
963.00,51.700
964.00,51.701
965.00,51.684
966.00,51.680
967.00,51.658
968.00,51.626
969.00,51.654
970.00,51.672
971.00,51.632
972.00,51.606
973.00,51.652
974.00,51.651
975.00,51.630
976.00,51.644
977.00,51.622
978.00,51.664
979.00,51.627
980.00,51.662
981.00,51.649
982.00,51.632
983.00,51.638
984.00,51.636
985.00,51.645
986.00,51.597
987.00,51.605
988.00,51.578
989.00,51.562
990.00,51.539
991.00,51.582
992.00,51.572
993.00,51.518
994.00,51.515
995.00,51.517
996.00,51.512
997.00,51.498
998.00,51.477
999.00,51.486
1000.00,51.441
1001.00,51.443
1002.00,51.427
1003.00,51.426
1004.00,51.386
1005.00,51.370
1006.00,51.434
1007.00,51.368
1008.00,51.356
1009.00,51.358
1010.00,51.320
1011.00,51.326
1012.00,51.287
1013.00,51.310
1014.00,51.271
1015.00,51.277
1016.00,51.236
1017.00,51.220
1018.00,51.202
1019.00,51.212
1020.00,51.182
1021.00,51.161
1022.00,51.159
1023.00,51.108
1024.00,51.118
1025.00,51.095
1026.00,51.103
1027.00,51.075
1028.00,51.060
1029.00,51.036
1030.00,51.020
1031.00,51.019
1032.00,50.970
1033.00,50.988
1034.00,50.943
1035.00,50.901
1036.00,50.894
1037.00,50.865
1038.00,50.864
1039.00,50.834
1040.00,50.829
1041.00,50.812
1042.00,50.808
1043.00,50.771
1044.00,50.805
1045.00,50.781
1046.00,50.765
1047.00,50.787
1048.00,50.788
1049.00,50.792
1050.00,50.802
1051.00,50.845
1052.00,50.874
1053.00,50.853
1054.00,50.837
1055.00,50.862
1056.00,50.838
1057.00,50.879
1058.00,50.864
1059.00,50.855
1060.00,50.859
1061.00,50.849
1062.00,50.829
1063.00,50.844
1064.00,50.813
1065.00,50.799
1066.00,50.810
1067.00,50.820
1068.00,50.803
1069.00,50.769
1070.00,50.743
1071.00,50.743
1072.00,50.768
1073.00,50.736
1074.00,50.751
1075.00,50.733
1076.00,50.722
1077.00,50.701
1078.00,50.679
1079.00,50.682
1080.00,50.695
1081.00,50.659
1082.00,50.656
1083.00,50.655
1084.00,50.635
1085.00,50.639
1086.00,50.634
1087.00,50.624
1088.00,50.605
1089.00,50.586
1090.00,50.593
1091.00,50.589
1092.00,50.575
1093.00,50.561
1094.00,50.551
1095.00,50.527
1096.00,50.514
1097.00,50.493
1098.00,50.485
1099.00,50.476
1100.00,50.470
1101.00,50.464
1102.00,50.466
1103.00,50.472
1104.00,50.472
1105.00,50.454
1106.00,50.436
1107.00,50.431
1108.00,50.421
1109.00,50.409
1110.00,50.418
1111.00,50.400
1112.00,50.398
1113.00,50.397
1114.00,50.364
1115.00,50.365
1116.00,50.358
1117.00,50.335
1118.00,50.353
1119.00,50.346
1120.00,50.334
1121.00,50.333
1122.00,50.320
1123.00,50.305
1124.00,50.313
1125.00,50.285
1126.00,50.289
1127.00,50.312
1128.00,50.294
1129.00,50.262
1130.00,50.238
1131.00,50.221
1132.00,50.230
1133.00,50.235
1134.00,50.228
1135.00,50.200
1136.00,50.202
1137.00,50.211
1138.00,50.204
1139.00,50.196
1140.00,50.200
1141.00,50.181
1142.00,50.179
1143.00,50.195
1144.00,50.160
1145.00,50.151
1146.00,50.155
1147.00,50.137
1148.00,50.129
1149.00,50.137
1150.00,50.131
1151.00,50.150
1152.00,50.127
1153.00,50.109
1154.00,50.117
1155.00,50.113
1156.00,50.102
1157.00,50.104
1158.00,50.092
1159.00,50.096
1160.00,50.101
1161.00,50.109
1162.00,50.115
1163.00,50.112
1164.00,50.108
1165.00,50.110
1166.00,50.107
1167.00,50.105
1168.00,50.112
1169.00,50.089
1170.00,50.094
1171.00,50.082
1172.00,50.062
1173.00,50.078
1174.00,50.080
1175.00,50.058
1176.00,50.069
1177.00,50.056
1178.00,50.057
1179.00,50.070
1180.00,50.049
1181.00,50.072
1182.00,50.067
1183.00,50.050
1184.00,50.053
1185.00,50.070
1186.00,50.058
1187.00,50.071
1188.00,50.047
1189.00,50.044
1190.00,50.040
1191.00,50.029
1192.00,50.037
1193.00,50.017
1194.00,50.017
1195.00,50.013
1196.00,50.035
1197.00,50.022
1198.00,50.023
1199.00,50.017
1200.00,50.013
1201.00,50.032
1202.00,50.007
1203.00,50.034
1204.00,50.012
1205.00,50.004
1206.00,50.004
1207.00,50.006
1208.00,49.973
1209.00,50.004
1210.00,50.010
1211.00,50.011
1212.00,50.038
1213.00,49.992
1214.00,50.016
1215.00,49.994
1216.00,49.986
1217.00,50.017
1218.00,50.001
1219.00,50.004
1220.00,49.991
1221.00,49.999
1222.00,49.996
1223.00,50.022
1224.00,50.004
1225.00,50.000
1226.00,50.009
1227.00,50.000
1228.00,50.015
1229.00,50.007
1230.00,50.036
1231.00,50.025
1232.00,50.032
1233.00,50.031
1234.00,50.034
1235.00,50.032
1236.00,50.035
1237.00,50.030
1238.00,50.027
1239.00,50.034
1240.00,50.017
1241.00,50.024
1242.00,50.046
1243.00,50.060
1244.00,50.030
1245.00,50.059
1246.00,50.051
1247.00,50.057
1248.00,50.061
1249.00,50.062
1250.00,50.072
1251.00,50.064
1252.00,50.074
1253.00,50.074
1254.00,50.084
1255.00,50.068
1256.00,50.058
1257.00,50.037
1258.00,50.086
1259.00,50.075
1260.00,50.081
1261.00,50.089
1262.00,50.079
1263.00,50.070
1264.00,50.093
1265.00,50.097
1266.00,50.115
1267.00,50.130
1268.00,50.119
1269.00,50.116
1270.00,50.117
1271.00,50.114
1272.00,50.140
1273.00,50.139
1274.00,50.116
1275.00,50.135
1276.00,50.134
1277.00,50.138
1278.00,50.159
1279.00,50.150
1280.00,50.159
1281.00,50.164
1282.00,50.169
1283.00,50.168
1284.00,50.167
1285.00,50.136
1286.00,50.157
1287.00,50.146
1288.00,50.150
1289.00,50.164
1290.00,50.172
1291.00,50.181
1292.00,50.177
1293.00,50.168
1294.00,50.206
1295.00,50.201
1296.00,50.188
1297.00,50.214
1298.00,50.222
1299.00,50.211
1300.00,50.240
1301.00,50.232
1302.00,50.241
1303.00,50.250
1304.00,50.224
1305.00,50.258
1306.00,50.250
1307.00,50.250
1308.00,50.261
1309.00,50.271
1310.00,50.272
1311.00,50.277
1312.00,50.263
1313.00,50.281
1314.00,50.294
1315.00,50.301
1316.00,50.322
1317.00,50.327
1318.00,50.321
1319.00,50.333
1320.00,50.342
1321.00,50.494
1322.00,50.509
1323.00,50.473
1324.00,50.487
1325.00,50.478
1326.00,50.473
1327.00,50.492
1328.00,50.482
1329.00,50.459
1330.00,50.474
1331.00,50.470
1332.00,50.471
1333.00,50.480
1334.00,50.491
1335.00,50.524
1336.00,50.538
1337.00,50.562
1338.00,50.632
1339.00,50.668
1340.00,50.708
1341.00,50.780
1342.00,50.839
1343.00,50.901
1344.00,50.937
1345.00,50.979
1346.00,51.058
1347.00,51.065
1348.00,51.064
1349.00,51.133
1350.00,51.130
1351.00,51.146
1352.00,51.164
1353.00,51.166
1354.00,51.158
1355.00,51.097
1356.00,51.164
1357.00,51.173
1358.00,51.186
1359.00,51.132
1360.00,51.219
1361.00,51.179
1362.00,51.078
1363.00,51.190
1364.00,51.182
1365.00,51.174
1366.00,51.231
1367.00,51.147
1368.00,51.175
1369.00,51.159
1370.00,51.155
1371.00,51.160
1372.00,51.149
1373.00,51.134
1374.00,51.164
1375.00,51.157
1376.00,51.156
1377.00,51.061
1378.00,51.238
1379.00,51.198
1380.00,51.177
1381.00,51.176
1382.00,51.152
1383.00,51.160
1384.00,51.141
1385.00,51.096
1386.00,51.180
1387.00,51.095
1388.00,51.125
1389.00,51.108
1390.00,51.242
1391.00,51.086
1392.00,51.080
1393.00,51.228
1394.00,51.117
1395.00,51.092
1396.00,51.071
1397.00,51.147
1398.00,51.183
1399.00,51.163
1400.00,51.086
1401.00,51.130
1402.00,51.242
1403.00,51.174
1404.00,51.185
1405.00,51.180
1406.00,51.197
1407.00,51.183
1408.00,51.144
1409.00,51.191
1410.00,51.230
1411.00,51.203
1412.00,51.282
1413.00,51.222
1414.00,51.188
1415.00,51.245
1416.00,51.294
1417.00,51.306
1418.00,51.287
1419.00,51.243
1420.00,51.282
1421.00,51.313
1422.00,51.311
1423.00,51.326
1424.00,51.348
1425.00,51.347
1426.00,51.374
1427.00,51.389
1428.00,51.384
1429.00,51.405
1430.00,51.404
1431.00,51.422
1432.00,51.432
1433.00,51.436
1434.00,51.457
1435.00,51.512
1436.00,51.487
1437.00,51.500
1438.00,51.521
1439.00,51.532
1440.00,51.562
1441.00,51.555
1442.00,51.561
1443.00,51.603
1444.00,51.635
1445.00,51.614
1446.00,51.606
1447.00,51.657
1448.00,51.705
1449.00,51.708
1450.00,51.685
1451.00,51.713
1452.00,51.706
1453.00,51.721
1454.00,51.746
1455.00,51.767
1456.00,51.792
1457.00,51.787
1458.00,51.807
1459.00,51.827
1460.00,51.840
1461.00,51.848
1462.00,51.889
1463.00,51.886
1464.00,51.900
1465.00,51.904
1466.00,51.896
1467.00,51.956
1468.00,51.980
1469.00,51.955
1470.00,51.975
1471.00,52.000
1472.00,51.992
1473.00,52.021
1474.00,52.040
1475.00,52.041
1476.00,52.058
1477.00,52.036
1478.00,52.075
1479.00,52.085
1480.00,52.067
1481.00,52.091
1482.00,52.112
1483.00,52.116
1484.00,52.145
1485.00,52.140
1486.00,52.137
1487.00,52.172
1488.00,52.185
1489.00,52.196
1490.00,52.207
1491.00,52.205
1492.00,52.233
1493.00,52.233
1494.00,52.232
1495.00,52.258
1496.00,52.304
1497.00,52.277
1498.00,52.281
1499.00,52.297
1500.00,52.337
1501.00, 
1502.00, 
1503.00, 
1504.00, 
1505.00, 
1506.00, 
1507.00, 
1508.00, 
1509.00, 
1510.00, 
1511.00, 
1512.00, 
1513.00, 
1514.00, 
1515.00, 
1516.00, 
1517.00, 
1518.00, 
1519.00, 
1520.00, 
1521.00, 
1522.00, 
1523.00, 
1524.00, 
1525.00, 
1526.00, 
1527.00, 
1528.00, 
1529.00, 
1530.00, 
1531.00, 
1532.00, 
1533.00, 
1534.00, 
1535.00, 
1536.00, 
1537.00, 
1538.00, 
1539.00, 
1540.00, 
1541.00, 
1542.00, 
1543.00, 
1544.00, 
1545.00, 
1546.00, 
1547.00, 
1548.00, 
1549.00, 
1550.00, 
1551.00, 
1552.00, 
1553.00, 
1554.00, 
1555.00, 
1556.00, 
1557.00, 
1558.00, 
1559.00, 
1560.00, 
1561.00, 
1562.00, 
1563.00, 
1564.00, 
1565.00, 
1566.00, 
1567.00, 
1568.00, 
1569.00, 
1570.00, 
1571.00, 
1572.00, 
1573.00, 
1574.00, 
1575.00, 
1576.00, 
1577.00, 
1578.00, 
1579.00, 
1580.00, 
1581.00, 
1582.00, 
1583.00, 
1584.00, 
1585.00, 
1586.00, 
1587.00, 
1588.00, 
1589.00, 
1590.00, 
1591.00, 
1592.00, 
1593.00, 
1594.00, 
1595.00, 
1596.00, 
1597.00, 
1598.00, 
1599.00, 
1600.00, 
1601.00, 
1602.00, 
1603.00, 
1604.00, 
1605.00, 
1606.00, 
1607.00, 
1608.00, 
1609.00, 
1610.00, 
1611.00, 
1612.00, 
1613.00, 
1614.00, 
1615.00, 
1616.00, 
1617.00, 
1618.00, 
1619.00, 
1620.00, 
1621.00, 
1622.00, 
1623.00, 
1624.00, 
1625.00, 
1626.00, 
1627.00, 
1628.00, 
1629.00, 
1630.00, 
1631.00, 
1632.00, 
1633.00, 
1634.00, 
1635.00, 
1636.00, 
1637.00, 
1638.00, 
1639.00, 
1640.00, 
1641.00, 
1642.00, 
1643.00, 
1644.00, 
1645.00, 
1646.00, 
1647.00, 
1648.00, 
1649.00, 
1650.00, 
1651.00, 
1652.00, 
1653.00, 
1654.00, 
1655.00, 
1656.00, 
1657.00, 
1658.00, 
1659.00, 
1660.00, 
1661.00, 
1662.00, 
1663.00, 
1664.00, 
1665.00, 
1666.00, 
1667.00, 
1668.00, 
1669.00, 
1670.00, 
1671.00, 
1672.00, 
1673.00, 
1674.00, 
1675.00, 
1676.00, 
1677.00, 
1678.00, 
1679.00, 
1680.00, 
1681.00, 
1682.00, 
1683.00, 
1684.00, 
1685.00, 
1686.00, 
1687.00, 
1688.00, 
1689.00, 
1690.00, 
1691.00, 
1692.00, 
1693.00, 
1694.00, 
1695.00, 
1696.00, 
1697.00, 
1698.00, 
1699.00, 
1700.00, 
1701.00, 
1702.00, 
1703.00, 
1704.00, 
1705.00, 
1706.00, 
1707.00, 
1708.00, 
1709.00, 
1710.00, 
1711.00, 
1712.00, 
1713.00, 
1714.00, 
1715.00, 
1716.00, 
1717.00, 
1718.00, 
1719.00, 
1720.00, 
1721.00, 
1722.00, 
1723.00, 
1724.00, 
1725.00, 
1726.00, 
1727.00, 
1728.00, 
1729.00, 
1730.00, 
1731.00, 
1732.00, 
1733.00, 
1734.00, 
1735.00, 
1736.00, 
1737.00, 
1738.00, 
1739.00, 
1740.00, 
1741.00, 
1742.00, 
1743.00, 
1744.00, 
1745.00, 
1746.00, 
1747.00, 
1748.00, 
1749.00, 
1750.00, 
1751.00, 
1752.00, 
1753.00, 
1754.00, 
1755.00, 
1756.00, 
1757.00, 
1758.00, 
1759.00, 
1760.00, 
1761.00, 
1762.00, 
1763.00, 
1764.00, 
1765.00, 
1766.00, 
1767.00, 
1768.00, 
1769.00, 
1770.00, 
1771.00, 
1772.00, 
1773.00, 
1774.00, 
1775.00, 
1776.00, 
1777.00, 
1778.00, 
1779.00, 
1780.00, 
1781.00, 
1782.00, 
1783.00, 
1784.00, 
1785.00, 
1786.00, 
1787.00, 
1788.00, 
1789.00, 
1790.00, 
1791.00, 
1792.00, 
1793.00, 
1794.00, 
1795.00, 
1796.00, 
1797.00, 
1798.00, 
1799.00, 
1800.00, 
1801.00, 
1802.00, 
1803.00, 
1804.00, 
1805.00, 
1806.00, 
1807.00, 
1808.00, 
1809.00, 
1810.00, 
1811.00, 
1812.00, 
1813.00, 
1814.00, 
1815.00, 
1816.00, 
1817.00, 
1818.00, 
1819.00, 
1820.00, 
1821.00, 
1822.00, 
1823.00, 
1824.00, 
1825.00, 
1826.00, 
1827.00, 
1828.00, 
1829.00, 
1830.00, 
1831.00, 
1832.00, 
1833.00, 
1834.00, 
1835.00, 
1836.00, 
1837.00, 
1838.00, 
1839.00, 
1840.00, 
1841.00, 
1842.00, 
1843.00, 
1844.00, 
1845.00, 
1846.00, 
1847.00, 
1848.00, 
1849.00, 
1850.00, 
1851.00, 
1852.00, 
1853.00, 
1854.00, 
1855.00, 
1856.00, 
1857.00, 
1858.00, 
1859.00, 
1860.00, 
1861.00, 
1862.00, 
1863.00, 
1864.00, 
1865.00, 
1866.00, 
1867.00, 
1868.00, 
1869.00, 
1870.00, 
1871.00, 
1872.00, 
1873.00, 
1874.00, 
1875.00, 
1876.00, 
1877.00, 
1878.00, 
1879.00, 
1880.00, 
1881.00, 
1882.00, 
1883.00, 
1884.00, 
1885.00, 
1886.00, 
1887.00, 
1888.00, 
1889.00, 
1890.00, 
1891.00, 
1892.00, 
1893.00, 
1894.00, 
1895.00, 
1896.00, 
1897.00, 
1898.00, 
1899.00, 
1900.00, 
1901.00, 
1902.00, 
1903.00, 
1904.00, 
1905.00, 
1906.00, 
1907.00, 
1908.00, 
1909.00, 
1910.00, 
1911.00, 
1912.00, 
1913.00, 
1914.00, 
1915.00, 
1916.00, 
1917.00, 
1918.00, 
1919.00, 
1920.00, 
1921.00, 
1922.00, 
1923.00, 
1924.00, 
1925.00, 
1926.00, 
1927.00, 
1928.00, 
1929.00, 
1930.00, 
1931.00, 
1932.00, 
1933.00, 
1934.00, 
1935.00, 
1936.00, 
1937.00, 
1938.00, 
1939.00, 
1940.00, 
1941.00, 
1942.00, 
1943.00, 
1944.00, 
1945.00, 
1946.00, 
1947.00, 
1948.00, 
1949.00, 
1950.00, 
1951.00, 
1952.00, 
1953.00, 
1954.00, 
1955.00, 
1956.00, 
1957.00, 
1958.00, 
1959.00, 
1960.00, 
1961.00, 
1962.00, 
1963.00, 
1964.00, 
1965.00, 
1966.00, 
1967.00, 
1968.00, 
1969.00, 
1970.00, 
1971.00, 
1972.00, 
1973.00, 
1974.00, 
1975.00, 
1976.00, 
1977.00, 
1978.00, 
1979.00, 
1980.00, 
1981.00, 
1982.00, 
1983.00, 
1984.00, 
1985.00, 
1986.00, 
1987.00, 
1988.00, 
1989.00, 
1990.00, 
1991.00, 
1992.00, 
1993.00, 
1994.00, 
1995.00, 
1996.00, 
1997.00, 
1998.00, 
1999.00, 
2000.00, 
2001.00, 
2002.00, 
2003.00, 
2004.00, 
2005.00, 
2006.00, 
2007.00, 
2008.00, 
2009.00, 
2010.00, 
2011.00, 
2012.00, 
2013.00, 
2014.00, 
2015.00, 
2016.00, 
2017.00, 
2018.00, 
2019.00, 
2020.00, 
2021.00, 
2022.00, 
2023.00, 
2024.00, 
2025.00, 
2026.00, 
2027.00, 
2028.00, 
2029.00, 
2030.00, 
2031.00, 
2032.00, 
2033.00, 
2034.00, 
2035.00, 
2036.00, 
2037.00, 
2038.00, 
2039.00, 
2040.00, 
2041.00, 
2042.00, 
2043.00, 
2044.00, 
2045.00, 
2046.00, 
2047.00, 
2048.00, 
2049.00, 
2050.00, 
2051.00, 
2052.00, 
2053.00, 
2054.00, 
2055.00, 
2056.00, 
2057.00, 
2058.00, 
2059.00, 
2060.00, 
2061.00, 
2062.00, 
2063.00, 
2064.00, 
2065.00, 
2066.00, 
2067.00, 
2068.00, 
2069.00, 
2070.00, 
2071.00, 
2072.00, 
2073.00, 
2074.00, 
2075.00, 
2076.00, 
2077.00, 
2078.00, 
2079.00, 
2080.00, 
2081.00, 
2082.00, 
2083.00, 
2084.00, 
2085.00, 
2086.00, 
2087.00, 
2088.00, 
2089.00, 
2090.00, 
2091.00, 
2092.00, 
2093.00, 
2094.00, 
2095.00, 
2096.00, 
2097.00, 
2098.00, 
2099.00, 
2100.00, 
2101.00, 
2102.00, 
2103.00, 
2104.00, 
2105.00, 
2106.00, 
2107.00, 
2108.00, 
2109.00, 
2110.00, 
2111.00, 
2112.00, 
2113.00, 
2114.00, 
2115.00, 
2116.00, 
2117.00, 
2118.00, 
2119.00, 
2120.00, 
2121.00, 
2122.00, 
2123.00, 
2124.00, 
2125.00, 
2126.00, 
2127.00, 
2128.00, 
2129.00, 
2130.00, 
2131.00, 
2132.00, 
2133.00, 
2134.00, 
2135.00, 
2136.00, 
2137.00, 
2138.00, 
2139.00, 
2140.00, 
2141.00, 
2142.00, 
2143.00, 
2144.00, 
2145.00, 
2146.00, 
2147.00, 
2148.00, 
2149.00, 
2150.00, 
2151.00, 
2152.00, 
2153.00, 
2154.00, 
2155.00, 
2156.00, 
2157.00, 
2158.00, 
2159.00, 
2160.00, 
2161.00, 
2162.00, 
2163.00, 
2164.00, 
2165.00, 
2166.00, 
2167.00, 
2168.00, 
2169.00, 
2170.00, 
2171.00, 
2172.00, 
2173.00, 
2174.00, 
2175.00, 
2176.00, 
2177.00, 
2178.00, 
2179.00, 
2180.00, 
2181.00, 
2182.00, 
2183.00, 
2184.00, 
2185.00, 
2186.00, 
2187.00, 
2188.00, 
2189.00, 
2190.00, 
2191.00, 
2192.00, 
2193.00, 
2194.00, 
2195.00, 
2196.00, 
2197.00, 
2198.00, 
2199.00, 
2200.00, 
2201.00, 
2202.00, 
2203.00, 
2204.00, 
2205.00, 
2206.00, 
2207.00, 
2208.00, 
2209.00, 
2210.00, 
2211.00, 
2212.00, 
2213.00, 
2214.00, 
2215.00, 
2216.00, 
2217.00, 
2218.00, 
2219.00, 
2220.00, 
2221.00, 
2222.00, 
2223.00, 
2224.00, 
2225.00, 
2226.00, 
2227.00, 
2228.00, 
2229.00, 
2230.00, 
2231.00, 
2232.00, 
2233.00, 
2234.00, 
2235.00, 
2236.00, 
2237.00, 
2238.00, 
2239.00, 
2240.00, 
2241.00, 
2242.00, 
2243.00, 
2244.00, 
2245.00, 
2246.00, 
2247.00, 
2248.00, 
2249.00, 
2250.00, 
2251.00, 
2252.00, 
2253.00, 
2254.00, 
2255.00, 
2256.00, 
2257.00, 
2258.00, 
2259.00, 
2260.00, 
2261.00, 
2262.00, 
2263.00, 
2264.00, 
2265.00, 
2266.00, 
2267.00, 
2268.00, 
2269.00, 
2270.00, 
2271.00, 
2272.00, 
2273.00, 
2274.00, 
2275.00, 
2276.00, 
2277.00, 
2278.00, 
2279.00, 
2280.00, 
2281.00, 
2282.00, 
2283.00, 
2284.00, 
2285.00, 
2286.00, 
2287.00, 
2288.00, 
2289.00, 
2290.00, 
2291.00, 
2292.00, 
2293.00, 
2294.00, 
2295.00, 
2296.00, 
2297.00, 
2298.00, 
2299.00, 
2300.00, 
2301.00, 
2302.00, 
2303.00, 
2304.00, 
2305.00, 
2306.00, 
2307.00, 
2308.00, 
2309.00, 
2310.00, 
2311.00, 
2312.00, 
2313.00, 
2314.00, 
2315.00, 
2316.00, 
2317.00, 
2318.00, 
2319.00, 
2320.00, 
2321.00, 
2322.00, 
2323.00, 
2324.00, 
2325.00, 
2326.00, 
2327.00, 
2328.00, 
2329.00, 
2330.00, 
2331.00, 
2332.00, 
2333.00, 
2334.00, 
2335.00, 
2336.00, 
2337.00, 
2338.00, 
2339.00, 
2340.00, 
2341.00, 
2342.00, 
2343.00, 
2344.00, 
2345.00, 
2346.00, 
2347.00, 
2348.00, 
2349.00, 
2350.00, 
2351.00, 
2352.00, 
2353.00, 
2354.00, 
2355.00, 
2356.00, 
2357.00, 
2358.00, 
2359.00, 
2360.00, 
2361.00, 
2362.00, 
2363.00, 
2364.00, 
2365.00, 
2366.00, 
2367.00, 
2368.00, 
2369.00, 
2370.00, 
2371.00, 
2372.00, 
2373.00, 
2374.00, 
2375.00, 
2376.00, 
2377.00, 
2378.00, 
2379.00, 
2380.00, 
2381.00, 
2382.00, 
2383.00, 
2384.00, 
2385.00, 
2386.00, 
2387.00, 
2388.00, 
2389.00, 
2390.00, 
2391.00, 
2392.00, 
2393.00, 
2394.00, 
2395.00, 
2396.00, 
2397.00, 
2398.00, 
2399.00, 
2400.00, 
2401.00, 
2402.00, 
2403.00, 
2404.00, 
2405.00, 
2406.00, 
2407.00, 
2408.00, 
2409.00, 
2410.00, 
2411.00, 
2412.00, 
2413.00, 
2414.00, 
2415.00, 
2416.00, 
2417.00, 
2418.00, 
2419.00, 
2420.00, 
2421.00, 
2422.00, 
2423.00, 
2424.00, 
2425.00, 
2426.00, 
2427.00, 
2428.00, 
2429.00, 
2430.00, 
2431.00, 
2432.00, 
2433.00, 
2434.00, 
2435.00, 
2436.00, 
2437.00, 
2438.00, 
2439.00, 
2440.00, 
2441.00, 
2442.00, 
2443.00, 
2444.00, 
2445.00, 
2446.00, 
2447.00, 
2448.00, 
2449.00, 
2450.00, 
2451.00, 
2452.00, 
2453.00, 
2454.00, 
2455.00, 
2456.00, 
2457.00, 
2458.00, 
2459.00, 
2460.00, 
2461.00, 
2462.00, 
2463.00, 
2464.00, 
2465.00, 
2466.00, 
2467.00, 
2468.00, 
2469.00, 
2470.00, 
2471.00, 
2472.00, 
2473.00, 
2474.00, 
2475.00, 
2476.00, 
2477.00, 
2478.00, 
2479.00, 
2480.00, 
2481.00, 
2482.00, 
2483.00, 
2484.00, 
2485.00, 
2486.00, 
2487.00, 
2488.00, 
2489.00, 
2490.00, 
2491.00, 
2492.00, 
2493.00, 
2494.00, 
2495.00, 
2496.00, 
2497.00, 
2498.00, 
2499.00, 
2500.00, 
2501.00, 
2502.00, 
2503.00, 
2504.00, 
2505.00, 
2506.00, 
2507.00, 
2508.00, 
2509.00, 
2510.00, 
2511.00, 
2512.00, 
2513.00, 
2514.00, 
2515.00, 
2516.00, 
2517.00, 
2518.00, 
2519.00, 
2520.00, 
2521.00, 
2522.00, 
2523.00, 
2524.00, 
2525.00, 
2526.00, 
2527.00, 
2528.00, 
2529.00, 
2530.00, 
2531.00, 
2532.00, 
2533.00, 
2534.00, 
2535.00, 
2536.00, 
2537.00, 
2538.00, 
2539.00, 
2540.00, 
2541.00, 
2542.00, 
2543.00, 
2544.00, 
2545.00, 
2546.00, 
2547.00, 
2548.00, 
2549.00, 
2550.00, 
2551.00, 
2552.00, 
2553.00, 
2554.00, 
2555.00, 
2556.00, 
2557.00, 
2558.00, 
2559.00, 
2560.00, 
2561.00, 
2562.00, 
2563.00, 
2564.00, 
2565.00, 
2566.00, 
2567.00, 
2568.00, 
2569.00, 
2570.00, 
2571.00, 
2572.00, 
2573.00, 
2574.00, 
2575.00, 
2576.00, 
2577.00, 
2578.00, 
2579.00, 
2580.00, 
2581.00, 
2582.00, 
2583.00, 
2584.00, 
2585.00, 
2586.00, 
2587.00, 
2588.00, 
2589.00, 
2590.00, 
2591.00, 
2592.00, 
2593.00, 
2594.00, 
2595.00, 
2596.00, 
2597.00, 
2598.00, 
2599.00, 
2600.00, 
