"1bP2 - RawData"
"Wavelength nm.","T%"
200.00,0.002
201.00,0.003
202.00,0.003
203.00,0.003
204.00,0.004
205.00,0.003
206.00,-0.001
207.00,0.000
208.00,0.001
209.00,0.002
210.00,0.002
211.00,-0.000
212.00,0.001
213.00,0.001
214.00,0.001
215.00,-0.001
216.00,0.001
217.00,0.003
218.00,0.004
219.00,0.003
220.00,0.000
221.00,0.002
222.00,0.001
223.00,0.001
224.00,-0.001
225.00,-0.003
226.00,-0.001
227.00,0.002
228.00,-0.001
229.00,0.001
230.00,-0.003
231.00,0.000
232.00,0.001
233.00,0.002
234.00,-0.001
235.00,0.000
236.00,0.001
237.00,0.001
238.00,-0.001
239.00,0.000
240.00,0.001
241.00,-0.001
242.00,-0.003
243.00,-0.001
244.00,0.000
245.00,0.001
246.00,0.000
247.00,-0.000
248.00,0.000
249.00,0.002
250.00,-0.000
251.00,0.001
252.00,-0.000
253.00,0.001
254.00,-0.000
255.00,-0.002
256.00,-0.000
257.00,-0.002
258.00,-0.001
259.00,-0.001
260.00,0.000
261.00,0.001
262.00,0.001
263.00,0.001
264.00,0.000
265.00,-0.000
266.00,-0.001
267.00,0.000
268.00,0.000
269.00,0.001
270.00,0.001
271.00,-0.001
272.00,-0.000
273.00,-0.000
274.00,-0.001
275.00,0.001
276.00,-0.000
277.00,-0.001
278.00,0.001
279.00,-0.001
280.00,-0.001
281.00,-0.000
282.00,0.000
283.00,0.001
284.00,-0.002
285.00,-0.001
286.00,0.001
287.00,0.000
288.00,0.001
289.00,0.001
290.00,0.000
291.00,0.001
292.00,-0.001
293.00,0.000
294.00,0.000
295.00,0.001
296.00,0.001
297.00,0.001
298.00,0.002
299.00,0.003
300.00,0.004
301.00,0.006
302.00,0.009
303.00,0.012
304.00,0.021
305.00,0.030
306.00,0.047
307.00,0.071
308.00,0.110
309.00,0.167
310.00,0.232
311.00,0.314
312.00,0.424
313.00,0.566
314.00,0.746
315.00,0.966
316.00,1.172
317.00,1.529
318.00,1.868
319.00,2.284
320.00,2.743
321.00,3.245
322.00,3.808
323.00,4.447
324.00,5.134
325.00,5.712
326.00,6.377
327.00,7.235
328.00,8.008
329.00,8.804
330.00,9.640
331.00,10.462
332.00,11.275
333.00,12.141
334.00,12.958
335.00,13.786
336.00,14.609
337.00,15.420
338.00,16.203
339.00,16.945
340.00,17.677
341.00,18.408
342.00,19.071
343.00,19.688
344.00,20.382
345.00,20.936
346.00,21.447
347.00,21.921
348.00,22.413
349.00,22.840
350.00,23.257
351.00,23.623
352.00,23.956
353.00,24.344
354.00,24.639
355.00,24.939
356.00,25.208
357.00,25.426
358.00,25.708
359.00,25.970
360.00,26.207
361.00,26.289
362.00,26.486
363.00,26.652
364.00,26.675
365.00,26.847
366.00,26.932
367.00,27.009
368.00,27.016
369.00,27.085
370.00,27.155
371.00,27.122
372.00,27.163
373.00,27.069
374.00,27.151
375.00,27.111
376.00,27.025
377.00,26.972
378.00,26.903
379.00,26.776
380.00,26.764
381.00,26.754
382.00,26.714
383.00,26.763
384.00,26.783
385.00,26.791
386.00,26.806
387.00,26.910
388.00,26.949
389.00,26.937
390.00,26.992
391.00,26.984
392.00,27.020
393.00,27.008
394.00,27.049
395.00,27.082
396.00,27.012
397.00,27.057
398.00,27.052
399.00,27.018
400.00,27.042
401.00,27.021
402.00,27.009
403.00,27.004
404.00,27.018
405.00,26.968
406.00,26.969
407.00,26.921
408.00,26.909
409.00,26.829
410.00,26.764
411.00,26.809
412.00,26.712
413.00,26.742
414.00,26.700
415.00,26.711
416.00,26.784
417.00,26.733
418.00,26.761
419.00,26.844
420.00,26.924
421.00,26.867
422.00,26.927
423.00,27.005
424.00,27.113
425.00,27.051
426.00,27.042
427.00,27.119
428.00,27.128
429.00,27.164
430.00,27.224
431.00,27.287
432.00,27.298
433.00,27.373
434.00,27.418
435.00,27.485
436.00,27.579
437.00,27.607
438.00,27.670
439.00,27.765
440.00,27.831
441.00,27.862
442.00,27.932
443.00,28.005
444.00,28.098
445.00,28.161
446.00,28.283
447.00,28.376
448.00,28.433
449.00,28.561
450.00,28.660
451.00,28.711
452.00,28.741
453.00,28.960
454.00,29.016
455.00,29.109
456.00,29.249
457.00,29.337
458.00,29.426
459.00,29.551
460.00,29.689
461.00,29.818
462.00,29.886
463.00,30.061
464.00,30.150
465.00,30.262
466.00,30.407
467.00,30.555
468.00,30.587
469.00,30.725
470.00,30.770
471.00,30.874
472.00,31.007
473.00,31.039
474.00,31.167
475.00,31.287
476.00,31.355
477.00,31.500
478.00,31.604
479.00,31.816
480.00,31.897
481.00,32.023
482.00,32.185
483.00,32.301
484.00,32.483
485.00,32.589
486.00,32.764
487.00,32.906
488.00,32.974
489.00,33.162
490.00,33.314
491.00,33.438
492.00,33.694
493.00,33.822
494.00,33.760
495.00,33.912
496.00,34.050
497.00,34.066
498.00,34.270
499.00,34.370
500.00,34.526
501.00,34.638
502.00,34.732
503.00,34.844
504.00,34.847
505.00,34.987
506.00,35.161
507.00,35.090
508.00,35.289
509.00,35.427
510.00,35.579
511.00,35.640
512.00,35.864
513.00,35.950
514.00,36.008
515.00,36.206
516.00,36.299
517.00,36.301
518.00,36.448
519.00,36.508
520.00,36.523
521.00,36.698
522.00,36.731
523.00,36.763
524.00,36.897
525.00,36.973
526.00,37.060
527.00,37.142
528.00,37.194
529.00,37.392
530.00,37.519
531.00,37.576
532.00,37.645
533.00,37.748
534.00,37.830
535.00,37.897
536.00,37.970
537.00,38.026
538.00,38.077
539.00,38.120
540.00,38.195
541.00,38.237
542.00,38.210
543.00,38.311
544.00,38.405
545.00,38.438
546.00,38.454
547.00,38.623
548.00,38.703
549.00,38.725
550.00,38.810
551.00,38.910
552.00,38.919
553.00,38.941
554.00,39.046
555.00,39.025
556.00,39.109
557.00,39.145
558.00,39.235
559.00,39.304
560.00,39.362
561.00,39.376
562.00,39.437
563.00,39.478
564.00,39.573
565.00,39.523
566.00,39.502
567.00,39.570
568.00,39.519
569.00,39.679
570.00,39.713
571.00,39.742
572.00,39.726
573.00,39.726
574.00,39.761
575.00,39.770
576.00,39.708
577.00,39.812
578.00,39.939
579.00,39.976
580.00,39.926
581.00,40.044
582.00,40.224
583.00,40.234
584.00,40.319
585.00,40.401
586.00,40.421
587.00,40.482
588.00,40.472
589.00,40.434
590.00,40.553
591.00,40.617
592.00,40.526
593.00,40.517
594.00,40.705
595.00,40.762
596.00,40.777
597.00,40.844
598.00,40.899
599.00,40.879
600.00,40.917
601.00,40.926
602.00,40.937
603.00,40.985
604.00,41.061
605.00,41.089
606.00,41.107
607.00,41.113
608.00,41.221
609.00,41.423
610.00,41.223
611.00,41.288
612.00,41.273
613.00,41.364
614.00,41.460
615.00,41.460
616.00,41.582
617.00,41.591
618.00,41.520
619.00,41.607
620.00,41.650
621.00,41.713
622.00,41.760
623.00,41.862
624.00,41.891
625.00,41.904
626.00,41.995
627.00,41.997
628.00,42.051
629.00,42.057
630.00,42.117
631.00,42.160
632.00,42.213
633.00,42.294
634.00,42.421
635.00,42.439
636.00,42.464
637.00,42.496
638.00,42.566
639.00,42.688
640.00,42.748
641.00,42.759
642.00,42.786
643.00,42.843
644.00,42.896
645.00,43.030
646.00,43.153
647.00,43.159
648.00,43.147
649.00,43.215
650.00,43.207
651.00,43.413
652.00,43.456
653.00,43.475
654.00,43.445
655.00,43.677
656.00,43.968
657.00,43.751
658.00,43.754
659.00,43.886
660.00,43.977
661.00,43.983
662.00,44.031
663.00,44.138
664.00,44.468
665.00,44.564
666.00,44.401
667.00,44.524
668.00,44.442
669.00,44.681
670.00,44.969
671.00,44.866
672.00,44.828
673.00,44.987
674.00,44.922
675.00,45.033
676.00,45.304
677.00,45.472
678.00,45.173
679.00,45.426
680.00,45.486
681.00,45.603
682.00,45.607
683.00,45.591
684.00,45.753
685.00,45.887
686.00,45.729
687.00,45.875
688.00,45.944
689.00,45.782
690.00,46.162
691.00,46.404
692.00,46.143
693.00,46.110
694.00,46.239
695.00,46.181
696.00,46.429
697.00,46.676
698.00,46.540
699.00,46.880
700.00,46.923
701.00,46.750
702.00,46.879
703.00,47.042
704.00,47.168
705.00,46.943
706.00,47.031
707.00,47.175
708.00,46.935
709.00,47.465
710.00,47.809
711.00,47.156
712.00,47.316
713.00,47.492
714.00,47.527
715.00,47.627
716.00,47.521
717.00,47.678
718.00,47.746
719.00,47.676
720.00,47.801
721.00,52.477
722.00,52.411
723.00,52.539
724.00,52.514
725.00,52.483
726.00,52.515
727.00,52.495
728.00,52.525
729.00,52.471
730.00,52.549
731.00,52.650
732.00,52.524
733.00,52.647
734.00,52.668
735.00,52.698
736.00,52.701
737.00,52.604
738.00,52.725
739.00,52.772
740.00,52.781
741.00,52.785
742.00,52.819
743.00,52.810
744.00,52.769
745.00,52.777
746.00,52.811
747.00,52.711
748.00,52.767
749.00,52.781
750.00,52.696
751.00,52.693
752.00,52.667
753.00,52.642
754.00,52.784
755.00,52.712
756.00,52.771
757.00,52.724
758.00,52.765
759.00,52.742
760.00,52.751
761.00,52.757
762.00,52.700
763.00,52.778
764.00,52.754
765.00,52.733
766.00,52.847
767.00,52.832
768.00,52.846
769.00,52.718
770.00,52.820
771.00,52.798
772.00,52.765
773.00,52.832
774.00,52.801
775.00,52.801
776.00,52.755
777.00,52.814
778.00,52.733
779.00,52.836
780.00,52.734
781.00,52.851
782.00,52.766
783.00,52.720
784.00,52.675
785.00,52.705
786.00,52.774
787.00,52.758
788.00,52.742
789.00,52.729
790.00,52.674
791.00,52.721
792.00,52.698
793.00,52.646
794.00,52.685
795.00,52.685
796.00,52.609
797.00,52.643
798.00,52.579
799.00,52.544
800.00,52.543
801.00,52.488
802.00,52.543
803.00,52.484
804.00,52.467
805.00,52.488
806.00,52.500
807.00,52.467
808.00,52.358
809.00,52.381
810.00,52.422
811.00,52.371
812.00,52.404
813.00,52.354
814.00,52.276
815.00,52.367
816.00,52.325
817.00,52.316
818.00,52.208
819.00,52.244
820.00,52.214
821.00,52.251
822.00,52.249
823.00,52.197
824.00,52.219
825.00,52.164
826.00,52.211
827.00,52.194
828.00,52.180
829.00,52.130
830.00,52.172
831.00,54.702
832.00,54.686
833.00,54.619
834.00,54.662
835.00,54.618
836.00,54.659
837.00,54.611
838.00,54.599
839.00,54.606
840.00,54.533
841.00,54.565
842.00,54.510
843.00,54.524
844.00,54.482
845.00,54.450
846.00,54.489
847.00,54.422
848.00,54.410
849.00,54.337
850.00,54.352
851.00,54.294
852.00,54.297
853.00,54.244
854.00,54.236
855.00,54.151
856.00,54.197
857.00,54.146
858.00,54.131
859.00,54.126
860.00,54.125
861.00,54.170
862.00,54.036
863.00,54.112
864.00,54.055
865.00,54.065
866.00,53.997
867.00,54.057
868.00,54.067
869.00,54.009
870.00,53.956
871.00,54.079
872.00,53.999
873.00,53.950
874.00,54.007
875.00,53.932
876.00,53.958
877.00,53.939
878.00,53.941
879.00,53.907
880.00,53.909
881.00,53.845
882.00,53.907
883.00,53.845
884.00,53.795
885.00,53.835
886.00,53.833
887.00,53.802
888.00,53.755
889.00,53.764
890.00,53.757
891.00,53.729
892.00,53.675
893.00,53.672
894.00,53.696
895.00,53.633
896.00,53.611
897.00,53.601
898.00,53.590
899.00,53.570
900.00,53.584
901.00,53.557
902.00,53.571
903.00,53.538
904.00,53.522
905.00,53.521
906.00,53.493
907.00,53.450
908.00,53.443
909.00,53.399
910.00,53.400
911.00,53.397
912.00,53.398
913.00,53.313
914.00,53.331
915.00,53.299
916.00,53.245
917.00,53.248
918.00,53.249
919.00,53.234
920.00,53.159
921.00,53.180
922.00,53.207
923.00,53.171
924.00,53.118
925.00,53.114
926.00,53.317
927.00,53.092
928.00,53.095
929.00,53.081
930.00,53.029
931.00,53.000
932.00,53.039
933.00,53.031
934.00,53.016
935.00,52.960
936.00,52.934
937.00,52.948
938.00,52.945
939.00,52.933
940.00,52.843
941.00,52.895
942.00,52.845
943.00,52.830
944.00,52.802
945.00,52.804
946.00,52.778
947.00,52.760
948.00,52.732
949.00,52.703
950.00,52.730
951.00,52.691
952.00,52.660
953.00,52.633
954.00,52.601
955.00,52.629
956.00,52.580
957.00,52.516
958.00,52.548
959.00,52.487
960.00,52.467
961.00,52.478
962.00,52.485
963.00,52.427
964.00,52.408
965.00,52.411
966.00,52.412
967.00,52.410
968.00,52.367
969.00,52.422
970.00,52.393
971.00,52.391
972.00,52.364
973.00,52.410
974.00,52.420
975.00,52.390
976.00,52.387
977.00,52.401
978.00,52.450
979.00,52.395
980.00,52.412
981.00,52.430
982.00,52.381
983.00,52.415
984.00,52.383
985.00,52.395
986.00,52.333
987.00,52.410
988.00,52.357
989.00,52.360
990.00,52.339
991.00,52.327
992.00,52.345
993.00,52.306
994.00,52.298
995.00,52.282
996.00,52.282
997.00,52.264
998.00,52.247
999.00,52.265
1000.00,52.218
1001.00,52.206
1002.00,52.263
1003.00,52.197
1004.00,52.154
1005.00,52.140
1006.00,52.182
1007.00,52.132
1008.00,52.148
1009.00,52.132
1010.00,52.131
1011.00,52.116
1012.00,52.090
1013.00,52.121
1014.00,52.082
1015.00,52.082
1016.00,52.059
1017.00,52.044
1018.00,52.028
1019.00,51.992
1020.00,51.994
1021.00,51.969
1022.00,51.982
1023.00,51.918
1024.00,51.939
1025.00,51.923
1026.00,51.892
1027.00,51.898
1028.00,51.881
1029.00,51.870
1030.00,51.838
1031.00,51.832
1032.00,51.795
1033.00,51.825
1034.00,51.757
1035.00,51.742
1036.00,51.711
1037.00,51.692
1038.00,51.692
1039.00,51.666
1040.00,51.670
1041.00,51.635
1042.00,51.620
1043.00,51.587
1044.00,51.642
1045.00,51.605
1046.00,51.605
1047.00,51.642
1048.00,51.647
1049.00,51.654
1050.00,51.659
1051.00,51.706
1052.00,51.699
1053.00,51.696
1054.00,51.710
1055.00,51.741
1056.00,51.734
1057.00,51.746
1058.00,51.733
1059.00,51.734
1060.00,51.756
1061.00,51.723
1062.00,51.710
1063.00,51.713
1064.00,51.709
1065.00,51.707
1066.00,51.707
1067.00,51.691
1068.00,51.719
1069.00,51.670
1070.00,51.655
1071.00,51.651
1072.00,51.669
1073.00,51.633
1074.00,51.631
1075.00,51.621
1076.00,51.628
1077.00,51.622
1078.00,51.580
1079.00,51.600
1080.00,51.598
1081.00,51.581
1082.00,51.569
1083.00,51.569
1084.00,51.574
1085.00,51.583
1086.00,51.562
1087.00,51.571
1088.00,51.572
1089.00,51.543
1090.00,51.529
1091.00,51.536
1092.00,51.525
1093.00,51.522
1094.00,51.515
1095.00,51.481
1096.00,51.462
1097.00,51.455
1098.00,51.449
1099.00,51.455
1100.00,51.421
1101.00,51.436
1102.00,51.426
1103.00,51.431
1104.00,51.418
1105.00,51.400
1106.00,51.392
1107.00,51.384
1108.00,51.377
1109.00,51.404
1110.00,51.367
1111.00,51.335
1112.00,51.346
1113.00,51.353
1114.00,51.321
1115.00,51.334
1116.00,51.329
1117.00,51.317
1118.00,51.312
1119.00,51.295
1120.00,51.295
1121.00,51.313
1122.00,51.272
1123.00,51.267
1124.00,51.262
1125.00,51.260
1126.00,51.255
1127.00,51.255
1128.00,51.240
1129.00,51.225
1130.00,51.192
1131.00,51.202
1132.00,51.210
1133.00,51.185
1134.00,51.191
1135.00,51.179
1136.00,51.167
1137.00,51.178
1138.00,51.165
1139.00,51.182
1140.00,51.168
1141.00,51.153
1142.00,51.158
1143.00,51.189
1144.00,51.130
1145.00,51.150
1146.00,51.150
1147.00,51.141
1148.00,51.148
1149.00,51.180
1150.00,51.176
1151.00,51.177
1152.00,51.171
1153.00,51.160
1154.00,51.159
1155.00,51.179
1156.00,51.159
1157.00,51.159
1158.00,51.136
1159.00,51.146
1160.00,51.157
1161.00,51.166
1162.00,51.159
1163.00,51.140
1164.00,51.164
1165.00,51.162
1166.00,51.133
1167.00,51.152
1168.00,51.163
1169.00,51.129
1170.00,51.156
1171.00,51.123
1172.00,51.126
1173.00,51.129
1174.00,51.132
1175.00,51.141
1176.00,51.153
1177.00,51.123
1178.00,51.146
1179.00,51.154
1180.00,51.143
1181.00,51.152
1182.00,51.144
1183.00,51.152
1184.00,51.133
1185.00,51.145
1186.00,51.147
1187.00,51.160
1188.00,51.143
1189.00,51.149
1190.00,51.130
1191.00,51.111
1192.00,51.139
1193.00,51.120
1194.00,51.136
1195.00,51.108
1196.00,51.124
1197.00,51.129
1198.00,51.136
1199.00,51.114
1200.00,51.123
1201.00,51.151
1202.00,51.103
1203.00,51.130
1204.00,51.116
1205.00,51.148
1206.00,51.131
1207.00,51.123
1208.00,51.132
1209.00,51.151
1210.00,51.130
1211.00,51.139
1212.00,51.150
1213.00,51.122
1214.00,51.137
1215.00,51.127
1216.00,51.146
1217.00,51.133
1218.00,51.116
1219.00,51.148
1220.00,51.135
1221.00,51.134
1222.00,51.122
1223.00,51.149
1224.00,51.128
1225.00,51.115
1226.00,51.124
1227.00,51.125
1228.00,51.154
1229.00,51.137
1230.00,51.177
1231.00,51.167
1232.00,51.183
1233.00,51.185
1234.00,51.185
1235.00,51.174
1236.00,51.175
1237.00,51.190
1238.00,51.180
1239.00,51.187
1240.00,51.156
1241.00,51.181
1242.00,51.189
1243.00,51.167
1244.00,51.168
1245.00,51.206
1246.00,51.192
1247.00,51.185
1248.00,51.194
1249.00,51.211
1250.00,51.232
1251.00,51.207
1252.00,51.224
1253.00,51.220
1254.00,51.229
1255.00,51.237
1256.00,51.221
1257.00,51.204
1258.00,51.262
1259.00,51.250
1260.00,51.252
1261.00,51.255
1262.00,51.232
1263.00,51.248
1264.00,51.259
1265.00,51.237
1266.00,51.256
1267.00,51.274
1268.00,51.253
1269.00,51.282
1270.00,51.299
1271.00,51.308
1272.00,51.318
1273.00,51.313
1274.00,51.305
1275.00,51.324
1276.00,51.297
1277.00,51.326
1278.00,51.346
1279.00,51.325
1280.00,51.318
1281.00,51.339
1282.00,51.343
1283.00,51.354
1284.00,51.346
1285.00,51.357
1286.00,51.385
1287.00,51.353
1288.00,51.382
1289.00,51.371
1290.00,51.406
1291.00,51.395
1292.00,51.389
1293.00,51.393
1294.00,51.406
1295.00,51.403
1296.00,51.410
1297.00,51.415
1298.00,51.453
1299.00,51.425
1300.00,51.446
1301.00,51.427
1302.00,51.459
1303.00,51.446
1304.00,51.440
1305.00,51.463
1306.00,51.449
1307.00,51.468
1308.00,51.482
1309.00,51.478
1310.00,51.478
1311.00,51.471
1312.00,51.467
1313.00,51.484
1314.00,51.497
1315.00,51.514
1316.00,51.511
1317.00,51.538
1318.00,51.540
1319.00,51.544
1320.00,51.522
1321.00,51.695
1322.00,51.687
1323.00,51.664
1324.00,51.658
1325.00,51.650
1326.00,51.652
1327.00,51.637
1328.00,51.639
1329.00,51.652
1330.00,51.708
1331.00,51.633
1332.00,51.684
1333.00,51.692
1334.00,51.699
1335.00,51.713
1336.00,51.753
1337.00,51.752
1338.00,51.831
1339.00,51.874
1340.00,51.939
1341.00,51.998
1342.00,52.044
1343.00,52.124
1344.00,52.164
1345.00,52.198
1346.00,52.270
1347.00,52.287
1348.00,52.285
1349.00,52.324
1350.00,52.333
1351.00,52.346
1352.00,52.348
1353.00,52.320
1354.00,52.357
1355.00,52.317
1356.00,52.409
1357.00,52.381
1358.00,52.378
1359.00,52.359
1360.00,52.424
1361.00,52.448
1362.00,52.323
1363.00,52.513
1364.00,52.454
1365.00,52.386
1366.00,52.481
1367.00,52.384
1368.00,52.311
1369.00,52.394
1370.00,52.411
1371.00,52.307
1372.00,52.340
1373.00,52.359
1374.00,52.354
1375.00,52.366
1376.00,52.397
1377.00,52.221
1378.00,52.480
1379.00,52.410
1380.00,52.426
1381.00,52.396
1382.00,52.337
1383.00,52.412
1384.00,52.357
1385.00,52.352
1386.00,52.374
1387.00,52.308
1388.00,52.302
1389.00,52.341
1390.00,52.377
1391.00,52.349
1392.00,52.303
1393.00,52.385
1394.00,52.347
1395.00,52.341
1396.00,52.284
1397.00,52.364
1398.00,52.383
1399.00,52.384
1400.00,52.122
1401.00,52.296
1402.00,52.570
1403.00,52.456
1404.00,52.393
1405.00,52.385
1406.00,52.446
1407.00,52.400
1408.00,52.348
1409.00,52.404
1410.00,52.448
1411.00,52.393
1412.00,52.467
1413.00,52.442
1414.00,52.391
1415.00,52.417
1416.00,52.458
1417.00,52.482
1418.00,52.431
1419.00,52.462
1420.00,52.476
1421.00,52.550
1422.00,52.510
1423.00,52.546
1424.00,52.546
1425.00,52.546
1426.00,52.554
1427.00,52.579
1428.00,52.560
1429.00,52.570
1430.00,52.571
1431.00,52.604
1432.00,52.623
1433.00,52.615
1434.00,52.630
1435.00,52.699
1436.00,52.676
1437.00,52.676
1438.00,52.701
1439.00,52.735
1440.00,52.742
1441.00,52.723
1442.00,52.740
1443.00,52.775
1444.00,52.840
1445.00,52.763
1446.00,52.795
1447.00,52.812
1448.00,52.877
1449.00,52.875
1450.00,52.851
1451.00,52.879
1452.00,52.907
1453.00,52.895
1454.00,52.941
1455.00,52.936
1456.00,52.967
1457.00,52.966
1458.00,52.969
1459.00,52.996
1460.00,53.023
1461.00,53.024
1462.00,53.048
1463.00,53.062
1464.00,53.100
1465.00,53.093
1466.00,53.079
1467.00,53.112
1468.00,53.174
1469.00,53.111
1470.00,53.152
1471.00,53.162
1472.00,53.163
1473.00,53.168
1474.00,53.190
1475.00,53.218
1476.00,53.236
1477.00,53.173
1478.00,53.230
1479.00,53.259
1480.00,53.218
1481.00,53.247
1482.00,53.294
1483.00,53.306
1484.00,53.331
1485.00,53.308
1486.00,53.341
1487.00,53.359
1488.00,53.366
1489.00,53.357
1490.00,53.379
1491.00,53.358
1492.00,53.388
1493.00,53.369
1494.00,53.411
1495.00,53.388
1496.00,53.415
1497.00,53.390
1498.00,53.426
1499.00,53.417
1500.00,53.438
1501.00, 
1502.00, 
1503.00, 
1504.00, 
1505.00, 
1506.00, 
1507.00, 
1508.00, 
1509.00, 
1510.00, 
1511.00, 
1512.00, 
1513.00, 
1514.00, 
1515.00, 
1516.00, 
1517.00, 
1518.00, 
1519.00, 
1520.00, 
1521.00, 
1522.00, 
1523.00, 
1524.00, 
1525.00, 
1526.00, 
1527.00, 
1528.00, 
1529.00, 
1530.00, 
1531.00, 
1532.00, 
1533.00, 
1534.00, 
1535.00, 
1536.00, 
1537.00, 
1538.00, 
1539.00, 
1540.00, 
1541.00, 
1542.00, 
1543.00, 
1544.00, 
1545.00, 
1546.00, 
1547.00, 
1548.00, 
1549.00, 
1550.00, 
1551.00, 
1552.00, 
1553.00, 
1554.00, 
1555.00, 
1556.00, 
1557.00, 
1558.00, 
1559.00, 
1560.00, 
1561.00, 
1562.00, 
1563.00, 
1564.00, 
1565.00, 
1566.00, 
1567.00, 
1568.00, 
1569.00, 
1570.00, 
1571.00, 
1572.00, 
1573.00, 
1574.00, 
1575.00, 
1576.00, 
1577.00, 
1578.00, 
1579.00, 
1580.00, 
1581.00, 
1582.00, 
1583.00, 
1584.00, 
1585.00, 
1586.00, 
1587.00, 
1588.00, 
1589.00, 
1590.00, 
1591.00, 
1592.00, 
1593.00, 
1594.00, 
1595.00, 
1596.00, 
1597.00, 
1598.00, 
1599.00, 
1600.00, 
1601.00, 
1602.00, 
1603.00, 
1604.00, 
1605.00, 
1606.00, 
1607.00, 
1608.00, 
1609.00, 
1610.00, 
1611.00, 
1612.00, 
1613.00, 
1614.00, 
1615.00, 
1616.00, 
1617.00, 
1618.00, 
1619.00, 
1620.00, 
1621.00, 
1622.00, 
1623.00, 
1624.00, 
1625.00, 
1626.00, 
1627.00, 
1628.00, 
1629.00, 
1630.00, 
1631.00, 
1632.00, 
1633.00, 
1634.00, 
1635.00, 
1636.00, 
1637.00, 
1638.00, 
1639.00, 
1640.00, 
1641.00, 
1642.00, 
1643.00, 
1644.00, 
1645.00, 
1646.00, 
1647.00, 
1648.00, 
1649.00, 
1650.00, 
1651.00, 
1652.00, 
1653.00, 
1654.00, 
1655.00, 
1656.00, 
1657.00, 
1658.00, 
1659.00, 
1660.00, 
1661.00, 
1662.00, 
1663.00, 
1664.00, 
1665.00, 
1666.00, 
1667.00, 
1668.00, 
1669.00, 
1670.00, 
1671.00, 
1672.00, 
1673.00, 
1674.00, 
1675.00, 
1676.00, 
1677.00, 
1678.00, 
1679.00, 
1680.00, 
1681.00, 
1682.00, 
1683.00, 
1684.00, 
1685.00, 
1686.00, 
1687.00, 
1688.00, 
1689.00, 
1690.00, 
1691.00, 
1692.00, 
1693.00, 
1694.00, 
1695.00, 
1696.00, 
1697.00, 
1698.00, 
1699.00, 
1700.00, 
1701.00, 
1702.00, 
1703.00, 
1704.00, 
1705.00, 
1706.00, 
1707.00, 
1708.00, 
1709.00, 
1710.00, 
1711.00, 
1712.00, 
1713.00, 
1714.00, 
1715.00, 
1716.00, 
1717.00, 
1718.00, 
1719.00, 
1720.00, 
1721.00, 
1722.00, 
1723.00, 
1724.00, 
1725.00, 
1726.00, 
1727.00, 
1728.00, 
1729.00, 
1730.00, 
1731.00, 
1732.00, 
1733.00, 
1734.00, 
1735.00, 
1736.00, 
1737.00, 
1738.00, 
1739.00, 
1740.00, 
1741.00, 
1742.00, 
1743.00, 
1744.00, 
1745.00, 
1746.00, 
1747.00, 
1748.00, 
1749.00, 
1750.00, 
1751.00, 
1752.00, 
1753.00, 
1754.00, 
1755.00, 
1756.00, 
1757.00, 
1758.00, 
1759.00, 
1760.00, 
1761.00, 
1762.00, 
1763.00, 
1764.00, 
1765.00, 
1766.00, 
1767.00, 
1768.00, 
1769.00, 
1770.00, 
1771.00, 
1772.00, 
1773.00, 
1774.00, 
1775.00, 
1776.00, 
1777.00, 
1778.00, 
1779.00, 
1780.00, 
1781.00, 
1782.00, 
1783.00, 
1784.00, 
1785.00, 
1786.00, 
1787.00, 
1788.00, 
1789.00, 
1790.00, 
1791.00, 
1792.00, 
1793.00, 
1794.00, 
1795.00, 
1796.00, 
1797.00, 
1798.00, 
1799.00, 
1800.00, 
1801.00, 
1802.00, 
1803.00, 
1804.00, 
1805.00, 
1806.00, 
1807.00, 
1808.00, 
1809.00, 
1810.00, 
1811.00, 
1812.00, 
1813.00, 
1814.00, 
1815.00, 
1816.00, 
1817.00, 
1818.00, 
1819.00, 
1820.00, 
1821.00, 
1822.00, 
1823.00, 
1824.00, 
1825.00, 
1826.00, 
1827.00, 
1828.00, 
1829.00, 
1830.00, 
1831.00, 
1832.00, 
1833.00, 
1834.00, 
1835.00, 
1836.00, 
1837.00, 
1838.00, 
1839.00, 
1840.00, 
1841.00, 
1842.00, 
1843.00, 
1844.00, 
1845.00, 
1846.00, 
1847.00, 
1848.00, 
1849.00, 
1850.00, 
1851.00, 
1852.00, 
1853.00, 
1854.00, 
1855.00, 
1856.00, 
1857.00, 
1858.00, 
1859.00, 
1860.00, 
1861.00, 
1862.00, 
1863.00, 
1864.00, 
1865.00, 
1866.00, 
1867.00, 
1868.00, 
1869.00, 
1870.00, 
1871.00, 
1872.00, 
1873.00, 
1874.00, 
1875.00, 
1876.00, 
1877.00, 
1878.00, 
1879.00, 
1880.00, 
1881.00, 
1882.00, 
1883.00, 
1884.00, 
1885.00, 
1886.00, 
1887.00, 
1888.00, 
1889.00, 
1890.00, 
1891.00, 
1892.00, 
1893.00, 
1894.00, 
1895.00, 
1896.00, 
1897.00, 
1898.00, 
1899.00, 
1900.00, 
1901.00, 
1902.00, 
1903.00, 
1904.00, 
1905.00, 
1906.00, 
1907.00, 
1908.00, 
1909.00, 
1910.00, 
1911.00, 
1912.00, 
1913.00, 
1914.00, 
1915.00, 
1916.00, 
1917.00, 
1918.00, 
1919.00, 
1920.00, 
1921.00, 
1922.00, 
1923.00, 
1924.00, 
1925.00, 
1926.00, 
1927.00, 
1928.00, 
1929.00, 
1930.00, 
1931.00, 
1932.00, 
1933.00, 
1934.00, 
1935.00, 
1936.00, 
1937.00, 
1938.00, 
1939.00, 
1940.00, 
1941.00, 
1942.00, 
1943.00, 
1944.00, 
1945.00, 
1946.00, 
1947.00, 
1948.00, 
1949.00, 
1950.00, 
1951.00, 
1952.00, 
1953.00, 
1954.00, 
1955.00, 
1956.00, 
1957.00, 
1958.00, 
1959.00, 
1960.00, 
1961.00, 
1962.00, 
1963.00, 
1964.00, 
1965.00, 
1966.00, 
1967.00, 
1968.00, 
1969.00, 
1970.00, 
1971.00, 
1972.00, 
1973.00, 
1974.00, 
1975.00, 
1976.00, 
1977.00, 
1978.00, 
1979.00, 
1980.00, 
1981.00, 
1982.00, 
1983.00, 
1984.00, 
1985.00, 
1986.00, 
1987.00, 
1988.00, 
1989.00, 
1990.00, 
1991.00, 
1992.00, 
1993.00, 
1994.00, 
1995.00, 
1996.00, 
1997.00, 
1998.00, 
1999.00, 
2000.00, 
2001.00, 
2002.00, 
2003.00, 
2004.00, 
2005.00, 
2006.00, 
2007.00, 
2008.00, 
2009.00, 
2010.00, 
2011.00, 
2012.00, 
2013.00, 
2014.00, 
2015.00, 
2016.00, 
2017.00, 
2018.00, 
2019.00, 
2020.00, 
2021.00, 
2022.00, 
2023.00, 
2024.00, 
2025.00, 
2026.00, 
2027.00, 
2028.00, 
2029.00, 
2030.00, 
2031.00, 
2032.00, 
2033.00, 
2034.00, 
2035.00, 
2036.00, 
2037.00, 
2038.00, 
2039.00, 
2040.00, 
2041.00, 
2042.00, 
2043.00, 
2044.00, 
2045.00, 
2046.00, 
2047.00, 
2048.00, 
2049.00, 
2050.00, 
2051.00, 
2052.00, 
2053.00, 
2054.00, 
2055.00, 
2056.00, 
2057.00, 
2058.00, 
2059.00, 
2060.00, 
2061.00, 
2062.00, 
2063.00, 
2064.00, 
2065.00, 
2066.00, 
2067.00, 
2068.00, 
2069.00, 
2070.00, 
2071.00, 
2072.00, 
2073.00, 
2074.00, 
2075.00, 
2076.00, 
2077.00, 
2078.00, 
2079.00, 
2080.00, 
2081.00, 
2082.00, 
2083.00, 
2084.00, 
2085.00, 
2086.00, 
2087.00, 
2088.00, 
2089.00, 
2090.00, 
2091.00, 
2092.00, 
2093.00, 
2094.00, 
2095.00, 
2096.00, 
2097.00, 
2098.00, 
2099.00, 
2100.00, 
2101.00, 
2102.00, 
2103.00, 
2104.00, 
2105.00, 
2106.00, 
2107.00, 
2108.00, 
2109.00, 
2110.00, 
2111.00, 
2112.00, 
2113.00, 
2114.00, 
2115.00, 
2116.00, 
2117.00, 
2118.00, 
2119.00, 
2120.00, 
2121.00, 
2122.00, 
2123.00, 
2124.00, 
2125.00, 
2126.00, 
2127.00, 
2128.00, 
2129.00, 
2130.00, 
2131.00, 
2132.00, 
2133.00, 
2134.00, 
2135.00, 
2136.00, 
2137.00, 
2138.00, 
2139.00, 
2140.00, 
2141.00, 
2142.00, 
2143.00, 
2144.00, 
2145.00, 
2146.00, 
2147.00, 
2148.00, 
2149.00, 
2150.00, 
2151.00, 
2152.00, 
2153.00, 
2154.00, 
2155.00, 
2156.00, 
2157.00, 
2158.00, 
2159.00, 
2160.00, 
2161.00, 
2162.00, 
2163.00, 
2164.00, 
2165.00, 
2166.00, 
2167.00, 
2168.00, 
2169.00, 
2170.00, 
2171.00, 
2172.00, 
2173.00, 
2174.00, 
2175.00, 
2176.00, 
2177.00, 
2178.00, 
2179.00, 
2180.00, 
2181.00, 
2182.00, 
2183.00, 
2184.00, 
2185.00, 
2186.00, 
2187.00, 
2188.00, 
2189.00, 
2190.00, 
2191.00, 
2192.00, 
2193.00, 
2194.00, 
2195.00, 
2196.00, 
2197.00, 
2198.00, 
2199.00, 
2200.00, 
2201.00, 
2202.00, 
2203.00, 
2204.00, 
2205.00, 
2206.00, 
2207.00, 
2208.00, 
2209.00, 
2210.00, 
2211.00, 
2212.00, 
2213.00, 
2214.00, 
2215.00, 
2216.00, 
2217.00, 
2218.00, 
2219.00, 
2220.00, 
2221.00, 
2222.00, 
2223.00, 
2224.00, 
2225.00, 
2226.00, 
2227.00, 
2228.00, 
2229.00, 
2230.00, 
2231.00, 
2232.00, 
2233.00, 
2234.00, 
2235.00, 
2236.00, 
2237.00, 
2238.00, 
2239.00, 
2240.00, 
2241.00, 
2242.00, 
2243.00, 
2244.00, 
2245.00, 
2246.00, 
2247.00, 
2248.00, 
2249.00, 
2250.00, 
2251.00, 
2252.00, 
2253.00, 
2254.00, 
2255.00, 
2256.00, 
2257.00, 
2258.00, 
2259.00, 
2260.00, 
2261.00, 
2262.00, 
2263.00, 
2264.00, 
2265.00, 
2266.00, 
2267.00, 
2268.00, 
2269.00, 
2270.00, 
2271.00, 
2272.00, 
2273.00, 
2274.00, 
2275.00, 
2276.00, 
2277.00, 
2278.00, 
2279.00, 
2280.00, 
2281.00, 
2282.00, 
2283.00, 
2284.00, 
2285.00, 
2286.00, 
2287.00, 
2288.00, 
2289.00, 
2290.00, 
2291.00, 
2292.00, 
2293.00, 
2294.00, 
2295.00, 
2296.00, 
2297.00, 
2298.00, 
2299.00, 
2300.00, 
2301.00, 
2302.00, 
2303.00, 
2304.00, 
2305.00, 
2306.00, 
2307.00, 
2308.00, 
2309.00, 
2310.00, 
2311.00, 
2312.00, 
2313.00, 
2314.00, 
2315.00, 
2316.00, 
2317.00, 
2318.00, 
2319.00, 
2320.00, 
2321.00, 
2322.00, 
2323.00, 
2324.00, 
2325.00, 
2326.00, 
2327.00, 
2328.00, 
2329.00, 
2330.00, 
2331.00, 
2332.00, 
2333.00, 
2334.00, 
2335.00, 
2336.00, 
2337.00, 
2338.00, 
2339.00, 
2340.00, 
2341.00, 
2342.00, 
2343.00, 
2344.00, 
2345.00, 
2346.00, 
2347.00, 
2348.00, 
2349.00, 
2350.00, 
2351.00, 
2352.00, 
2353.00, 
2354.00, 
2355.00, 
2356.00, 
2357.00, 
2358.00, 
2359.00, 
2360.00, 
2361.00, 
2362.00, 
2363.00, 
2364.00, 
2365.00, 
2366.00, 
2367.00, 
2368.00, 
2369.00, 
2370.00, 
2371.00, 
2372.00, 
2373.00, 
2374.00, 
2375.00, 
2376.00, 
2377.00, 
2378.00, 
2379.00, 
2380.00, 
2381.00, 
2382.00, 
2383.00, 
2384.00, 
2385.00, 
2386.00, 
2387.00, 
2388.00, 
2389.00, 
2390.00, 
2391.00, 
2392.00, 
2393.00, 
2394.00, 
2395.00, 
2396.00, 
2397.00, 
2398.00, 
2399.00, 
2400.00, 
2401.00, 
2402.00, 
2403.00, 
2404.00, 
2405.00, 
2406.00, 
2407.00, 
2408.00, 
2409.00, 
2410.00, 
2411.00, 
2412.00, 
2413.00, 
2414.00, 
2415.00, 
2416.00, 
2417.00, 
2418.00, 
2419.00, 
2420.00, 
2421.00, 
2422.00, 
2423.00, 
2424.00, 
2425.00, 
2426.00, 
2427.00, 
2428.00, 
2429.00, 
2430.00, 
2431.00, 
2432.00, 
2433.00, 
2434.00, 
2435.00, 
2436.00, 
2437.00, 
2438.00, 
2439.00, 
2440.00, 
2441.00, 
2442.00, 
2443.00, 
2444.00, 
2445.00, 
2446.00, 
2447.00, 
2448.00, 
2449.00, 
2450.00, 
2451.00, 
2452.00, 
2453.00, 
2454.00, 
2455.00, 
2456.00, 
2457.00, 
2458.00, 
2459.00, 
2460.00, 
2461.00, 
2462.00, 
2463.00, 
2464.00, 
2465.00, 
2466.00, 
2467.00, 
2468.00, 
2469.00, 
2470.00, 
2471.00, 
2472.00, 
2473.00, 
2474.00, 
2475.00, 
2476.00, 
2477.00, 
2478.00, 
2479.00, 
2480.00, 
2481.00, 
2482.00, 
2483.00, 
2484.00, 
2485.00, 
2486.00, 
2487.00, 
2488.00, 
2489.00, 
2490.00, 
2491.00, 
2492.00, 
2493.00, 
2494.00, 
2495.00, 
2496.00, 
2497.00, 
2498.00, 
2499.00, 
2500.00, 
2501.00, 
2502.00, 
2503.00, 
2504.00, 
2505.00, 
2506.00, 
2507.00, 
2508.00, 
2509.00, 
2510.00, 
2511.00, 
2512.00, 
2513.00, 
2514.00, 
2515.00, 
2516.00, 
2517.00, 
2518.00, 
2519.00, 
2520.00, 
2521.00, 
2522.00, 
2523.00, 
2524.00, 
2525.00, 
2526.00, 
2527.00, 
2528.00, 
2529.00, 
2530.00, 
2531.00, 
2532.00, 
2533.00, 
2534.00, 
2535.00, 
2536.00, 
2537.00, 
2538.00, 
2539.00, 
2540.00, 
2541.00, 
2542.00, 
2543.00, 
2544.00, 
2545.00, 
2546.00, 
2547.00, 
2548.00, 
2549.00, 
2550.00, 
2551.00, 
2552.00, 
2553.00, 
2554.00, 
2555.00, 
2556.00, 
2557.00, 
2558.00, 
2559.00, 
2560.00, 
2561.00, 
2562.00, 
2563.00, 
2564.00, 
2565.00, 
2566.00, 
2567.00, 
2568.00, 
2569.00, 
2570.00, 
2571.00, 
2572.00, 
2573.00, 
2574.00, 
2575.00, 
2576.00, 
2577.00, 
2578.00, 
2579.00, 
2580.00, 
2581.00, 
2582.00, 
2583.00, 
2584.00, 
2585.00, 
2586.00, 
2587.00, 
2588.00, 
2589.00, 
2590.00, 
2591.00, 
2592.00, 
2593.00, 
2594.00, 
2595.00, 
2596.00, 
2597.00, 
2598.00, 
2599.00, 
2600.00, 
