"1cP2 - RawData"
"Wavelength nm.","T%"
200.00,0.005
201.00,0.000
202.00,0.003
203.00,0.000
204.00,-0.001
205.00,-0.000
206.00,0.003
207.00,-0.001
208.00,0.000
209.00,0.004
210.00,0.001
211.00,0.002
212.00,-0.002
213.00,0.000
214.00,-0.000
215.00,0.002
216.00,0.002
217.00,0.000
218.00,-0.000
219.00,-0.001
220.00,0.000
221.00,-0.000
222.00,-0.001
223.00,0.001
224.00,0.002
225.00,-0.001
226.00,0.002
227.00,0.003
228.00,-0.001
229.00,0.000
230.00,0.001
231.00,-0.001
232.00,-0.001
233.00,-0.001
234.00,0.001
235.00,0.001
236.00,0.000
237.00,0.001
238.00,0.001
239.00,-0.001
240.00,0.002
241.00,0.001
242.00,-0.000
243.00,0.002
244.00,0.001
245.00,0.001
246.00,0.002
247.00,0.002
248.00,-0.000
249.00,0.000
250.00,0.000
251.00,-0.001
252.00,-0.002
253.00,0.000
254.00,-0.000
255.00,0.002
256.00,-0.001
257.00,-0.000
258.00,0.000
259.00,0.001
260.00,0.001
261.00,0.001
262.00,-0.000
263.00,0.001
264.00,-0.001
265.00,0.001
266.00,-0.001
267.00,0.000
268.00,-0.000
269.00,0.000
270.00,-0.001
271.00,0.002
272.00,-0.000
273.00,-0.001
274.00,-0.002
275.00,0.001
276.00,0.000
277.00,0.001
278.00,0.001
279.00,0.000
280.00,0.001
281.00,-0.000
282.00,-0.001
283.00,0.001
284.00,-0.001
285.00,0.001
286.00,0.000
287.00,-0.002
288.00,0.000
289.00,0.000
290.00,0.001
291.00,-0.001
292.00,0.001
293.00,-0.001
294.00,0.001
295.00,0.001
296.00,-0.001
297.00,0.001
298.00,0.001
299.00,-0.000
300.00,0.002
301.00,0.000
302.00,0.002
303.00,-0.001
304.00,-0.001
305.00,0.002
306.00,0.004
307.00,0.003
308.00,0.008
309.00,0.015
310.00,0.024
311.00,0.035
312.00,0.057
313.00,0.091
314.00,0.138
315.00,0.204
316.00,0.289
317.00,0.416
318.00,0.566
319.00,0.769
320.00,1.016
321.00,1.325
322.00,1.699
323.00,2.141
324.00,2.644
325.00,3.203
326.00,3.816
327.00,4.550
328.00,5.297
329.00,6.137
330.00,7.062
331.00,7.988
332.00,8.978
333.00,10.098
334.00,11.127
335.00,12.266
336.00,13.379
337.00,14.557
338.00,15.710
339.00,16.782
340.00,17.928
341.00,18.983
342.00,20.109
343.00,21.161
344.00,22.242
345.00,23.192
346.00,24.121
347.00,24.947
348.00,25.808
349.00,26.586
350.00,27.359
351.00,28.076
352.00,28.746
353.00,29.375
354.00,30.035
355.00,30.642
356.00,31.143
357.00,31.644
358.00,32.108
359.00,32.674
360.00,33.145
361.00,33.403
362.00,33.769
363.00,34.108
364.00,34.388
365.00,34.608
366.00,34.833
367.00,35.039
368.00,35.199
369.00,35.328
370.00,35.539
371.00,35.551
372.00,35.686
373.00,35.690
374.00,35.784
375.00,35.790
376.00,35.667
377.00,35.613
378.00,35.510
379.00,35.390
380.00,35.468
381.00,35.454
382.00,35.470
383.00,35.590
384.00,35.687
385.00,35.874
386.00,35.945
387.00,36.176
388.00,36.394
389.00,36.415
390.00,36.566
391.00,36.676
392.00,36.741
393.00,36.852
394.00,36.951
395.00,37.103
396.00,36.965
397.00,37.083
398.00,37.045
399.00,37.199
400.00,37.196
401.00,37.243
402.00,37.242
403.00,37.259
404.00,37.287
405.00,37.230
406.00,37.242
407.00,37.166
408.00,37.175
409.00,37.096
410.00,37.009
411.00,37.008
412.00,36.874
413.00,36.917
414.00,36.859
415.00,36.901
416.00,36.961
417.00,36.874
418.00,36.896
419.00,36.986
420.00,37.062
421.00,37.047
422.00,37.014
423.00,37.100
424.00,37.226
425.00,37.094
426.00,37.094
427.00,37.147
428.00,37.139
429.00,37.181
430.00,37.212
431.00,37.300
432.00,37.246
433.00,37.302
434.00,37.339
435.00,37.387
436.00,37.440
437.00,37.454
438.00,37.499
439.00,37.543
440.00,37.552
441.00,37.560
442.00,37.576
443.00,37.719
444.00,37.746
445.00,37.822
446.00,37.938
447.00,37.962
448.00,38.042
449.00,38.123
450.00,38.240
451.00,38.216
452.00,38.318
453.00,38.452
454.00,38.471
455.00,38.511
456.00,38.652
457.00,38.732
458.00,38.762
459.00,38.915
460.00,39.010
461.00,39.123
462.00,39.114
463.00,39.271
464.00,39.401
465.00,39.446
466.00,39.515
467.00,39.655
468.00,39.660
469.00,39.733
470.00,39.733
471.00,39.785
472.00,39.858
473.00,39.892
474.00,39.981
475.00,40.025
476.00,40.017
477.00,40.145
478.00,40.214
479.00,40.384
480.00,40.462
481.00,40.535
482.00,40.650
483.00,40.749
484.00,40.843
485.00,40.941
486.00,41.079
487.00,41.231
488.00,41.272
489.00,41.405
490.00,41.509
491.00,41.578
492.00,41.829
493.00,41.940
494.00,41.826
495.00,41.903
496.00,42.006
497.00,42.005
498.00,42.133
499.00,42.213
500.00,42.340
501.00,42.401
502.00,42.530
503.00,42.615
504.00,42.567
505.00,42.609
506.00,42.752
507.00,42.832
508.00,42.890
509.00,43.031
510.00,43.105
511.00,43.141
512.00,43.274
513.00,43.372
514.00,43.382
515.00,43.609
516.00,43.653
517.00,43.642
518.00,43.800
519.00,43.801
520.00,43.745
521.00,43.840
522.00,43.889
523.00,43.906
524.00,43.934
525.00,44.106
526.00,44.168
527.00,44.117
528.00,44.178
529.00,44.352
530.00,44.576
531.00,44.613
532.00,44.631
533.00,44.741
534.00,44.763
535.00,44.808
536.00,44.856
537.00,44.847
538.00,44.944
539.00,44.962
540.00,45.015
541.00,44.936
542.00,45.042
543.00,45.117
544.00,45.217
545.00,45.281
546.00,45.305
547.00,45.435
548.00,45.451
549.00,45.498
550.00,45.586
551.00,45.665
552.00,45.711
553.00,45.699
554.00,45.770
555.00,45.757
556.00,45.797
557.00,45.877
558.00,45.963
559.00,45.980
560.00,46.055
561.00,46.051
562.00,46.136
563.00,46.093
564.00,46.203
565.00,46.189
566.00,46.210
567.00,46.203
568.00,46.228
569.00,46.289
570.00,46.294
571.00,46.335
572.00,46.313
573.00,46.273
574.00,46.354
575.00,46.285
576.00,46.267
577.00,46.361
578.00,46.481
579.00,46.524
580.00,46.509
581.00,46.642
582.00,46.687
583.00,46.684
584.00,46.834
585.00,46.897
586.00,46.840
587.00,46.938
588.00,46.916
589.00,46.842
590.00,46.928
591.00,46.955
592.00,46.871
593.00,46.882
594.00,47.033
595.00,47.055
596.00,47.102
597.00,47.146
598.00,47.212
599.00,47.202
600.00,47.196
601.00,47.215
602.00,47.151
603.00,47.163
604.00,47.246
605.00,47.336
606.00,47.307
607.00,47.284
608.00,47.432
609.00,47.497
610.00,47.361
611.00,47.439
612.00,47.267
613.00,47.325
614.00,47.421
615.00,47.483
616.00,47.647
617.00,47.602
618.00,47.481
619.00,47.521
620.00,47.584
621.00,47.632
622.00,47.640
623.00,47.678
624.00,47.710
625.00,47.791
626.00,47.793
627.00,47.697
628.00,47.696
629.00,47.695
630.00,47.801
631.00,47.778
632.00,47.834
633.00,47.903
634.00,48.008
635.00,48.015
636.00,47.948
637.00,48.015
638.00,48.052
639.00,48.077
640.00,48.159
641.00,48.103
642.00,48.118
643.00,48.091
644.00,48.207
645.00,48.238
646.00,48.347
647.00,48.336
648.00,48.324
649.00,48.299
650.00,48.222
651.00,48.403
652.00,48.482
653.00,48.364
654.00,48.352
655.00,48.499
656.00,48.773
657.00,48.490
658.00,48.548
659.00,48.571
660.00,48.552
661.00,48.538
662.00,48.552
663.00,48.622
664.00,48.926
665.00,49.030
666.00,48.597
667.00,48.803
668.00,49.256
669.00,48.965
670.00,49.234
671.00,49.156
672.00,49.056
673.00,49.114
674.00,49.094
675.00,49.105
676.00,49.324
677.00,49.443
678.00,49.020
679.00,49.243
680.00,49.372
681.00,49.390
682.00,49.234
683.00,49.228
684.00,49.306
685.00,49.464
686.00,49.381
687.00,49.351
688.00,49.299
689.00,49.310
690.00,49.510
691.00,49.758
692.00,49.355
693.00,49.361
694.00,49.559
695.00,49.654
696.00,49.556
697.00,49.498
698.00,49.499
699.00,49.788
700.00,49.736
701.00,49.667
702.00,49.748
703.00,49.884
704.00,49.831
705.00,49.602
706.00,49.701
707.00,49.744
708.00,49.509
709.00,49.983
710.00,50.270
711.00,49.640
712.00,49.661
713.00,49.781
714.00,49.882
715.00,49.917
716.00,49.727
717.00,49.908
718.00,49.936
719.00,49.843
720.00,49.868
721.00,54.664
722.00,54.600
723.00,54.623
724.00,54.562
725.00,54.465
726.00,54.481
727.00,54.366
728.00,54.338
729.00,54.331
730.00,54.313
731.00,54.321
732.00,54.190
733.00,54.292
734.00,54.292
735.00,54.152
736.00,54.195
737.00,54.142
738.00,54.141
739.00,54.211
740.00,54.097
741.00,54.167
742.00,54.120
743.00,54.032
744.00,53.995
745.00,53.986
746.00,53.910
747.00,53.767
748.00,53.868
749.00,53.657
750.00,53.729
751.00,53.588
752.00,53.638
753.00,53.585
754.00,53.561
755.00,53.507
756.00,53.509
757.00,53.509
758.00,53.471
759.00,53.405
760.00,53.432
761.00,53.345
762.00,53.359
763.00,53.314
764.00,53.282
765.00,53.309
766.00,53.311
767.00,53.274
768.00,53.210
769.00,53.128
770.00,53.208
771.00,53.115
772.00,53.153
773.00,53.145
774.00,53.111
775.00,53.080
776.00,52.907
777.00,53.064
778.00,52.943
779.00,53.011
780.00,52.908
781.00,52.922
782.00,52.894
783.00,52.757
784.00,52.729
785.00,52.781
786.00,52.769
787.00,52.755
788.00,52.764
789.00,52.666
790.00,52.559
791.00,52.634
792.00,52.564
793.00,52.441
794.00,52.472
795.00,52.460
796.00,52.373
797.00,52.405
798.00,52.380
799.00,52.263
800.00,52.286
801.00,52.303
802.00,52.241
803.00,52.216
804.00,52.125
805.00,52.186
806.00,52.110
807.00,52.065
808.00,52.013
809.00,51.975
810.00,51.988
811.00,51.897
812.00,51.987
813.00,51.841
814.00,51.762
815.00,51.856
816.00,51.811
817.00,51.785
818.00,51.682
819.00,51.690
820.00,51.615
821.00,51.620
822.00,51.711
823.00,51.613
824.00,51.670
825.00,51.484
826.00,51.513
827.00,51.575
828.00,51.568
829.00,51.416
830.00,51.393
831.00,53.801
832.00,53.775
833.00,53.703
834.00,53.699
835.00,53.640
836.00,53.683
837.00,53.608
838.00,53.629
839.00,53.602
840.00,53.514
841.00,53.514
842.00,53.435
843.00,53.451
844.00,53.439
845.00,53.385
846.00,53.371
847.00,53.343
848.00,53.317
849.00,53.223
850.00,53.181
851.00,53.170
852.00,53.167
853.00,53.125
854.00,53.090
855.00,53.016
856.00,53.006
857.00,52.972
858.00,52.930
859.00,52.886
860.00,52.925
861.00,52.925
862.00,52.809
863.00,52.858
864.00,52.795
865.00,52.795
866.00,52.727
867.00,52.742
868.00,52.741
869.00,52.710
870.00,52.729
871.00,52.689
872.00,52.675
873.00,52.645
874.00,52.670
875.00,52.598
876.00,52.613
877.00,52.572
878.00,52.579
879.00,52.542
880.00,52.513
881.00,52.471
882.00,52.518
883.00,52.404
884.00,52.386
885.00,52.388
886.00,52.377
887.00,52.375
888.00,52.325
889.00,52.292
890.00,52.255
891.00,52.357
892.00,52.214
893.00,52.201
894.00,52.210
895.00,52.171
896.00,52.130
897.00,52.083
898.00,52.089
899.00,52.063
900.00,52.045
901.00,52.070
902.00,52.061
903.00,52.008
904.00,51.992
905.00,51.976
906.00,51.956
907.00,51.909
908.00,51.880
909.00,51.854
910.00,51.833
911.00,51.818
912.00,51.804
913.00,51.769
914.00,51.769
915.00,51.722
916.00,51.660
917.00,51.689
918.00,51.661
919.00,51.641
920.00,51.574
921.00,51.590
922.00,51.597
923.00,51.527
924.00,51.498
925.00,51.524
926.00,51.497
927.00,51.440
928.00,51.453
929.00,51.427
930.00,51.313
931.00,51.408
932.00,51.369
933.00,51.360
934.00,51.331
935.00,51.283
936.00,51.275
937.00,51.262
938.00,51.244
939.00,51.241
940.00,51.191
941.00,51.179
942.00,51.164
943.00,51.146
944.00,51.114
945.00,51.105
946.00,51.196
947.00,51.092
948.00,51.054
949.00,51.007
950.00,51.015
951.00,50.974
952.00,50.947
953.00,50.910
954.00,50.878
955.00,50.841
956.00,50.828
957.00,50.785
958.00,50.812
959.00,50.752
960.00,50.734
961.00,50.733
962.00,50.731
963.00,50.664
964.00,50.671
965.00,50.667
966.00,50.665
967.00,50.650
968.00,50.616
969.00,50.675
970.00,50.627
971.00,50.635
972.00,50.590
973.00,50.639
974.00,50.659
975.00,50.604
976.00,50.625
977.00,50.694
978.00,50.643
979.00,50.593
980.00,50.616
981.00,50.623
982.00,50.574
983.00,50.611
984.00,50.571
985.00,50.593
986.00,50.562
987.00,50.562
988.00,50.544
989.00,50.540
990.00,50.510
991.00,50.479
992.00,50.517
993.00,50.452
994.00,50.456
995.00,50.427
996.00,50.439
997.00,50.430
998.00,50.385
999.00,50.418
1000.00,50.375
1001.00,50.365
1002.00,50.363
1003.00,50.344
1004.00,50.326
1005.00,50.293
1006.00,50.315
1007.00,50.272
1008.00,50.293
1009.00,50.254
1010.00,50.264
1011.00,50.263
1012.00,50.217
1013.00,50.233
1014.00,50.193
1015.00,50.193
1016.00,50.161
1017.00,50.152
1018.00,50.145
1019.00,50.119
1020.00,50.108
1021.00,50.089
1022.00,50.097
1023.00,50.043
1024.00,50.062
1025.00,50.026
1026.00,50.000
1027.00,50.000
1028.00,49.984
1029.00,49.976
1030.00,49.931
1031.00,49.927
1032.00,49.903
1033.00,49.901
1034.00,49.864
1035.00,49.849
1036.00,49.797
1037.00,49.793
1038.00,49.811
1039.00,49.748
1040.00,49.762
1041.00,49.733
1042.00,49.701
1043.00,49.685
1044.00,49.739
1045.00,49.697
1046.00,49.692
1047.00,49.703
1048.00,49.720
1049.00,49.734
1050.00,49.744
1051.00,49.794
1052.00,49.770
1053.00,49.775
1054.00,49.782
1055.00,49.807
1056.00,49.803
1057.00,49.805
1058.00,49.794
1059.00,49.780
1060.00,49.800
1061.00,49.773
1062.00,49.772
1063.00,49.782
1064.00,49.757
1065.00,49.760
1066.00,49.758
1067.00,49.742
1068.00,49.776
1069.00,49.713
1070.00,49.710
1071.00,49.707
1072.00,49.715
1073.00,49.684
1074.00,49.678
1075.00,49.668
1076.00,49.665
1077.00,49.656
1078.00,49.637
1079.00,49.645
1080.00,49.644
1081.00,49.634
1082.00,49.621
1083.00,49.616
1084.00,49.617
1085.00,49.617
1086.00,49.596
1087.00,49.598
1088.00,49.579
1089.00,49.575
1090.00,49.570
1091.00,49.576
1092.00,49.561
1093.00,49.547
1094.00,49.513
1095.00,49.512
1096.00,49.511
1097.00,49.481
1098.00,49.501
1099.00,49.521
1100.00,49.467
1101.00,49.476
1102.00,49.458
1103.00,49.457
1104.00,49.439
1105.00,49.416
1106.00,49.410
1107.00,49.410
1108.00,49.376
1109.00,49.390
1110.00,49.377
1111.00,49.351
1112.00,49.355
1113.00,49.354
1114.00,49.341
1115.00,49.335
1116.00,49.322
1117.00,49.321
1118.00,49.322
1119.00,49.308
1120.00,49.320
1121.00,49.320
1122.00,49.292
1123.00,49.294
1124.00,49.299
1125.00,49.277
1126.00,49.289
1127.00,49.291
1128.00,49.251
1129.00,49.248
1130.00,49.229
1131.00,49.253
1132.00,49.250
1133.00,49.234
1134.00,49.224
1135.00,49.208
1136.00,49.199
1137.00,49.225
1138.00,49.206
1139.00,49.215
1140.00,49.199
1141.00,49.179
1142.00,49.181
1143.00,49.207
1144.00,49.162
1145.00,49.170
1146.00,49.164
1147.00,49.164
1148.00,49.173
1149.00,49.175
1150.00,49.169
1151.00,49.183
1152.00,49.154
1153.00,49.157
1154.00,49.145
1155.00,49.140
1156.00,49.141
1157.00,49.162
1158.00,49.135
1159.00,49.163
1160.00,49.162
1161.00,49.165
1162.00,49.163
1163.00,49.151
1164.00,49.178
1165.00,49.159
1166.00,49.145
1167.00,49.147
1168.00,49.162
1169.00,49.134
1170.00,49.149
1171.00,49.122
1172.00,49.127
1173.00,49.118
1174.00,49.142
1175.00,49.156
1176.00,49.140
1177.00,49.116
1178.00,49.137
1179.00,49.146
1180.00,49.137
1181.00,49.166
1182.00,49.137
1183.00,49.130
1184.00,49.125
1185.00,49.120
1186.00,49.120
1187.00,49.130
1188.00,49.128
1189.00,49.138
1190.00,49.127
1191.00,49.120
1192.00,49.155
1193.00,49.127
1194.00,49.142
1195.00,49.123
1196.00,49.128
1197.00,49.134
1198.00,49.125
1199.00,49.113
1200.00,49.125
1201.00,49.135
1202.00,49.112
1203.00,49.129
1204.00,49.110
1205.00,49.146
1206.00,49.121
1207.00,49.118
1208.00,49.134
1209.00,49.133
1210.00,49.118
1211.00,49.129
1212.00,49.144
1213.00,49.103
1214.00,49.131
1215.00,49.109
1216.00,49.115
1217.00,49.131
1218.00,49.114
1219.00,49.148
1220.00,49.131
1221.00,49.136
1222.00,49.133
1223.00,49.151
1224.00,49.143
1225.00,49.128
1226.00,49.132
1227.00,49.128
1228.00,49.156
1229.00,49.136
1230.00,49.185
1231.00,49.165
1232.00,49.185
1233.00,49.200
1234.00,49.190
1235.00,49.197
1236.00,49.221
1237.00,49.200
1238.00,49.192
1239.00,49.206
1240.00,49.178
1241.00,49.197
1242.00,49.199
1243.00,49.206
1244.00,49.192
1245.00,49.220
1246.00,49.230
1247.00,49.219
1248.00,49.220
1249.00,49.235
1250.00,49.258
1251.00,49.224
1252.00,49.247
1253.00,49.251
1254.00,49.265
1255.00,49.268
1256.00,49.240
1257.00,49.245
1258.00,49.286
1259.00,49.263
1260.00,49.294
1261.00,49.310
1262.00,49.279
1263.00,49.296
1264.00,49.306
1265.00,49.304
1266.00,49.304
1267.00,49.325
1268.00,49.313
1269.00,49.329
1270.00,49.331
1271.00,49.339
1272.00,49.353
1273.00,49.349
1274.00,49.368
1275.00,49.378
1276.00,49.346
1277.00,49.360
1278.00,49.354
1279.00,49.359
1280.00,49.351
1281.00,49.387
1282.00,49.404
1283.00,49.392
1284.00,49.407
1285.00,49.413
1286.00,49.424
1287.00,49.405
1288.00,49.427
1289.00,49.392
1290.00,49.423
1291.00,49.417
1292.00,49.402
1293.00,49.431
1294.00,49.454
1295.00,49.455
1296.00,49.494
1297.00,49.472
1298.00,49.503
1299.00,49.479
1300.00,49.493
1301.00,49.479
1302.00,49.513
1303.00,49.505
1304.00,49.509
1305.00,49.533
1306.00,49.514
1307.00,49.550
1308.00,49.555
1309.00,49.553
1310.00,49.551
1311.00,49.547
1312.00,49.556
1313.00,49.589
1314.00,49.602
1315.00,49.622
1316.00,49.623
1317.00,49.645
1318.00,49.655
1319.00,49.655
1320.00,49.646
1321.00,49.847
1322.00,49.824
1323.00,49.795
1324.00,49.791
1325.00,49.784
1326.00,49.798
1327.00,49.799
1328.00,49.795
1329.00,49.796
1330.00,49.819
1331.00,49.811
1332.00,49.827
1333.00,49.830
1334.00,49.852
1335.00,49.863
1336.00,49.905
1337.00,49.923
1338.00,50.004
1339.00,50.022
1340.00,50.093
1341.00,50.154
1342.00,50.193
1343.00,50.257
1344.00,50.296
1345.00,50.346
1346.00,50.415
1347.00,50.431
1348.00,50.439
1349.00,50.479
1350.00,50.485
1351.00,50.507
1352.00,50.509
1353.00,50.503
1354.00,50.540
1355.00,50.483
1356.00,50.562
1357.00,50.560
1358.00,50.561
1359.00,50.554
1360.00,50.622
1361.00,50.632
1362.00,50.520
1363.00,50.676
1364.00,50.630
1365.00,50.575
1366.00,50.638
1367.00,50.578
1368.00,50.544
1369.00,50.593
1370.00,50.572
1371.00,50.501
1372.00,50.543
1373.00,50.573
1374.00,50.586
1375.00,50.570
1376.00,50.594
1377.00,50.454
1378.00,50.665
1379.00,50.637
1380.00,50.633
1381.00,50.622
1382.00,50.547
1383.00,50.618
1384.00,50.580
1385.00,50.589
1386.00,50.625
1387.00,50.550
1388.00,50.527
1389.00,50.572
1390.00,50.687
1391.00,50.575
1392.00,50.553
1393.00,50.660
1394.00,50.577
1395.00,50.558
1396.00,50.512
1397.00,50.574
1398.00,50.607
1399.00,50.627
1400.00,50.349
1401.00,50.568
1402.00,50.646
1403.00,50.611
1404.00,50.618
1405.00,50.652
1406.00,50.669
1407.00,50.700
1408.00,50.605
1409.00,50.629
1410.00,50.663
1411.00,50.619
1412.00,50.714
1413.00,50.660
1414.00,50.620
1415.00,50.685
1416.00,50.720
1417.00,50.730
1418.00,50.706
1419.00,50.730
1420.00,50.759
1421.00,50.847
1422.00,50.790
1423.00,50.829
1424.00,50.820
1425.00,50.833
1426.00,50.850
1427.00,50.872
1428.00,50.866
1429.00,50.893
1430.00,50.900
1431.00,50.926
1432.00,50.939
1433.00,50.933
1434.00,50.964
1435.00,51.006
1436.00,51.004
1437.00,51.011
1438.00,51.019
1439.00,51.051
1440.00,51.068
1441.00,51.059
1442.00,51.097
1443.00,51.133
1444.00,51.180
1445.00,51.125
1446.00,51.186
1447.00,51.205
1448.00,51.264
1449.00,51.247
1450.00,51.246
1451.00,51.262
1452.00,51.273
1453.00,51.289
1454.00,51.320
1455.00,51.333
1456.00,51.371
1457.00,51.362
1458.00,51.385
1459.00,51.418
1460.00,51.442
1461.00,51.441
1462.00,51.474
1463.00,51.470
1464.00,51.501
1465.00,51.519
1466.00,51.509
1467.00,51.544
1468.00,51.607
1469.00,51.546
1470.00,51.587
1471.00,51.587
1472.00,51.591
1473.00,51.610
1474.00,51.638
1475.00,51.664
1476.00,51.676
1477.00,51.646
1478.00,51.693
1479.00,51.715
1480.00,51.697
1481.00,51.715
1482.00,51.744
1483.00,51.763
1484.00,51.781
1485.00,51.772
1486.00,51.810
1487.00,51.817
1488.00,51.840
1489.00,51.850
1490.00,51.879
1491.00,51.867
1492.00,51.913
1493.00,51.903
1494.00,51.948
1495.00,51.937
1496.00,51.945
1497.00,51.930
1498.00,51.954
1499.00,51.952
1500.00,51.982
1501.00, 
1502.00, 
1503.00, 
1504.00, 
1505.00, 
1506.00, 
1507.00, 
1508.00, 
1509.00, 
1510.00, 
1511.00, 
1512.00, 
1513.00, 
1514.00, 
1515.00, 
1516.00, 
1517.00, 
1518.00, 
1519.00, 
1520.00, 
1521.00, 
1522.00, 
1523.00, 
1524.00, 
1525.00, 
1526.00, 
1527.00, 
1528.00, 
1529.00, 
1530.00, 
1531.00, 
1532.00, 
1533.00, 
1534.00, 
1535.00, 
1536.00, 
1537.00, 
1538.00, 
1539.00, 
1540.00, 
1541.00, 
1542.00, 
1543.00, 
1544.00, 
1545.00, 
1546.00, 
1547.00, 
1548.00, 
1549.00, 
1550.00, 
1551.00, 
1552.00, 
1553.00, 
1554.00, 
1555.00, 
1556.00, 
1557.00, 
1558.00, 
1559.00, 
1560.00, 
1561.00, 
1562.00, 
1563.00, 
1564.00, 
1565.00, 
1566.00, 
1567.00, 
1568.00, 
1569.00, 
1570.00, 
1571.00, 
1572.00, 
1573.00, 
1574.00, 
1575.00, 
1576.00, 
1577.00, 
1578.00, 
1579.00, 
1580.00, 
1581.00, 
1582.00, 
1583.00, 
1584.00, 
1585.00, 
1586.00, 
1587.00, 
1588.00, 
1589.00, 
1590.00, 
1591.00, 
1592.00, 
1593.00, 
1594.00, 
1595.00, 
1596.00, 
1597.00, 
1598.00, 
1599.00, 
1600.00, 
1601.00, 
1602.00, 
1603.00, 
1604.00, 
1605.00, 
1606.00, 
1607.00, 
1608.00, 
1609.00, 
1610.00, 
1611.00, 
1612.00, 
1613.00, 
1614.00, 
1615.00, 
1616.00, 
1617.00, 
1618.00, 
1619.00, 
1620.00, 
1621.00, 
1622.00, 
1623.00, 
1624.00, 
1625.00, 
1626.00, 
1627.00, 
1628.00, 
1629.00, 
1630.00, 
1631.00, 
1632.00, 
1633.00, 
1634.00, 
1635.00, 
1636.00, 
1637.00, 
1638.00, 
1639.00, 
1640.00, 
1641.00, 
1642.00, 
1643.00, 
1644.00, 
1645.00, 
1646.00, 
1647.00, 
1648.00, 
1649.00, 
1650.00, 
1651.00, 
1652.00, 
1653.00, 
1654.00, 
1655.00, 
1656.00, 
1657.00, 
1658.00, 
1659.00, 
1660.00, 
1661.00, 
1662.00, 
1663.00, 
1664.00, 
1665.00, 
1666.00, 
1667.00, 
1668.00, 
1669.00, 
1670.00, 
1671.00, 
1672.00, 
1673.00, 
1674.00, 
1675.00, 
1676.00, 
1677.00, 
1678.00, 
1679.00, 
1680.00, 
1681.00, 
1682.00, 
1683.00, 
1684.00, 
1685.00, 
1686.00, 
1687.00, 
1688.00, 
1689.00, 
1690.00, 
1691.00, 
1692.00, 
1693.00, 
1694.00, 
1695.00, 
1696.00, 
1697.00, 
1698.00, 
1699.00, 
1700.00, 
1701.00, 
1702.00, 
1703.00, 
1704.00, 
1705.00, 
1706.00, 
1707.00, 
1708.00, 
1709.00, 
1710.00, 
1711.00, 
1712.00, 
1713.00, 
1714.00, 
1715.00, 
1716.00, 
1717.00, 
1718.00, 
1719.00, 
1720.00, 
1721.00, 
1722.00, 
1723.00, 
1724.00, 
1725.00, 
1726.00, 
1727.00, 
1728.00, 
1729.00, 
1730.00, 
1731.00, 
1732.00, 
1733.00, 
1734.00, 
1735.00, 
1736.00, 
1737.00, 
1738.00, 
1739.00, 
1740.00, 
1741.00, 
1742.00, 
1743.00, 
1744.00, 
1745.00, 
1746.00, 
1747.00, 
1748.00, 
1749.00, 
1750.00, 
1751.00, 
1752.00, 
1753.00, 
1754.00, 
1755.00, 
1756.00, 
1757.00, 
1758.00, 
1759.00, 
1760.00, 
1761.00, 
1762.00, 
1763.00, 
1764.00, 
1765.00, 
1766.00, 
1767.00, 
1768.00, 
1769.00, 
1770.00, 
1771.00, 
1772.00, 
1773.00, 
1774.00, 
1775.00, 
1776.00, 
1777.00, 
1778.00, 
1779.00, 
1780.00, 
1781.00, 
1782.00, 
1783.00, 
1784.00, 
1785.00, 
1786.00, 
1787.00, 
1788.00, 
1789.00, 
1790.00, 
1791.00, 
1792.00, 
1793.00, 
1794.00, 
1795.00, 
1796.00, 
1797.00, 
1798.00, 
1799.00, 
1800.00, 
1801.00, 
1802.00, 
1803.00, 
1804.00, 
1805.00, 
1806.00, 
1807.00, 
1808.00, 
1809.00, 
1810.00, 
1811.00, 
1812.00, 
1813.00, 
1814.00, 
1815.00, 
1816.00, 
1817.00, 
1818.00, 
1819.00, 
1820.00, 
1821.00, 
1822.00, 
1823.00, 
1824.00, 
1825.00, 
1826.00, 
1827.00, 
1828.00, 
1829.00, 
1830.00, 
1831.00, 
1832.00, 
1833.00, 
1834.00, 
1835.00, 
1836.00, 
1837.00, 
1838.00, 
1839.00, 
1840.00, 
1841.00, 
1842.00, 
1843.00, 
1844.00, 
1845.00, 
1846.00, 
1847.00, 
1848.00, 
1849.00, 
1850.00, 
1851.00, 
1852.00, 
1853.00, 
1854.00, 
1855.00, 
1856.00, 
1857.00, 
1858.00, 
1859.00, 
1860.00, 
1861.00, 
1862.00, 
1863.00, 
1864.00, 
1865.00, 
1866.00, 
1867.00, 
1868.00, 
1869.00, 
1870.00, 
1871.00, 
1872.00, 
1873.00, 
1874.00, 
1875.00, 
1876.00, 
1877.00, 
1878.00, 
1879.00, 
1880.00, 
1881.00, 
1882.00, 
1883.00, 
1884.00, 
1885.00, 
1886.00, 
1887.00, 
1888.00, 
1889.00, 
1890.00, 
1891.00, 
1892.00, 
1893.00, 
1894.00, 
1895.00, 
1896.00, 
1897.00, 
1898.00, 
1899.00, 
1900.00, 
1901.00, 
1902.00, 
1903.00, 
1904.00, 
1905.00, 
1906.00, 
1907.00, 
1908.00, 
1909.00, 
1910.00, 
1911.00, 
1912.00, 
1913.00, 
1914.00, 
1915.00, 
1916.00, 
1917.00, 
1918.00, 
1919.00, 
1920.00, 
1921.00, 
1922.00, 
1923.00, 
1924.00, 
1925.00, 
1926.00, 
1927.00, 
1928.00, 
1929.00, 
1930.00, 
1931.00, 
1932.00, 
1933.00, 
1934.00, 
1935.00, 
1936.00, 
1937.00, 
1938.00, 
1939.00, 
1940.00, 
1941.00, 
1942.00, 
1943.00, 
1944.00, 
1945.00, 
1946.00, 
1947.00, 
1948.00, 
1949.00, 
1950.00, 
1951.00, 
1952.00, 
1953.00, 
1954.00, 
1955.00, 
1956.00, 
1957.00, 
1958.00, 
1959.00, 
1960.00, 
1961.00, 
1962.00, 
1963.00, 
1964.00, 
1965.00, 
1966.00, 
1967.00, 
1968.00, 
1969.00, 
1970.00, 
1971.00, 
1972.00, 
1973.00, 
1974.00, 
1975.00, 
1976.00, 
1977.00, 
1978.00, 
1979.00, 
1980.00, 
1981.00, 
1982.00, 
1983.00, 
1984.00, 
1985.00, 
1986.00, 
1987.00, 
1988.00, 
1989.00, 
1990.00, 
1991.00, 
1992.00, 
1993.00, 
1994.00, 
1995.00, 
1996.00, 
1997.00, 
1998.00, 
1999.00, 
2000.00, 
2001.00, 
2002.00, 
2003.00, 
2004.00, 
2005.00, 
2006.00, 
2007.00, 
2008.00, 
2009.00, 
2010.00, 
2011.00, 
2012.00, 
2013.00, 
2014.00, 
2015.00, 
2016.00, 
2017.00, 
2018.00, 
2019.00, 
2020.00, 
2021.00, 
2022.00, 
2023.00, 
2024.00, 
2025.00, 
2026.00, 
2027.00, 
2028.00, 
2029.00, 
2030.00, 
2031.00, 
2032.00, 
2033.00, 
2034.00, 
2035.00, 
2036.00, 
2037.00, 
2038.00, 
2039.00, 
2040.00, 
2041.00, 
2042.00, 
2043.00, 
2044.00, 
2045.00, 
2046.00, 
2047.00, 
2048.00, 
2049.00, 
2050.00, 
2051.00, 
2052.00, 
2053.00, 
2054.00, 
2055.00, 
2056.00, 
2057.00, 
2058.00, 
2059.00, 
2060.00, 
2061.00, 
2062.00, 
2063.00, 
2064.00, 
2065.00, 
2066.00, 
2067.00, 
2068.00, 
2069.00, 
2070.00, 
2071.00, 
2072.00, 
2073.00, 
2074.00, 
2075.00, 
2076.00, 
2077.00, 
2078.00, 
2079.00, 
2080.00, 
2081.00, 
2082.00, 
2083.00, 
2084.00, 
2085.00, 
2086.00, 
2087.00, 
2088.00, 
2089.00, 
2090.00, 
2091.00, 
2092.00, 
2093.00, 
2094.00, 
2095.00, 
2096.00, 
2097.00, 
2098.00, 
2099.00, 
2100.00, 
2101.00, 
2102.00, 
2103.00, 
2104.00, 
2105.00, 
2106.00, 
2107.00, 
2108.00, 
2109.00, 
2110.00, 
2111.00, 
2112.00, 
2113.00, 
2114.00, 
2115.00, 
2116.00, 
2117.00, 
2118.00, 
2119.00, 
2120.00, 
2121.00, 
2122.00, 
2123.00, 
2124.00, 
2125.00, 
2126.00, 
2127.00, 
2128.00, 
2129.00, 
2130.00, 
2131.00, 
2132.00, 
2133.00, 
2134.00, 
2135.00, 
2136.00, 
2137.00, 
2138.00, 
2139.00, 
2140.00, 
2141.00, 
2142.00, 
2143.00, 
2144.00, 
2145.00, 
2146.00, 
2147.00, 
2148.00, 
2149.00, 
2150.00, 
2151.00, 
2152.00, 
2153.00, 
2154.00, 
2155.00, 
2156.00, 
2157.00, 
2158.00, 
2159.00, 
2160.00, 
2161.00, 
2162.00, 
2163.00, 
2164.00, 
2165.00, 
2166.00, 
2167.00, 
2168.00, 
2169.00, 
2170.00, 
2171.00, 
2172.00, 
2173.00, 
2174.00, 
2175.00, 
2176.00, 
2177.00, 
2178.00, 
2179.00, 
2180.00, 
2181.00, 
2182.00, 
2183.00, 
2184.00, 
2185.00, 
2186.00, 
2187.00, 
2188.00, 
2189.00, 
2190.00, 
2191.00, 
2192.00, 
2193.00, 
2194.00, 
2195.00, 
2196.00, 
2197.00, 
2198.00, 
2199.00, 
2200.00, 
2201.00, 
2202.00, 
2203.00, 
2204.00, 
2205.00, 
2206.00, 
2207.00, 
2208.00, 
2209.00, 
2210.00, 
2211.00, 
2212.00, 
2213.00, 
2214.00, 
2215.00, 
2216.00, 
2217.00, 
2218.00, 
2219.00, 
2220.00, 
2221.00, 
2222.00, 
2223.00, 
2224.00, 
2225.00, 
2226.00, 
2227.00, 
2228.00, 
2229.00, 
2230.00, 
2231.00, 
2232.00, 
2233.00, 
2234.00, 
2235.00, 
2236.00, 
2237.00, 
2238.00, 
2239.00, 
2240.00, 
2241.00, 
2242.00, 
2243.00, 
2244.00, 
2245.00, 
2246.00, 
2247.00, 
2248.00, 
2249.00, 
2250.00, 
2251.00, 
2252.00, 
2253.00, 
2254.00, 
2255.00, 
2256.00, 
2257.00, 
2258.00, 
2259.00, 
2260.00, 
2261.00, 
2262.00, 
2263.00, 
2264.00, 
2265.00, 
2266.00, 
2267.00, 
2268.00, 
2269.00, 
2270.00, 
2271.00, 
2272.00, 
2273.00, 
2274.00, 
2275.00, 
2276.00, 
2277.00, 
2278.00, 
2279.00, 
2280.00, 
2281.00, 
2282.00, 
2283.00, 
2284.00, 
2285.00, 
2286.00, 
2287.00, 
2288.00, 
2289.00, 
2290.00, 
2291.00, 
2292.00, 
2293.00, 
2294.00, 
2295.00, 
2296.00, 
2297.00, 
2298.00, 
2299.00, 
2300.00, 
2301.00, 
2302.00, 
2303.00, 
2304.00, 
2305.00, 
2306.00, 
2307.00, 
2308.00, 
2309.00, 
2310.00, 
2311.00, 
2312.00, 
2313.00, 
2314.00, 
2315.00, 
2316.00, 
2317.00, 
2318.00, 
2319.00, 
2320.00, 
2321.00, 
2322.00, 
2323.00, 
2324.00, 
2325.00, 
2326.00, 
2327.00, 
2328.00, 
2329.00, 
2330.00, 
2331.00, 
2332.00, 
2333.00, 
2334.00, 
2335.00, 
2336.00, 
2337.00, 
2338.00, 
2339.00, 
2340.00, 
2341.00, 
2342.00, 
2343.00, 
2344.00, 
2345.00, 
2346.00, 
2347.00, 
2348.00, 
2349.00, 
2350.00, 
2351.00, 
2352.00, 
2353.00, 
2354.00, 
2355.00, 
2356.00, 
2357.00, 
2358.00, 
2359.00, 
2360.00, 
2361.00, 
2362.00, 
2363.00, 
2364.00, 
2365.00, 
2366.00, 
2367.00, 
2368.00, 
2369.00, 
2370.00, 
2371.00, 
2372.00, 
2373.00, 
2374.00, 
2375.00, 
2376.00, 
2377.00, 
2378.00, 
2379.00, 
2380.00, 
2381.00, 
2382.00, 
2383.00, 
2384.00, 
2385.00, 
2386.00, 
2387.00, 
2388.00, 
2389.00, 
2390.00, 
2391.00, 
2392.00, 
2393.00, 
2394.00, 
2395.00, 
2396.00, 
2397.00, 
2398.00, 
2399.00, 
2400.00, 
2401.00, 
2402.00, 
2403.00, 
2404.00, 
2405.00, 
2406.00, 
2407.00, 
2408.00, 
2409.00, 
2410.00, 
2411.00, 
2412.00, 
2413.00, 
2414.00, 
2415.00, 
2416.00, 
2417.00, 
2418.00, 
2419.00, 
2420.00, 
2421.00, 
2422.00, 
2423.00, 
2424.00, 
2425.00, 
2426.00, 
2427.00, 
2428.00, 
2429.00, 
2430.00, 
2431.00, 
2432.00, 
2433.00, 
2434.00, 
2435.00, 
2436.00, 
2437.00, 
2438.00, 
2439.00, 
2440.00, 
2441.00, 
2442.00, 
2443.00, 
2444.00, 
2445.00, 
2446.00, 
2447.00, 
2448.00, 
2449.00, 
2450.00, 
2451.00, 
2452.00, 
2453.00, 
2454.00, 
2455.00, 
2456.00, 
2457.00, 
2458.00, 
2459.00, 
2460.00, 
2461.00, 
2462.00, 
2463.00, 
2464.00, 
2465.00, 
2466.00, 
2467.00, 
2468.00, 
2469.00, 
2470.00, 
2471.00, 
2472.00, 
2473.00, 
2474.00, 
2475.00, 
2476.00, 
2477.00, 
2478.00, 
2479.00, 
2480.00, 
2481.00, 
2482.00, 
2483.00, 
2484.00, 
2485.00, 
2486.00, 
2487.00, 
2488.00, 
2489.00, 
2490.00, 
2491.00, 
2492.00, 
2493.00, 
2494.00, 
2495.00, 
2496.00, 
2497.00, 
2498.00, 
2499.00, 
2500.00, 
2501.00, 
2502.00, 
2503.00, 
2504.00, 
2505.00, 
2506.00, 
2507.00, 
2508.00, 
2509.00, 
2510.00, 
2511.00, 
2512.00, 
2513.00, 
2514.00, 
2515.00, 
2516.00, 
2517.00, 
2518.00, 
2519.00, 
2520.00, 
2521.00, 
2522.00, 
2523.00, 
2524.00, 
2525.00, 
2526.00, 
2527.00, 
2528.00, 
2529.00, 
2530.00, 
2531.00, 
2532.00, 
2533.00, 
2534.00, 
2535.00, 
2536.00, 
2537.00, 
2538.00, 
2539.00, 
2540.00, 
2541.00, 
2542.00, 
2543.00, 
2544.00, 
2545.00, 
2546.00, 
2547.00, 
2548.00, 
2549.00, 
2550.00, 
2551.00, 
2552.00, 
2553.00, 
2554.00, 
2555.00, 
2556.00, 
2557.00, 
2558.00, 
2559.00, 
2560.00, 
2561.00, 
2562.00, 
2563.00, 
2564.00, 
2565.00, 
2566.00, 
2567.00, 
2568.00, 
2569.00, 
2570.00, 
2571.00, 
2572.00, 
2573.00, 
2574.00, 
2575.00, 
2576.00, 
2577.00, 
2578.00, 
2579.00, 
2580.00, 
2581.00, 
2582.00, 
2583.00, 
2584.00, 
2585.00, 
2586.00, 
2587.00, 
2588.00, 
2589.00, 
2590.00, 
2591.00, 
2592.00, 
2593.00, 
2594.00, 
2595.00, 
2596.00, 
2597.00, 
2598.00, 
2599.00, 
2600.00, 
