"2bP2 - RawData"
"Wavelength nm.","T%"
200.00,0.003
201.00,0.002
202.00,-0.000
203.00,0.000
204.00,0.003
205.00,0.000
206.00,0.003
207.00,0.003
208.00,0.002
209.00,0.001
210.00,0.001
211.00,0.001
212.00,0.001
213.00,0.003
214.00,-0.001
215.00,0.002
216.00,0.003
217.00,0.003
218.00,0.003
219.00,0.002
220.00,0.000
221.00,-0.002
222.00,-0.000
223.00,-0.001
224.00,0.002
225.00,-0.000
226.00,-0.000
227.00,-0.001
228.00,0.001
229.00,-0.000
230.00,0.001
231.00,0.002
232.00,0.002
233.00,-0.000
234.00,0.002
235.00,-0.000
236.00,0.003
237.00,0.001
238.00,-0.001
239.00,-0.001
240.00,0.001
241.00,0.001
242.00,0.000
243.00,0.000
244.00,0.000
245.00,-0.002
246.00,-0.001
247.00,0.001
248.00,0.001
249.00,0.000
250.00,0.001
251.00,-0.000
252.00,0.001
253.00,0.001
254.00,-0.000
255.00,-0.000
256.00,0.001
257.00,-0.001
258.00,0.001
259.00,-0.000
260.00,-0.000
261.00,0.001
262.00,0.001
263.00,0.001
264.00,-0.000
265.00,-0.002
266.00,0.000
267.00,0.001
268.00,-0.001
269.00,0.000
270.00,0.000
271.00,0.001
272.00,0.002
273.00,0.001
274.00,-0.001
275.00,-0.002
276.00,0.000
277.00,0.001
278.00,0.000
279.00,0.000
280.00,-0.001
281.00,0.002
282.00,0.000
283.00,0.001
284.00,-0.001
285.00,-0.000
286.00,0.001
287.00,-0.002
288.00,0.000
289.00,0.001
290.00,0.001
291.00,-0.001
292.00,-0.001
293.00,-0.001
294.00,0.001
295.00,0.001
296.00,-0.001
297.00,-0.000
298.00,0.001
299.00,0.002
300.00,0.002
301.00,0.003
302.00,0.006
303.00,0.007
304.00,0.013
305.00,0.018
306.00,0.030
307.00,0.043
308.00,0.066
309.00,0.103
310.00,0.143
311.00,0.193
312.00,0.267
313.00,0.349
314.00,0.459
315.00,0.602
316.00,0.754
317.00,0.951
318.00,1.157
319.00,1.410
320.00,1.713
321.00,2.041
322.00,2.420
323.00,2.746
324.00,3.255
325.00,3.693
326.00,4.156
327.00,4.655
328.00,5.171
329.00,5.701
330.00,6.285
331.00,6.861
332.00,7.435
333.00,8.027
334.00,8.577
335.00,9.152
336.00,9.735
337.00,10.294
338.00,10.873
339.00,11.410
340.00,11.954
341.00,12.472
342.00,12.932
343.00,13.389
344.00,13.891
345.00,14.301
346.00,14.677
347.00,15.009
348.00,15.339
349.00,15.684
350.00,16.025
351.00,16.313
352.00,16.552
353.00,16.799
354.00,17.036
355.00,17.264
356.00,17.476
357.00,17.647
358.00,17.860
359.00,18.036
360.00,18.215
361.00,18.280
362.00,18.386
363.00,18.557
364.00,18.574
365.00,18.653
366.00,18.728
367.00,18.801
368.00,18.770
369.00,18.832
370.00,18.860
371.00,18.879
372.00,18.887
373.00,18.839
374.00,18.856
375.00,18.822
376.00,18.781
377.00,18.717
378.00,18.654
379.00,18.594
380.00,18.573
381.00,18.530
382.00,18.511
383.00,18.530
384.00,18.525
385.00,18.510
386.00,18.528
387.00,18.530
388.00,18.554
389.00,18.515
390.00,18.565
391.00,18.596
392.00,18.577
393.00,18.549
394.00,18.576
395.00,18.614
396.00,18.572
397.00,18.560
398.00,18.531
399.00,18.524
400.00,18.542
401.00,18.503
402.00,18.506
403.00,18.495
404.00,18.489
405.00,18.466
406.00,18.451
407.00,18.417
408.00,18.413
409.00,18.358
410.00,18.314
411.00,18.318
412.00,18.306
413.00,18.293
414.00,18.269
415.00,18.306
416.00,18.347
417.00,18.334
418.00,18.363
419.00,18.394
420.00,18.449
421.00,18.500
422.00,18.473
423.00,18.540
424.00,18.602
425.00,18.575
426.00,18.604
427.00,18.658
428.00,18.693
429.00,18.726
430.00,18.783
431.00,18.848
432.00,18.880
433.00,18.909
434.00,18.983
435.00,19.074
436.00,19.111
437.00,19.195
438.00,19.238
439.00,19.315
440.00,19.417
441.00,19.471
442.00,19.548
443.00,19.647
444.00,19.724
445.00,19.812
446.00,19.912
447.00,19.988
448.00,20.083
449.00,20.186
450.00,20.282
451.00,20.358
452.00,20.471
453.00,20.598
454.00,20.707
455.00,20.775
456.00,20.912
457.00,21.034
458.00,21.112
459.00,21.308
460.00,21.389
461.00,21.540
462.00,21.655
463.00,21.783
464.00,21.921
465.00,22.069
466.00,22.182
467.00,22.320
468.00,22.443
469.00,22.536
470.00,22.634
471.00,22.741
472.00,22.876
473.00,22.970
474.00,23.105
475.00,23.246
476.00,23.317
477.00,23.460
478.00,23.577
479.00,23.782
480.00,23.906
481.00,24.051
482.00,24.216
483.00,24.353
484.00,24.539
485.00,24.681
486.00,24.831
487.00,25.010
488.00,25.139
489.00,25.331
490.00,25.456
491.00,25.594
492.00,25.846
493.00,25.981
494.00,25.994
495.00,26.170
496.00,26.271
497.00,26.373
498.00,26.563
499.00,26.651
500.00,26.868
501.00,27.011
502.00,27.085
503.00,27.204
504.00,27.283
505.00,27.418
506.00,27.647
507.00,27.728
508.00,27.861
509.00,28.015
510.00,28.159
511.00,28.256
512.00,28.406
513.00,28.557
514.00,28.664
515.00,28.841
516.00,28.951
517.00,29.019
518.00,29.189
519.00,29.228
520.00,29.299
521.00,29.457
522.00,29.539
523.00,29.602
524.00,29.726
525.00,29.833
526.00,29.961
527.00,30.060
528.00,30.091
529.00,30.272
530.00,30.432
531.00,30.533
532.00,30.587
533.00,30.725
534.00,30.857
535.00,30.923
536.00,30.989
537.00,31.105
538.00,31.163
539.00,31.210
540.00,31.322
541.00,31.371
542.00,31.405
543.00,31.493
544.00,31.609
545.00,31.691
546.00,31.740
547.00,31.895
548.00,31.972
549.00,32.008
550.00,32.084
551.00,32.212
552.00,32.280
553.00,32.288
554.00,32.402
555.00,32.417
556.00,32.486
557.00,32.590
558.00,32.612
559.00,32.727
560.00,32.791
561.00,32.770
562.00,32.830
563.00,32.964
564.00,32.965
565.00,33.050
566.00,33.060
567.00,33.095
568.00,33.146
569.00,33.177
570.00,33.268
571.00,33.300
572.00,33.365
573.00,33.349
574.00,33.442
575.00,33.426
576.00,33.422
577.00,33.509
578.00,33.609
579.00,33.701
580.00,33.753
581.00,33.878
582.00,33.969
583.00,33.965
584.00,34.062
585.00,34.144
586.00,34.163
587.00,34.266
588.00,34.250
589.00,34.218
590.00,34.364
591.00,34.396
592.00,34.370
593.00,34.411
594.00,34.551
595.00,34.627
596.00,34.672
597.00,34.706
598.00,34.809
599.00,34.827
600.00,34.863
601.00,34.920
602.00,34.905
603.00,34.970
604.00,35.048
605.00,35.141
606.00,35.153
607.00,35.205
608.00,35.361
609.00,35.465
610.00,35.341
611.00,35.403
612.00,35.349
613.00,35.486
614.00,35.548
615.00,35.603
616.00,35.767
617.00,35.785
618.00,35.691
619.00,35.741
620.00,35.915
621.00,36.131
622.00,36.095
623.00,36.173
624.00,36.223
625.00,36.319
626.00,36.376
627.00,36.363
628.00,36.440
629.00,36.470
630.00,36.535
631.00,36.662
632.00,36.774
633.00,36.838
634.00,36.938
635.00,37.054
636.00,37.090
637.00,37.170
638.00,37.266
639.00,37.333
640.00,37.473
641.00,37.527
642.00,37.594
643.00,37.667
644.00,37.780
645.00,37.823
646.00,37.993
647.00,38.093
648.00,38.120
649.00,38.188
650.00,38.222
651.00,38.422
652.00,38.572
653.00,38.558
654.00,38.616
655.00,38.826
656.00,39.130
657.00,38.962
658.00,39.109
659.00,39.185
660.00,39.238
661.00,39.331
662.00,39.461
663.00,39.621
664.00,39.874
665.00,40.036
666.00,40.004
667.00,40.059
668.00,40.203
669.00,40.420
670.00,40.620
671.00,40.609
672.00,40.696
673.00,40.794
674.00,40.873
675.00,40.929
676.00,41.158
677.00,41.384
678.00,41.164
679.00,41.437
680.00,41.605
681.00,41.704
682.00,41.746
683.00,41.807
684.00,41.939
685.00,42.115
686.00,42.211
687.00,42.326
688.00,42.384
689.00,42.425
690.00,42.622
691.00,42.980
692.00,42.691
693.00,42.812
694.00,43.055
695.00,43.163
696.00,43.239
697.00,43.278
698.00,43.325
699.00,43.647
700.00,43.807
701.00,43.783
702.00,43.951
703.00,44.183
704.00,44.195
705.00,44.143
706.00,44.321
707.00,44.427
708.00,44.265
709.00,44.743
710.00,45.049
711.00,44.606
712.00,44.843
713.00,44.840
714.00,45.055
715.00,45.228
716.00,45.114
717.00,45.165
718.00,45.495
719.00,45.573
720.00,45.592
721.00,49.977
722.00,50.064
723.00,50.024
724.00,50.095
725.00,50.228
726.00,50.205
727.00,50.202
728.00,50.250
729.00,50.348
730.00,50.415
731.00,50.464
732.00,50.481
733.00,50.652
734.00,50.638
735.00,50.638
736.00,50.730
737.00,50.751
738.00,50.909
739.00,50.945
740.00,51.013
741.00,51.015
742.00,51.067
743.00,51.133
744.00,51.055
745.00,51.130
746.00,51.163
747.00,51.099
748.00,51.218
749.00,51.201
750.00,51.189
751.00,51.204
752.00,51.232
753.00,51.349
754.00,51.371
755.00,51.390
756.00,51.388
757.00,51.461
758.00,51.479
759.00,51.512
760.00,51.528
761.00,51.504
762.00,51.555
763.00,51.608
764.00,51.646
765.00,51.639
766.00,51.754
767.00,51.776
768.00,51.816
769.00,51.785
770.00,51.890
771.00,51.851
772.00,51.907
773.00,51.873
774.00,51.967
775.00,51.978
776.00,51.904
777.00,51.986
778.00,51.981
779.00,52.029
780.00,51.964
781.00,52.057
782.00,52.047
783.00,52.037
784.00,52.057
785.00,52.045
786.00,52.170
787.00,52.119
788.00,52.141
789.00,52.131
790.00,52.043
791.00,52.171
792.00,52.118
793.00,52.093
794.00,52.121
795.00,52.071
796.00,52.044
797.00,52.070
798.00,52.101
799.00,52.043
800.00,52.039
801.00,52.083
802.00,52.059
803.00,52.093
804.00,52.069
805.00,52.060
806.00,52.061
807.00,52.039
808.00,52.027
809.00,52.077
810.00,52.026
811.00,52.040
812.00,52.115
813.00,52.001
814.00,51.983
815.00,52.037
816.00,52.110
817.00,51.995
818.00,51.926
819.00,51.925
820.00,51.926
821.00,52.004
822.00,51.939
823.00,51.970
824.00,51.977
825.00,51.943
826.00,51.979
827.00,51.963
828.00,51.973
829.00,51.947
830.00,51.902
831.00,54.323
832.00,54.318
833.00,54.285
834.00,54.301
835.00,54.250
836.00,54.312
837.00,54.265
838.00,54.283
839.00,54.240
840.00,54.184
841.00,54.213
842.00,54.113
843.00,54.161
844.00,54.151
845.00,54.115
846.00,54.139
847.00,54.114
848.00,54.129
849.00,54.039
850.00,54.025
851.00,54.021
852.00,53.991
853.00,53.986
854.00,53.982
855.00,53.929
856.00,53.924
857.00,53.886
858.00,53.862
859.00,53.842
860.00,53.846
861.00,53.855
862.00,53.788
863.00,53.831
864.00,53.796
865.00,53.816
866.00,53.789
867.00,53.802
868.00,53.789
869.00,53.764
870.00,53.806
871.00,53.765
872.00,53.767
873.00,53.736
874.00,53.777
875.00,53.696
876.00,53.729
877.00,53.714
878.00,53.719
879.00,53.691
880.00,53.673
881.00,53.617
882.00,53.673
883.00,53.635
884.00,53.590
885.00,53.576
886.00,53.599
887.00,53.562
888.00,53.531
889.00,53.519
890.00,53.512
891.00,53.493
892.00,53.478
893.00,53.460
894.00,53.473
895.00,53.420
896.00,53.410
897.00,53.390
898.00,53.381
899.00,53.349
900.00,53.356
901.00,53.358
902.00,53.368
903.00,53.335
904.00,53.303
905.00,53.298
906.00,53.296
907.00,53.251
908.00,53.207
909.00,53.198
910.00,53.175
911.00,53.170
912.00,53.176
913.00,53.117
914.00,53.122
915.00,53.088
916.00,53.051
917.00,53.041
918.00,53.025
919.00,53.036
920.00,52.977
921.00,52.962
922.00,53.129
923.00,52.956
924.00,52.946
925.00,52.930
926.00,52.921
927.00,52.889
928.00,52.869
929.00,52.881
930.00,52.829
931.00,52.837
932.00,52.847
933.00,52.830
934.00,52.824
935.00,52.772
936.00,52.713
937.00,52.759
938.00,52.722
939.00,52.725
940.00,52.672
941.00,52.682
942.00,52.652
943.00,52.654
944.00,52.608
945.00,52.620
946.00,52.617
947.00,52.579
948.00,52.555
949.00,52.531
950.00,52.528
951.00,52.476
952.00,52.495
953.00,52.445
954.00,52.430
955.00,52.397
956.00,52.383
957.00,52.323
958.00,52.351
959.00,52.303
960.00,52.298
961.00,52.293
962.00,52.286
963.00,52.233
964.00,52.232
965.00,52.237
966.00,52.226
967.00,52.223
968.00,52.188
969.00,52.232
970.00,52.209
971.00,52.220
972.00,52.165
973.00,52.222
974.00,52.237
975.00,52.203
976.00,52.215
977.00,52.194
978.00,52.231
979.00,52.174
980.00,52.201
981.00,52.209
982.00,52.175
983.00,52.205
984.00,52.163
985.00,52.197
986.00,52.141
987.00,52.154
988.00,52.148
989.00,52.123
990.00,52.133
991.00,52.124
992.00,52.133
993.00,52.090
994.00,52.078
995.00,52.075
996.00,52.045
997.00,52.029
998.00,52.026
999.00,52.035
1000.00,51.985
1001.00,51.981
1002.00,51.979
1003.00,51.965
1004.00,51.947
1005.00,51.914
1006.00,51.940
1007.00,51.898
1008.00,51.909
1009.00,51.877
1010.00,51.892
1011.00,51.881
1012.00,51.827
1013.00,51.862
1014.00,51.819
1015.00,51.827
1016.00,51.792
1017.00,51.783
1018.00,51.781
1019.00,51.735
1020.00,51.741
1021.00,51.717
1022.00,51.730
1023.00,51.673
1024.00,51.692
1025.00,51.667
1026.00,51.645
1027.00,51.639
1028.00,51.629
1029.00,51.615
1030.00,51.570
1031.00,51.595
1032.00,51.553
1033.00,51.539
1034.00,51.503
1035.00,51.471
1036.00,51.437
1037.00,51.433
1038.00,51.415
1039.00,51.390
1040.00,51.384
1041.00,51.362
1042.00,51.335
1043.00,51.324
1044.00,51.385
1045.00,51.337
1046.00,51.339
1047.00,51.353
1048.00,51.366
1049.00,51.371
1050.00,51.365
1051.00,51.427
1052.00,51.417
1053.00,51.423
1054.00,51.422
1055.00,51.446
1056.00,51.459
1057.00,51.450
1058.00,51.434
1059.00,51.442
1060.00,51.443
1061.00,51.414
1062.00,51.408
1063.00,51.409
1064.00,51.394
1065.00,51.391
1066.00,51.380
1067.00,51.360
1068.00,51.387
1069.00,51.343
1070.00,51.342
1071.00,51.331
1072.00,51.365
1073.00,51.336
1074.00,51.317
1075.00,51.302
1076.00,51.312
1077.00,51.300
1078.00,51.261
1079.00,51.279
1080.00,51.265
1081.00,51.269
1082.00,51.248
1083.00,51.251
1084.00,51.255
1085.00,51.250
1086.00,51.237
1087.00,51.227
1088.00,51.208
1089.00,51.203
1090.00,51.197
1091.00,51.191
1092.00,51.189
1093.00,51.169
1094.00,51.133
1095.00,51.138
1096.00,51.112
1097.00,51.103
1098.00,51.104
1099.00,51.115
1100.00,51.085
1101.00,51.082
1102.00,51.075
1103.00,51.077
1104.00,51.071
1105.00,51.075
1106.00,51.037
1107.00,51.034
1108.00,51.013
1109.00,51.025
1110.00,51.011
1111.00,50.999
1112.00,50.998
1113.00,50.986
1114.00,50.983
1115.00,50.981
1116.00,50.970
1117.00,50.972
1118.00,50.963
1119.00,50.958
1120.00,50.935
1121.00,50.926
1122.00,50.897
1123.00,50.895
1124.00,50.888
1125.00,50.890
1126.00,50.882
1127.00,50.884
1128.00,50.868
1129.00,50.846
1130.00,50.843
1131.00,50.857
1132.00,50.888
1133.00,50.856
1134.00,50.881
1135.00,50.814
1136.00,50.814
1137.00,50.820
1138.00,50.806
1139.00,50.811
1140.00,50.798
1141.00,50.793
1142.00,50.792
1143.00,50.806
1144.00,50.767
1145.00,50.769
1146.00,50.753
1147.00,50.742
1148.00,50.745
1149.00,50.760
1150.00,50.752
1151.00,50.762
1152.00,50.739
1153.00,50.741
1154.00,50.718
1155.00,50.722
1156.00,50.717
1157.00,50.711
1158.00,50.709
1159.00,50.721
1160.00,50.714
1161.00,50.732
1162.00,50.722
1163.00,50.722
1164.00,50.730
1165.00,50.732
1166.00,50.742
1167.00,50.700
1168.00,50.718
1169.00,50.695
1170.00,50.690
1171.00,50.680
1172.00,50.687
1173.00,50.677
1174.00,50.682
1175.00,50.692
1176.00,50.681
1177.00,50.664
1178.00,50.689
1179.00,50.692
1180.00,50.677
1181.00,50.697
1182.00,50.673
1183.00,50.655
1184.00,50.653
1185.00,50.657
1186.00,50.655
1187.00,50.658
1188.00,50.655
1189.00,50.665
1190.00,50.642
1191.00,50.643
1192.00,50.674
1193.00,50.660
1194.00,50.675
1195.00,50.646
1196.00,50.667
1197.00,50.669
1198.00,50.656
1199.00,50.649
1200.00,50.654
1201.00,50.663
1202.00,50.640
1203.00,50.645
1204.00,50.635
1205.00,50.656
1206.00,50.641
1207.00,50.641
1208.00,50.645
1209.00,50.645
1210.00,50.643
1211.00,50.635
1212.00,50.646
1213.00,50.618
1214.00,50.642
1215.00,50.625
1216.00,50.632
1217.00,50.630
1218.00,50.613
1219.00,50.641
1220.00,50.619
1221.00,50.629
1222.00,50.624
1223.00,50.638
1224.00,50.634
1225.00,50.609
1226.00,50.618
1227.00,50.619
1228.00,50.623
1229.00,50.611
1230.00,50.645
1231.00,50.633
1232.00,50.656
1233.00,50.668
1234.00,50.664
1235.00,50.661
1236.00,50.661
1237.00,50.670
1238.00,50.663
1239.00,50.665
1240.00,50.659
1241.00,50.666
1242.00,50.673
1243.00,50.686
1244.00,50.659
1245.00,50.690
1246.00,50.695
1247.00,50.680
1248.00,50.689
1249.00,50.705
1250.00,50.712
1251.00,50.691
1252.00,50.709
1253.00,50.697
1254.00,50.720
1255.00,50.722
1256.00,50.682
1257.00,50.691
1258.00,50.720
1259.00,50.706
1260.00,50.727
1261.00,50.733
1262.00,50.718
1263.00,50.722
1264.00,50.722
1265.00,50.728
1266.00,50.728
1267.00,50.742
1268.00,50.741
1269.00,50.750
1270.00,50.757
1271.00,50.767
1272.00,50.766
1273.00,50.772
1274.00,50.777
1275.00,50.788
1276.00,50.781
1277.00,50.794
1278.00,50.804
1279.00,50.796
1280.00,50.789
1281.00,50.818
1282.00,50.817
1283.00,50.807
1284.00,50.801
1285.00,50.801
1286.00,50.811
1287.00,50.795
1288.00,50.817
1289.00,50.789
1290.00,50.838
1291.00,50.821
1292.00,50.823
1293.00,50.829
1294.00,50.843
1295.00,50.853
1296.00,50.863
1297.00,50.865
1298.00,50.891
1299.00,50.855
1300.00,50.858
1301.00,50.851
1302.00,50.880
1303.00,50.887
1304.00,50.880
1305.00,50.905
1306.00,50.903
1307.00,50.915
1308.00,50.910
1309.00,50.909
1310.00,50.907
1311.00,50.903
1312.00,50.916
1313.00,50.928
1314.00,50.951
1315.00,50.955
1316.00,50.928
1317.00,50.955
1318.00,50.946
1319.00,50.941
1320.00,50.950
1321.00,51.136
1322.00,51.111
1323.00,51.096
1324.00,51.083
1325.00,51.066
1326.00,51.077
1327.00,51.098
1328.00,51.134
1329.00,51.038
1330.00,51.097
1331.00,51.100
1332.00,51.087
1333.00,51.084
1334.00,51.116
1335.00,51.127
1336.00,51.152
1337.00,51.191
1338.00,51.256
1339.00,51.286
1340.00,51.351
1341.00,51.400
1342.00,51.471
1343.00,51.527
1344.00,51.562
1345.00,51.621
1346.00,51.680
1347.00,51.707
1348.00,51.721
1349.00,51.746
1350.00,51.760
1351.00,51.779
1352.00,51.773
1353.00,51.711
1354.00,51.809
1355.00,51.761
1356.00,51.840
1357.00,51.825
1358.00,51.824
1359.00,51.814
1360.00,51.846
1361.00,51.857
1362.00,51.743
1363.00,51.913
1364.00,51.941
1365.00,51.789
1366.00,51.829
1367.00,51.793
1368.00,51.712
1369.00,51.789
1370.00,51.821
1371.00,51.723
1372.00,51.768
1373.00,51.821
1374.00,51.806
1375.00,51.793
1376.00,51.796
1377.00,51.790
1378.00,51.823
1379.00,51.822
1380.00,51.803
1381.00,51.836
1382.00,51.809
1383.00,51.801
1384.00,51.755
1385.00,51.786
1386.00,51.817
1387.00,51.757
1388.00,51.715
1389.00,51.770
1390.00,51.818
1391.00,51.795
1392.00,51.730
1393.00,51.756
1394.00,51.775
1395.00,51.740
1396.00,51.713
1397.00,51.737
1398.00,51.913
1399.00,51.845
1400.00,51.718
1401.00,51.728
1402.00,51.852
1403.00,51.783
1404.00,51.769
1405.00,51.801
1406.00,51.811
1407.00,51.825
1408.00,51.833
1409.00,51.779
1410.00,51.811
1411.00,51.813
1412.00,51.883
1413.00,52.096
1414.00,51.800
1415.00,51.802
1416.00,51.883
1417.00,51.916
1418.00,51.853
1419.00,51.877
1420.00,51.910
1421.00,51.943
1422.00,51.928
1423.00,51.954
1424.00,51.949
1425.00,51.963
1426.00,51.966
1427.00,51.994
1428.00,51.991
1429.00,52.025
1430.00,52.009
1431.00,52.030
1432.00,52.055
1433.00,52.047
1434.00,52.059
1435.00,52.125
1436.00,52.124
1437.00,52.110
1438.00,52.136
1439.00,52.166
1440.00,52.164
1441.00,52.167
1442.00,52.186
1443.00,52.193
1444.00,52.256
1445.00,52.203
1446.00,52.251
1447.00,52.283
1448.00,52.333
1449.00,52.310
1450.00,52.304
1451.00,52.305
1452.00,52.335
1453.00,52.350
1454.00,52.362
1455.00,52.383
1456.00,52.416
1457.00,52.400
1458.00,52.424
1459.00,52.446
1460.00,52.477
1461.00,52.477
1462.00,52.489
1463.00,52.496
1464.00,52.509
1465.00,52.521
1466.00,52.519
1467.00,52.546
1468.00,52.598
1469.00,52.564
1470.00,52.597
1471.00,52.622
1472.00,52.622
1473.00,52.618
1474.00,52.659
1475.00,52.664
1476.00,52.672
1477.00,52.651
1478.00,52.696
1479.00,52.707
1480.00,52.683
1481.00,52.697
1482.00,52.724
1483.00,52.735
1484.00,52.737
1485.00,52.744
1486.00,52.776
1487.00,52.772
1488.00,52.809
1489.00,52.805
1490.00,52.840
1491.00,52.823
1492.00,52.843
1493.00,52.820
1494.00,52.866
1495.00,52.860
1496.00,52.881
1497.00,52.861
1498.00,52.887
1499.00,52.899
1500.00,52.924
1501.00, 
1502.00, 
1503.00, 
1504.00, 
1505.00, 
1506.00, 
1507.00, 
1508.00, 
1509.00, 
1510.00, 
1511.00, 
1512.00, 
1513.00, 
1514.00, 
1515.00, 
1516.00, 
1517.00, 
1518.00, 
1519.00, 
1520.00, 
1521.00, 
1522.00, 
1523.00, 
1524.00, 
1525.00, 
1526.00, 
1527.00, 
1528.00, 
1529.00, 
1530.00, 
1531.00, 
1532.00, 
1533.00, 
1534.00, 
1535.00, 
1536.00, 
1537.00, 
1538.00, 
1539.00, 
1540.00, 
1541.00, 
1542.00, 
1543.00, 
1544.00, 
1545.00, 
1546.00, 
1547.00, 
1548.00, 
1549.00, 
1550.00, 
1551.00, 
1552.00, 
1553.00, 
1554.00, 
1555.00, 
1556.00, 
1557.00, 
1558.00, 
1559.00, 
1560.00, 
1561.00, 
1562.00, 
1563.00, 
1564.00, 
1565.00, 
1566.00, 
1567.00, 
1568.00, 
1569.00, 
1570.00, 
1571.00, 
1572.00, 
1573.00, 
1574.00, 
1575.00, 
1576.00, 
1577.00, 
1578.00, 
1579.00, 
1580.00, 
1581.00, 
1582.00, 
1583.00, 
1584.00, 
1585.00, 
1586.00, 
1587.00, 
1588.00, 
1589.00, 
1590.00, 
1591.00, 
1592.00, 
1593.00, 
1594.00, 
1595.00, 
1596.00, 
1597.00, 
1598.00, 
1599.00, 
1600.00, 
1601.00, 
1602.00, 
1603.00, 
1604.00, 
1605.00, 
1606.00, 
1607.00, 
1608.00, 
1609.00, 
1610.00, 
1611.00, 
1612.00, 
1613.00, 
1614.00, 
1615.00, 
1616.00, 
1617.00, 
1618.00, 
1619.00, 
1620.00, 
1621.00, 
1622.00, 
1623.00, 
1624.00, 
1625.00, 
1626.00, 
1627.00, 
1628.00, 
1629.00, 
1630.00, 
1631.00, 
1632.00, 
1633.00, 
1634.00, 
1635.00, 
1636.00, 
1637.00, 
1638.00, 
1639.00, 
1640.00, 
1641.00, 
1642.00, 
1643.00, 
1644.00, 
1645.00, 
1646.00, 
1647.00, 
1648.00, 
1649.00, 
1650.00, 
1651.00, 
1652.00, 
1653.00, 
1654.00, 
1655.00, 
1656.00, 
1657.00, 
1658.00, 
1659.00, 
1660.00, 
1661.00, 
1662.00, 
1663.00, 
1664.00, 
1665.00, 
1666.00, 
1667.00, 
1668.00, 
1669.00, 
1670.00, 
1671.00, 
1672.00, 
1673.00, 
1674.00, 
1675.00, 
1676.00, 
1677.00, 
1678.00, 
1679.00, 
1680.00, 
1681.00, 
1682.00, 
1683.00, 
1684.00, 
1685.00, 
1686.00, 
1687.00, 
1688.00, 
1689.00, 
1690.00, 
1691.00, 
1692.00, 
1693.00, 
1694.00, 
1695.00, 
1696.00, 
1697.00, 
1698.00, 
1699.00, 
1700.00, 
1701.00, 
1702.00, 
1703.00, 
1704.00, 
1705.00, 
1706.00, 
1707.00, 
1708.00, 
1709.00, 
1710.00, 
1711.00, 
1712.00, 
1713.00, 
1714.00, 
1715.00, 
1716.00, 
1717.00, 
1718.00, 
1719.00, 
1720.00, 
1721.00, 
1722.00, 
1723.00, 
1724.00, 
1725.00, 
1726.00, 
1727.00, 
1728.00, 
1729.00, 
1730.00, 
1731.00, 
1732.00, 
1733.00, 
1734.00, 
1735.00, 
1736.00, 
1737.00, 
1738.00, 
1739.00, 
1740.00, 
1741.00, 
1742.00, 
1743.00, 
1744.00, 
1745.00, 
1746.00, 
1747.00, 
1748.00, 
1749.00, 
1750.00, 
1751.00, 
1752.00, 
1753.00, 
1754.00, 
1755.00, 
1756.00, 
1757.00, 
1758.00, 
1759.00, 
1760.00, 
1761.00, 
1762.00, 
1763.00, 
1764.00, 
1765.00, 
1766.00, 
1767.00, 
1768.00, 
1769.00, 
1770.00, 
1771.00, 
1772.00, 
1773.00, 
1774.00, 
1775.00, 
1776.00, 
1777.00, 
1778.00, 
1779.00, 
1780.00, 
1781.00, 
1782.00, 
1783.00, 
1784.00, 
1785.00, 
1786.00, 
1787.00, 
1788.00, 
1789.00, 
1790.00, 
1791.00, 
1792.00, 
1793.00, 
1794.00, 
1795.00, 
1796.00, 
1797.00, 
1798.00, 
1799.00, 
1800.00, 
1801.00, 
1802.00, 
1803.00, 
1804.00, 
1805.00, 
1806.00, 
1807.00, 
1808.00, 
1809.00, 
1810.00, 
1811.00, 
1812.00, 
1813.00, 
1814.00, 
1815.00, 
1816.00, 
1817.00, 
1818.00, 
1819.00, 
1820.00, 
1821.00, 
1822.00, 
1823.00, 
1824.00, 
1825.00, 
1826.00, 
1827.00, 
1828.00, 
1829.00, 
1830.00, 
1831.00, 
1832.00, 
1833.00, 
1834.00, 
1835.00, 
1836.00, 
1837.00, 
1838.00, 
1839.00, 
1840.00, 
1841.00, 
1842.00, 
1843.00, 
1844.00, 
1845.00, 
1846.00, 
1847.00, 
1848.00, 
1849.00, 
1850.00, 
1851.00, 
1852.00, 
1853.00, 
1854.00, 
1855.00, 
1856.00, 
1857.00, 
1858.00, 
1859.00, 
1860.00, 
1861.00, 
1862.00, 
1863.00, 
1864.00, 
1865.00, 
1866.00, 
1867.00, 
1868.00, 
1869.00, 
1870.00, 
1871.00, 
1872.00, 
1873.00, 
1874.00, 
1875.00, 
1876.00, 
1877.00, 
1878.00, 
1879.00, 
1880.00, 
1881.00, 
1882.00, 
1883.00, 
1884.00, 
1885.00, 
1886.00, 
1887.00, 
1888.00, 
1889.00, 
1890.00, 
1891.00, 
1892.00, 
1893.00, 
1894.00, 
1895.00, 
1896.00, 
1897.00, 
1898.00, 
1899.00, 
1900.00, 
1901.00, 
1902.00, 
1903.00, 
1904.00, 
1905.00, 
1906.00, 
1907.00, 
1908.00, 
1909.00, 
1910.00, 
1911.00, 
1912.00, 
1913.00, 
1914.00, 
1915.00, 
1916.00, 
1917.00, 
1918.00, 
1919.00, 
1920.00, 
1921.00, 
1922.00, 
1923.00, 
1924.00, 
1925.00, 
1926.00, 
1927.00, 
1928.00, 
1929.00, 
1930.00, 
1931.00, 
1932.00, 
1933.00, 
1934.00, 
1935.00, 
1936.00, 
1937.00, 
1938.00, 
1939.00, 
1940.00, 
1941.00, 
1942.00, 
1943.00, 
1944.00, 
1945.00, 
1946.00, 
1947.00, 
1948.00, 
1949.00, 
1950.00, 
1951.00, 
1952.00, 
1953.00, 
1954.00, 
1955.00, 
1956.00, 
1957.00, 
1958.00, 
1959.00, 
1960.00, 
1961.00, 
1962.00, 
1963.00, 
1964.00, 
1965.00, 
1966.00, 
1967.00, 
1968.00, 
1969.00, 
1970.00, 
1971.00, 
1972.00, 
1973.00, 
1974.00, 
1975.00, 
1976.00, 
1977.00, 
1978.00, 
1979.00, 
1980.00, 
1981.00, 
1982.00, 
1983.00, 
1984.00, 
1985.00, 
1986.00, 
1987.00, 
1988.00, 
1989.00, 
1990.00, 
1991.00, 
1992.00, 
1993.00, 
1994.00, 
1995.00, 
1996.00, 
1997.00, 
1998.00, 
1999.00, 
2000.00, 
2001.00, 
2002.00, 
2003.00, 
2004.00, 
2005.00, 
2006.00, 
2007.00, 
2008.00, 
2009.00, 
2010.00, 
2011.00, 
2012.00, 
2013.00, 
2014.00, 
2015.00, 
2016.00, 
2017.00, 
2018.00, 
2019.00, 
2020.00, 
2021.00, 
2022.00, 
2023.00, 
2024.00, 
2025.00, 
2026.00, 
2027.00, 
2028.00, 
2029.00, 
2030.00, 
2031.00, 
2032.00, 
2033.00, 
2034.00, 
2035.00, 
2036.00, 
2037.00, 
2038.00, 
2039.00, 
2040.00, 
2041.00, 
2042.00, 
2043.00, 
2044.00, 
2045.00, 
2046.00, 
2047.00, 
2048.00, 
2049.00, 
2050.00, 
2051.00, 
2052.00, 
2053.00, 
2054.00, 
2055.00, 
2056.00, 
2057.00, 
2058.00, 
2059.00, 
2060.00, 
2061.00, 
2062.00, 
2063.00, 
2064.00, 
2065.00, 
2066.00, 
2067.00, 
2068.00, 
2069.00, 
2070.00, 
2071.00, 
2072.00, 
2073.00, 
2074.00, 
2075.00, 
2076.00, 
2077.00, 
2078.00, 
2079.00, 
2080.00, 
2081.00, 
2082.00, 
2083.00, 
2084.00, 
2085.00, 
2086.00, 
2087.00, 
2088.00, 
2089.00, 
2090.00, 
2091.00, 
2092.00, 
2093.00, 
2094.00, 
2095.00, 
2096.00, 
2097.00, 
2098.00, 
2099.00, 
2100.00, 
2101.00, 
2102.00, 
2103.00, 
2104.00, 
2105.00, 
2106.00, 
2107.00, 
2108.00, 
2109.00, 
2110.00, 
2111.00, 
2112.00, 
2113.00, 
2114.00, 
2115.00, 
2116.00, 
2117.00, 
2118.00, 
2119.00, 
2120.00, 
2121.00, 
2122.00, 
2123.00, 
2124.00, 
2125.00, 
2126.00, 
2127.00, 
2128.00, 
2129.00, 
2130.00, 
2131.00, 
2132.00, 
2133.00, 
2134.00, 
2135.00, 
2136.00, 
2137.00, 
2138.00, 
2139.00, 
2140.00, 
2141.00, 
2142.00, 
2143.00, 
2144.00, 
2145.00, 
2146.00, 
2147.00, 
2148.00, 
2149.00, 
2150.00, 
2151.00, 
2152.00, 
2153.00, 
2154.00, 
2155.00, 
2156.00, 
2157.00, 
2158.00, 
2159.00, 
2160.00, 
2161.00, 
2162.00, 
2163.00, 
2164.00, 
2165.00, 
2166.00, 
2167.00, 
2168.00, 
2169.00, 
2170.00, 
2171.00, 
2172.00, 
2173.00, 
2174.00, 
2175.00, 
2176.00, 
2177.00, 
2178.00, 
2179.00, 
2180.00, 
2181.00, 
2182.00, 
2183.00, 
2184.00, 
2185.00, 
2186.00, 
2187.00, 
2188.00, 
2189.00, 
2190.00, 
2191.00, 
2192.00, 
2193.00, 
2194.00, 
2195.00, 
2196.00, 
2197.00, 
2198.00, 
2199.00, 
2200.00, 
2201.00, 
2202.00, 
2203.00, 
2204.00, 
2205.00, 
2206.00, 
2207.00, 
2208.00, 
2209.00, 
2210.00, 
2211.00, 
2212.00, 
2213.00, 
2214.00, 
2215.00, 
2216.00, 
2217.00, 
2218.00, 
2219.00, 
2220.00, 
2221.00, 
2222.00, 
2223.00, 
2224.00, 
2225.00, 
2226.00, 
2227.00, 
2228.00, 
2229.00, 
2230.00, 
2231.00, 
2232.00, 
2233.00, 
2234.00, 
2235.00, 
2236.00, 
2237.00, 
2238.00, 
2239.00, 
2240.00, 
2241.00, 
2242.00, 
2243.00, 
2244.00, 
2245.00, 
2246.00, 
2247.00, 
2248.00, 
2249.00, 
2250.00, 
2251.00, 
2252.00, 
2253.00, 
2254.00, 
2255.00, 
2256.00, 
2257.00, 
2258.00, 
2259.00, 
2260.00, 
2261.00, 
2262.00, 
2263.00, 
2264.00, 
2265.00, 
2266.00, 
2267.00, 
2268.00, 
2269.00, 
2270.00, 
2271.00, 
2272.00, 
2273.00, 
2274.00, 
2275.00, 
2276.00, 
2277.00, 
2278.00, 
2279.00, 
2280.00, 
2281.00, 
2282.00, 
2283.00, 
2284.00, 
2285.00, 
2286.00, 
2287.00, 
2288.00, 
2289.00, 
2290.00, 
2291.00, 
2292.00, 
2293.00, 
2294.00, 
2295.00, 
2296.00, 
2297.00, 
2298.00, 
2299.00, 
2300.00, 
2301.00, 
2302.00, 
2303.00, 
2304.00, 
2305.00, 
2306.00, 
2307.00, 
2308.00, 
2309.00, 
2310.00, 
2311.00, 
2312.00, 
2313.00, 
2314.00, 
2315.00, 
2316.00, 
2317.00, 
2318.00, 
2319.00, 
2320.00, 
2321.00, 
2322.00, 
2323.00, 
2324.00, 
2325.00, 
2326.00, 
2327.00, 
2328.00, 
2329.00, 
2330.00, 
2331.00, 
2332.00, 
2333.00, 
2334.00, 
2335.00, 
2336.00, 
2337.00, 
2338.00, 
2339.00, 
2340.00, 
2341.00, 
2342.00, 
2343.00, 
2344.00, 
2345.00, 
2346.00, 
2347.00, 
2348.00, 
2349.00, 
2350.00, 
2351.00, 
2352.00, 
2353.00, 
2354.00, 
2355.00, 
2356.00, 
2357.00, 
2358.00, 
2359.00, 
2360.00, 
2361.00, 
2362.00, 
2363.00, 
2364.00, 
2365.00, 
2366.00, 
2367.00, 
2368.00, 
2369.00, 
2370.00, 
2371.00, 
2372.00, 
2373.00, 
2374.00, 
2375.00, 
2376.00, 
2377.00, 
2378.00, 
2379.00, 
2380.00, 
2381.00, 
2382.00, 
2383.00, 
2384.00, 
2385.00, 
2386.00, 
2387.00, 
2388.00, 
2389.00, 
2390.00, 
2391.00, 
2392.00, 
2393.00, 
2394.00, 
2395.00, 
2396.00, 
2397.00, 
2398.00, 
2399.00, 
2400.00, 
2401.00, 
2402.00, 
2403.00, 
2404.00, 
2405.00, 
2406.00, 
2407.00, 
2408.00, 
2409.00, 
2410.00, 
2411.00, 
2412.00, 
2413.00, 
2414.00, 
2415.00, 
2416.00, 
2417.00, 
2418.00, 
2419.00, 
2420.00, 
2421.00, 
2422.00, 
2423.00, 
2424.00, 
2425.00, 
2426.00, 
2427.00, 
2428.00, 
2429.00, 
2430.00, 
2431.00, 
2432.00, 
2433.00, 
2434.00, 
2435.00, 
2436.00, 
2437.00, 
2438.00, 
2439.00, 
2440.00, 
2441.00, 
2442.00, 
2443.00, 
2444.00, 
2445.00, 
2446.00, 
2447.00, 
2448.00, 
2449.00, 
2450.00, 
2451.00, 
2452.00, 
2453.00, 
2454.00, 
2455.00, 
2456.00, 
2457.00, 
2458.00, 
2459.00, 
2460.00, 
2461.00, 
2462.00, 
2463.00, 
2464.00, 
2465.00, 
2466.00, 
2467.00, 
2468.00, 
2469.00, 
2470.00, 
2471.00, 
2472.00, 
2473.00, 
2474.00, 
2475.00, 
2476.00, 
2477.00, 
2478.00, 
2479.00, 
2480.00, 
2481.00, 
2482.00, 
2483.00, 
2484.00, 
2485.00, 
2486.00, 
2487.00, 
2488.00, 
2489.00, 
2490.00, 
2491.00, 
2492.00, 
2493.00, 
2494.00, 
2495.00, 
2496.00, 
2497.00, 
2498.00, 
2499.00, 
2500.00, 
2501.00, 
2502.00, 
2503.00, 
2504.00, 
2505.00, 
2506.00, 
2507.00, 
2508.00, 
2509.00, 
2510.00, 
2511.00, 
2512.00, 
2513.00, 
2514.00, 
2515.00, 
2516.00, 
2517.00, 
2518.00, 
2519.00, 
2520.00, 
2521.00, 
2522.00, 
2523.00, 
2524.00, 
2525.00, 
2526.00, 
2527.00, 
2528.00, 
2529.00, 
2530.00, 
2531.00, 
2532.00, 
2533.00, 
2534.00, 
2535.00, 
2536.00, 
2537.00, 
2538.00, 
2539.00, 
2540.00, 
2541.00, 
2542.00, 
2543.00, 
2544.00, 
2545.00, 
2546.00, 
2547.00, 
2548.00, 
2549.00, 
2550.00, 
2551.00, 
2552.00, 
2553.00, 
2554.00, 
2555.00, 
2556.00, 
2557.00, 
2558.00, 
2559.00, 
2560.00, 
2561.00, 
2562.00, 
2563.00, 
2564.00, 
2565.00, 
2566.00, 
2567.00, 
2568.00, 
2569.00, 
2570.00, 
2571.00, 
2572.00, 
2573.00, 
2574.00, 
2575.00, 
2576.00, 
2577.00, 
2578.00, 
2579.00, 
2580.00, 
2581.00, 
2582.00, 
2583.00, 
2584.00, 
2585.00, 
2586.00, 
2587.00, 
2588.00, 
2589.00, 
2590.00, 
2591.00, 
2592.00, 
2593.00, 
2594.00, 
2595.00, 
2596.00, 
2597.00, 
2598.00, 
2599.00, 
2600.00, 
