"2cP5 - RawData"
"Wavelength nm.","T%"
200.00,0.000
201.00,0.001
202.00,0.002
203.00,0.003
204.00,0.001
205.00,-0.001
206.00,0.001
207.00,-0.000
208.00,-0.002
209.00,0.002
210.00,0.001
211.00,0.003
212.00,0.002
213.00,0.002
214.00,-0.000
215.00,0.002
216.00,0.005
217.00,-0.000
218.00,-0.002
219.00,0.001
220.00,-0.000
221.00,0.004
222.00,0.000
223.00,-0.003
224.00,-0.000
225.00,0.002
226.00,-0.001
227.00,0.000
228.00,0.003
229.00,0.001
230.00,0.000
231.00,-0.000
232.00,0.001
233.00,0.001
234.00,0.001
235.00,0.000
236.00,0.001
237.00,0.004
238.00,0.002
239.00,0.002
240.00,0.000
241.00,-0.001
242.00,0.000
243.00,0.001
244.00,0.001
245.00,-0.000
246.00,-0.000
247.00,0.001
248.00,0.000
249.00,0.000
250.00,-0.000
251.00,-0.002
252.00,0.003
253.00,0.000
254.00,-0.001
255.00,-0.001
256.00,0.001
257.00,0.000
258.00,0.001
259.00,-0.001
260.00,0.001
261.00,0.000
262.00,-0.001
263.00,0.000
264.00,0.001
265.00,-0.000
266.00,-0.000
267.00,-0.000
268.00,-0.000
269.00,0.000
270.00,0.001
271.00,-0.000
272.00,0.000
273.00,0.001
274.00,-0.000
275.00,0.000
276.00,-0.001
277.00,-0.000
278.00,0.000
279.00,0.002
280.00,0.001
281.00,0.000
282.00,-0.001
283.00,-0.002
284.00,-0.000
285.00,-0.001
286.00,0.000
287.00,0.001
288.00,-0.000
289.00,-0.001
290.00,-0.000
291.00,0.001
292.00,0.001
293.00,0.001
294.00,-0.000
295.00,-0.000
296.00,-0.000
297.00,-0.002
298.00,-0.000
299.00,0.001
300.00,0.000
301.00,0.003
302.00,0.004
303.00,0.007
304.00,0.009
305.00,0.015
306.00,0.020
307.00,0.033
308.00,0.051
309.00,0.078
310.00,0.110
311.00,0.149
312.00,0.208
313.00,0.281
314.00,0.362
315.00,0.470
316.00,0.597
317.00,0.762
318.00,0.938
319.00,1.153
320.00,1.401
321.00,1.692
322.00,2.001
323.00,2.335
324.00,2.716
325.00,3.088
326.00,3.471
327.00,3.913
328.00,4.378
329.00,4.858
330.00,5.362
331.00,5.852
332.00,6.356
333.00,6.904
334.00,7.374
335.00,7.889
336.00,8.411
337.00,8.932
338.00,9.425
339.00,9.898
340.00,10.392
341.00,10.847
342.00,11.280
343.00,11.707
344.00,12.127
345.00,12.500
346.00,12.854
347.00,13.137
348.00,13.514
349.00,13.781
350.00,14.068
351.00,14.345
352.00,14.569
353.00,14.767
354.00,15.030
355.00,15.244
356.00,15.424
357.00,15.560
358.00,15.746
359.00,15.918
360.00,16.059
361.00,16.088
362.00,16.243
363.00,16.358
364.00,16.418
365.00,16.475
366.00,16.556
367.00,16.601
368.00,16.628
369.00,16.660
370.00,16.681
371.00,16.696
372.00,16.685
373.00,16.653
374.00,16.675
375.00,16.662
376.00,16.616
377.00,16.563
378.00,16.507
379.00,16.428
380.00,16.430
381.00,16.389
382.00,16.348
383.00,16.376
384.00,16.381
385.00,16.365
386.00,16.386
387.00,16.357
388.00,16.438
389.00,16.406
390.00,16.416
391.00,16.447
392.00,16.448
393.00,16.435
394.00,16.458
395.00,16.467
396.00,16.444
397.00,16.419
398.00,16.441
399.00,16.423
400.00,16.417
401.00,16.413
402.00,16.408
403.00,16.400
404.00,16.396
405.00,16.367
406.00,16.355
407.00,16.332
408.00,16.333
409.00,16.293
410.00,16.256
411.00,16.254
412.00,16.234
413.00,16.238
414.00,16.236
415.00,16.251
416.00,16.294
417.00,16.291
418.00,16.303
419.00,16.378
420.00,16.420
421.00,16.448
422.00,16.463
423.00,16.504
424.00,16.572
425.00,16.539
426.00,16.591
427.00,16.642
428.00,16.674
429.00,16.665
430.00,16.755
431.00,16.816
432.00,16.867
433.00,16.919
434.00,16.991
435.00,17.071
436.00,17.121
437.00,17.170
438.00,17.244
439.00,17.302
440.00,17.378
441.00,17.458
442.00,17.539
443.00,17.625
444.00,17.687
445.00,17.796
446.00,17.881
447.00,17.989
448.00,18.077
449.00,18.183
450.00,18.307
451.00,18.367
452.00,18.485
453.00,18.630
454.00,18.692
455.00,18.793
456.00,18.937
457.00,19.055
458.00,19.150
459.00,19.273
460.00,19.416
461.00,19.526
462.00,19.630
463.00,19.792
464.00,19.921
465.00,20.049
466.00,20.188
467.00,20.336
468.00,20.425
469.00,20.537
470.00,20.645
471.00,20.766
472.00,20.874
473.00,20.982
474.00,21.112
475.00,21.224
476.00,21.342
477.00,21.491
478.00,21.632
479.00,21.803
480.00,21.943
481.00,22.066
482.00,22.230
483.00,22.416
484.00,22.553
485.00,22.693
486.00,22.868
487.00,23.025
488.00,23.145
489.00,23.328
490.00,23.491
491.00,23.598
492.00,23.851
493.00,24.002
494.00,24.029
495.00,24.199
496.00,24.320
497.00,24.417
498.00,24.632
499.00,24.760
500.00,24.899
501.00,25.004
502.00,25.159
503.00,25.235
504.00,25.376
505.00,25.526
506.00,25.689
507.00,25.779
508.00,25.929
509.00,26.094
510.00,26.231
511.00,26.313
512.00,26.475
513.00,26.627
514.00,26.763
515.00,26.882
516.00,26.989
517.00,27.111
518.00,27.228
519.00,27.350
520.00,27.411
521.00,27.580
522.00,27.659
523.00,27.733
524.00,27.830
525.00,27.951
526.00,28.073
527.00,28.159
528.00,28.198
529.00,28.370
530.00,28.567
531.00,28.655
532.00,28.723
533.00,28.870
534.00,28.966
535.00,29.058
536.00,29.122
537.00,29.197
538.00,29.278
539.00,29.343
540.00,29.439
541.00,29.514
542.00,29.595
543.00,29.671
544.00,29.783
545.00,29.795
546.00,29.858
547.00,30.010
548.00,30.111
549.00,30.171
550.00,30.283
551.00,30.358
552.00,30.420
553.00,30.478
554.00,30.568
555.00,30.610
556.00,30.641
557.00,30.752
558.00,30.855
559.00,30.841
560.00,30.915
561.00,31.052
562.00,31.074
563.00,31.140
564.00,31.208
565.00,31.236
566.00,31.255
567.00,31.299
568.00,31.359
569.00,31.413
570.00,31.495
571.00,31.522
572.00,31.563
573.00,31.567
574.00,31.651
575.00,31.648
576.00,31.634
577.00,31.740
578.00,31.824
579.00,31.911
580.00,31.972
581.00,32.093
582.00,32.193
583.00,32.199
584.00,32.298
585.00,32.358
586.00,32.402
587.00,32.503
588.00,32.523
589.00,32.480
590.00,32.603
591.00,32.656
592.00,32.639
593.00,32.661
594.00,32.797
595.00,32.852
596.00,32.889
597.00,32.941
598.00,33.050
599.00,33.017
600.00,33.063
601.00,33.129
602.00,33.094
603.00,33.212
604.00,33.295
605.00,33.313
606.00,33.255
607.00,33.424
608.00,33.677
609.00,33.705
610.00,33.576
611.00,33.660
612.00,33.662
613.00,33.710
614.00,33.814
615.00,33.902
616.00,34.018
617.00,34.060
618.00,34.029
619.00,34.131
620.00,34.209
621.00,34.287
622.00,34.337
623.00,34.417
624.00,34.516
625.00,34.544
626.00,34.612
627.00,34.634
628.00,34.741
629.00,34.789
630.00,34.907
631.00,34.937
632.00,35.067
633.00,35.171
634.00,35.287
635.00,35.331
636.00,35.395
637.00,35.504
638.00,35.548
639.00,35.686
640.00,35.763
641.00,35.771
642.00,35.919
643.00,35.982
644.00,36.088
645.00,36.194
646.00,36.311
647.00,36.426
648.00,36.463
649.00,36.519
650.00,36.622
651.00,36.829
652.00,36.920
653.00,36.885
654.00,37.016
655.00,37.216
656.00,37.487
657.00,37.411
658.00,37.466
659.00,37.463
660.00,37.742
661.00,37.803
662.00,37.890
663.00,38.018
664.00,38.275
665.00,38.411
666.00,38.350
667.00,38.477
668.00,38.591
669.00,38.814
670.00,38.991
671.00,39.161
672.00,39.111
673.00,39.272
674.00,39.294
675.00,39.406
676.00,39.660
677.00,39.846
678.00,39.709
679.00,39.928
680.00,40.064
681.00,40.232
682.00,40.274
683.00,40.364
684.00,40.578
685.00,40.696
686.00,40.716
687.00,40.872
688.00,40.916
689.00,40.915
690.00,41.192
691.00,41.473
692.00,41.350
693.00,41.439
694.00,41.602
695.00,41.734
696.00,41.839
697.00,41.933
698.00,42.021
699.00,42.347
700.00,42.492
701.00,42.455
702.00,42.576
703.00,42.813
704.00,42.786
705.00,42.776
706.00,42.975
707.00,43.117
708.00,43.000
709.00,43.376
710.00,43.830
711.00,43.188
712.00,43.344
713.00,43.594
714.00,43.836
715.00,43.653
716.00,43.994
717.00,44.468
718.00,44.238
719.00,44.281
720.00,44.425
721.00,48.757
722.00,48.820
723.00,48.916
724.00,48.932
725.00,49.036
726.00,49.092
727.00,49.139
728.00,49.147
729.00,49.256
730.00,49.285
731.00,49.393
732.00,49.399
733.00,49.501
734.00,49.598
735.00,49.589
736.00,49.698
737.00,49.723
738.00,49.847
739.00,49.860
740.00,49.942
741.00,49.974
742.00,50.072
743.00,50.167
744.00,50.053
745.00,50.120
746.00,50.185
747.00,50.129
748.00,50.232
749.00,50.190
750.00,50.286
751.00,50.244
752.00,50.267
753.00,50.371
754.00,50.478
755.00,50.469
756.00,50.524
757.00,50.525
758.00,50.618
759.00,50.579
760.00,50.641
761.00,50.705
762.00,50.674
763.00,50.750
764.00,50.748
765.00,50.799
766.00,50.796
767.00,50.890
768.00,50.954
769.00,50.883
770.00,50.951
771.00,51.001
772.00,51.014
773.00,51.038
774.00,51.026
775.00,51.074
776.00,51.119
777.00,51.193
778.00,51.131
779.00,51.239
780.00,51.161
781.00,51.288
782.00,51.242
783.00,51.161
784.00,51.216
785.00,51.197
786.00,51.313
787.00,51.337
788.00,51.391
789.00,51.345
790.00,51.308
791.00,51.364
792.00,51.361
793.00,51.298
794.00,51.340
795.00,51.319
796.00,51.321
797.00,51.380
798.00,51.349
799.00,51.291
800.00,51.310
801.00,51.349
802.00,51.376
803.00,51.299
804.00,51.270
805.00,51.326
806.00,51.366
807.00,51.338
808.00,51.347
809.00,51.353
810.00,51.305
811.00,51.329
812.00,51.345
813.00,51.283
814.00,51.310
815.00,51.327
816.00,51.384
817.00,51.318
818.00,51.264
819.00,51.288
820.00,51.230
821.00,51.298
822.00,51.280
823.00,51.295
824.00,51.367
825.00,51.177
826.00,51.354
827.00,51.259
828.00,51.238
829.00,51.220
830.00,51.238
831.00,53.363
832.00,53.398
833.00,53.337
834.00,53.334
835.00,53.328
836.00,53.383
837.00,53.310
838.00,53.316
839.00,53.319
840.00,53.266
841.00,53.298
842.00,53.257
843.00,53.267
844.00,53.244
845.00,53.213
846.00,53.233
847.00,53.219
848.00,53.208
849.00,53.121
850.00,53.104
851.00,53.080
852.00,53.116
853.00,53.080
854.00,53.052
855.00,53.006
856.00,53.022
857.00,52.990
858.00,52.944
859.00,52.965
860.00,52.945
861.00,52.926
862.00,52.890
863.00,52.945
864.00,52.825
865.00,52.888
866.00,52.874
867.00,52.885
868.00,52.890
869.00,52.836
870.00,52.907
871.00,52.847
872.00,52.854
873.00,52.813
874.00,52.846
875.00,52.805
876.00,52.808
877.00,52.801
878.00,52.787
879.00,52.705
880.00,52.822
881.00,52.704
882.00,52.757
883.00,52.738
884.00,52.682
885.00,52.670
886.00,52.675
887.00,52.682
888.00,52.640
889.00,52.630
890.00,52.604
891.00,52.593
892.00,52.567
893.00,52.562
894.00,52.537
895.00,52.569
896.00,52.500
897.00,52.488
898.00,52.473
899.00,52.473
900.00,52.463
901.00,52.461
902.00,52.447
903.00,52.413
904.00,52.395
905.00,52.389
906.00,52.375
907.00,52.343
908.00,52.249
909.00,52.352
910.00,52.267
911.00,52.280
912.00,52.268
913.00,52.228
914.00,52.218
915.00,52.193
916.00,52.160
917.00,52.195
918.00,52.144
919.00,52.061
920.00,52.166
921.00,52.098
922.00,52.089
923.00,52.044
924.00,52.049
925.00,52.056
926.00,52.049
927.00,52.002
928.00,51.985
929.00,51.993
930.00,51.931
931.00,51.935
932.00,51.926
933.00,51.912
934.00,51.882
935.00,51.844
936.00,51.841
937.00,51.831
938.00,51.812
939.00,51.825
940.00,51.777
941.00,51.764
942.00,51.747
943.00,51.721
944.00,51.639
945.00,51.709
946.00,51.694
947.00,51.679
948.00,51.642
949.00,51.612
950.00,51.616
951.00,51.578
952.00,51.564
953.00,51.531
954.00,51.504
955.00,51.462
956.00,51.468
957.00,51.416
958.00,51.427
959.00,51.378
960.00,51.367
961.00,51.369
962.00,51.369
963.00,51.323
964.00,51.320
965.00,51.333
966.00,51.312
967.00,51.312
968.00,51.262
969.00,51.306
970.00,51.277
971.00,51.286
972.00,51.248
973.00,51.285
974.00,51.294
975.00,51.270
976.00,51.293
977.00,51.288
978.00,51.334
979.00,51.276
980.00,51.310
981.00,51.427
982.00,51.262
983.00,51.302
984.00,51.256
985.00,51.288
986.00,51.242
987.00,51.243
988.00,51.233
989.00,51.211
990.00,51.203
991.00,51.200
992.00,51.215
993.00,51.175
994.00,51.175
995.00,51.169
996.00,51.153
997.00,51.145
998.00,51.108
999.00,51.135
1000.00,51.087
1001.00,51.057
1002.00,51.076
1003.00,51.068
1004.00,51.035
1005.00,51.001
1006.00,51.089
1007.00,50.988
1008.00,51.003
1009.00,50.982
1010.00,50.971
1011.00,50.969
1012.00,50.923
1013.00,50.948
1014.00,50.904
1015.00,50.895
1016.00,50.872
1017.00,50.855
1018.00,50.863
1019.00,50.825
1020.00,50.812
1021.00,50.791
1022.00,50.796
1023.00,50.750
1024.00,50.764
1025.00,50.737
1026.00,50.708
1027.00,50.711
1028.00,50.693
1029.00,50.683
1030.00,50.647
1031.00,50.655
1032.00,50.643
1033.00,50.626
1034.00,50.586
1035.00,50.565
1036.00,50.535
1037.00,50.511
1038.00,50.492
1039.00,50.494
1040.00,50.459
1041.00,50.446
1042.00,50.431
1043.00,50.407
1044.00,50.463
1045.00,50.431
1046.00,50.417
1047.00,50.433
1048.00,50.437
1049.00,50.451
1050.00,50.435
1051.00,50.481
1052.00,50.490
1053.00,50.486
1054.00,50.501
1055.00,50.515
1056.00,50.525
1057.00,50.524
1058.00,50.510
1059.00,50.487
1060.00,50.500
1061.00,50.471
1062.00,50.458
1063.00,50.472
1064.00,50.446
1065.00,50.461
1066.00,50.451
1067.00,50.438
1068.00,50.471
1069.00,50.435
1070.00,50.413
1071.00,50.412
1072.00,50.422
1073.00,50.397
1074.00,50.405
1075.00,50.395
1076.00,50.390
1077.00,50.389
1078.00,50.347
1079.00,50.362
1080.00,50.353
1081.00,50.337
1082.00,50.315
1083.00,50.299
1084.00,50.308
1085.00,50.300
1086.00,50.283
1087.00,50.313
1088.00,50.319
1089.00,50.275
1090.00,50.273
1091.00,50.267
1092.00,50.255
1093.00,50.236
1094.00,50.213
1095.00,50.214
1096.00,50.194
1097.00,50.178
1098.00,50.189
1099.00,50.185
1100.00,50.166
1101.00,50.153
1102.00,50.152
1103.00,50.163
1104.00,50.122
1105.00,50.110
1106.00,50.105
1107.00,50.101
1108.00,50.078
1109.00,50.084
1110.00,50.079
1111.00,50.058
1112.00,50.065
1113.00,50.037
1114.00,50.046
1115.00,50.063
1116.00,50.058
1117.00,50.043
1118.00,50.019
1119.00,50.000
1120.00,49.993
1121.00,49.993
1122.00,49.973
1123.00,49.965
1124.00,49.954
1125.00,49.940
1126.00,49.950
1127.00,49.948
1128.00,49.940
1129.00,49.928
1130.00,49.904
1131.00,49.908
1132.00,49.900
1133.00,49.881
1134.00,49.884
1135.00,49.873
1136.00,49.862
1137.00,49.868
1138.00,49.863
1139.00,49.877
1140.00,49.867
1141.00,49.846
1142.00,49.851
1143.00,49.864
1144.00,49.818
1145.00,49.825
1146.00,49.822
1147.00,49.811
1148.00,49.816
1149.00,49.839
1150.00,49.837
1151.00,49.835
1152.00,49.803
1153.00,49.811
1154.00,49.803
1155.00,49.798
1156.00,49.803
1157.00,49.796
1158.00,49.782
1159.00,49.780
1160.00,49.773
1161.00,49.794
1162.00,49.782
1163.00,49.772
1164.00,49.801
1165.00,49.781
1166.00,49.766
1167.00,49.755
1168.00,49.765
1169.00,49.749
1170.00,49.758
1171.00,49.739
1172.00,49.739
1173.00,49.741
1174.00,49.734
1175.00,49.744
1176.00,49.739
1177.00,49.716
1178.00,49.737
1179.00,49.738
1180.00,49.724
1181.00,49.733
1182.00,49.722
1183.00,49.701
1184.00,49.718
1185.00,49.722
1186.00,49.725
1187.00,49.730
1188.00,49.717
1189.00,49.728
1190.00,49.704
1191.00,49.698
1192.00,49.713
1193.00,49.696
1194.00,49.707
1195.00,49.687
1196.00,49.692
1197.00,49.695
1198.00,49.695
1199.00,49.686
1200.00,49.698
1201.00,49.699
1202.00,49.673
1203.00,49.702
1204.00,49.695
1205.00,49.695
1206.00,49.684
1207.00,49.689
1208.00,49.684
1209.00,49.689
1210.00,49.698
1211.00,49.686
1212.00,49.696
1213.00,49.662
1214.00,49.688
1215.00,49.672
1216.00,49.661
1217.00,49.676
1218.00,49.673
1219.00,49.685
1220.00,49.670
1221.00,49.658
1222.00,49.669
1223.00,49.665
1224.00,49.673
1225.00,49.671
1226.00,49.656
1227.00,49.656
1228.00,49.681
1229.00,49.672
1230.00,49.707
1231.00,49.704
1232.00,49.715
1233.00,49.728
1234.00,49.723
1235.00,49.711
1236.00,49.723
1237.00,49.712
1238.00,49.713
1239.00,49.723
1240.00,49.697
1241.00,49.718
1242.00,49.725
1243.00,49.717
1244.00,49.709
1245.00,49.727
1246.00,49.738
1247.00,49.737
1248.00,49.742
1249.00,49.746
1250.00,49.759
1251.00,49.744
1252.00,49.746
1253.00,49.750
1254.00,49.755
1255.00,49.769
1256.00,49.724
1257.00,49.724
1258.00,49.756
1259.00,49.740
1260.00,49.759
1261.00,49.774
1262.00,49.751
1263.00,49.762
1264.00,49.776
1265.00,49.769
1266.00,49.772
1267.00,49.775
1268.00,49.773
1269.00,49.785
1270.00,49.809
1271.00,49.806
1272.00,49.799
1273.00,49.792
1274.00,49.817
1275.00,49.818
1276.00,49.810
1277.00,49.821
1278.00,49.834
1279.00,49.820
1280.00,49.827
1281.00,49.851
1282.00,49.844
1283.00,49.845
1284.00,49.820
1285.00,49.834
1286.00,49.855
1287.00,49.828
1288.00,49.848
1289.00,49.840
1290.00,49.863
1291.00,49.866
1292.00,49.845
1293.00,49.878
1294.00,49.896
1295.00,49.886
1296.00,49.887
1297.00,49.907
1298.00,49.919
1299.00,49.906
1300.00,49.906
1301.00,49.901
1302.00,49.911
1303.00,49.926
1304.00,49.909
1305.00,49.928
1306.00,49.914
1307.00,49.937
1308.00,49.947
1309.00,49.942
1310.00,49.962
1311.00,49.942
1312.00,49.938
1313.00,49.941
1314.00,49.970
1315.00,49.989
1316.00,49.981
1317.00,49.995
1318.00,50.002
1319.00,50.000
1320.00,49.998
1321.00,50.160
1322.00,50.178
1323.00,50.136
1324.00,50.171
1325.00,50.134
1326.00,50.148
1327.00,50.168
1328.00,50.146
1329.00,50.143
1330.00,50.157
1331.00,50.149
1332.00,50.154
1333.00,50.160
1334.00,50.185
1335.00,50.203
1336.00,50.221
1337.00,50.255
1338.00,50.317
1339.00,50.348
1340.00,50.408
1341.00,50.478
1342.00,50.525
1343.00,50.580
1344.00,50.615
1345.00,50.691
1346.00,50.739
1347.00,50.754
1348.00,50.754
1349.00,50.798
1350.00,50.792
1351.00,50.811
1352.00,50.810
1353.00,50.815
1354.00,50.840
1355.00,50.808
1356.00,50.840
1357.00,50.828
1358.00,50.841
1359.00,50.736
1360.00,50.908
1361.00,50.923
1362.00,50.826
1363.00,50.999
1364.00,51.042
1365.00,51.110
1366.00,50.881
1367.00,50.860
1368.00,50.786
1369.00,50.840
1370.00,50.875
1371.00,50.796
1372.00,50.814
1373.00,50.829
1374.00,50.827
1375.00,50.823
1376.00,50.813
1377.00,50.821
1378.00,50.814
1379.00,50.956
1380.00,50.903
1381.00,50.849
1382.00,50.818
1383.00,50.820
1384.00,50.793
1385.00,50.771
1386.00,50.808
1387.00,50.775
1388.00,50.757
1389.00,50.753
1390.00,50.867
1391.00,50.803
1392.00,50.763
1393.00,50.806
1394.00,50.821
1395.00,50.765
1396.00,50.761
1397.00,50.813
1398.00,50.829
1399.00,50.860
1400.00,50.577
1401.00,50.787
1402.00,50.841
1403.00,50.837
1404.00,50.827
1405.00,50.851
1406.00,50.849
1407.00,50.880
1408.00,50.859
1409.00,50.851
1410.00,50.897
1411.00,50.868
1412.00,50.926
1413.00,50.876
1414.00,50.859
1415.00,50.907
1416.00,50.919
1417.00,50.947
1418.00,50.928
1419.00,50.928
1420.00,50.964
1421.00,51.004
1422.00,50.980
1423.00,51.008
1424.00,51.023
1425.00,51.014
1426.00,51.040
1427.00,51.051
1428.00,51.057
1429.00,51.058
1430.00,51.078
1431.00,51.099
1432.00,51.112
1433.00,51.104
1434.00,51.118
1435.00,51.169
1436.00,51.172
1437.00,51.163
1438.00,51.179
1439.00,51.209
1440.00,51.218
1441.00,51.225
1442.00,51.246
1443.00,51.279
1444.00,51.298
1445.00,51.277
1446.00,51.298
1447.00,51.319
1448.00,51.366
1449.00,51.370
1450.00,51.350
1451.00,51.394
1452.00,51.398
1453.00,51.423
1454.00,51.445
1455.00,51.437
1456.00,51.468
1457.00,51.475
1458.00,51.467
1459.00,51.503
1460.00,51.517
1461.00,51.524
1462.00,51.538
1463.00,51.556
1464.00,51.553
1465.00,51.572
1466.00,51.566
1467.00,51.595
1468.00,51.639
1469.00,51.608
1470.00,51.643
1471.00,51.661
1472.00,51.667
1473.00,51.672
1474.00,51.700
1475.00,51.702
1476.00,51.713
1477.00,51.716
1478.00,51.744
1479.00,51.771
1480.00,51.726
1481.00,51.762
1482.00,51.786
1483.00,51.796
1484.00,51.804
1485.00,51.805
1486.00,51.826
1487.00,51.850
1488.00,51.869
1489.00,51.872
1490.00,51.887
1491.00,51.874
1492.00,51.898
1493.00,51.900
1494.00,51.915
1495.00,51.923
1496.00,51.932
1497.00,51.944
1498.00,51.973
1499.00,51.975
1500.00,52.000
1501.00, 
1502.00, 
1503.00, 
1504.00, 
1505.00, 
1506.00, 
1507.00, 
1508.00, 
1509.00, 
1510.00, 
1511.00, 
1512.00, 
1513.00, 
1514.00, 
1515.00, 
1516.00, 
1517.00, 
1518.00, 
1519.00, 
1520.00, 
1521.00, 
1522.00, 
1523.00, 
1524.00, 
1525.00, 
1526.00, 
1527.00, 
1528.00, 
1529.00, 
1530.00, 
1531.00, 
1532.00, 
1533.00, 
1534.00, 
1535.00, 
1536.00, 
1537.00, 
1538.00, 
1539.00, 
1540.00, 
1541.00, 
1542.00, 
1543.00, 
1544.00, 
1545.00, 
1546.00, 
1547.00, 
1548.00, 
1549.00, 
1550.00, 
1551.00, 
1552.00, 
1553.00, 
1554.00, 
1555.00, 
1556.00, 
1557.00, 
1558.00, 
1559.00, 
1560.00, 
1561.00, 
1562.00, 
1563.00, 
1564.00, 
1565.00, 
1566.00, 
1567.00, 
1568.00, 
1569.00, 
1570.00, 
1571.00, 
1572.00, 
1573.00, 
1574.00, 
1575.00, 
1576.00, 
1577.00, 
1578.00, 
1579.00, 
1580.00, 
1581.00, 
1582.00, 
1583.00, 
1584.00, 
1585.00, 
1586.00, 
1587.00, 
1588.00, 
1589.00, 
1590.00, 
1591.00, 
1592.00, 
1593.00, 
1594.00, 
1595.00, 
1596.00, 
1597.00, 
1598.00, 
1599.00, 
1600.00, 
1601.00, 
1602.00, 
1603.00, 
1604.00, 
1605.00, 
1606.00, 
1607.00, 
1608.00, 
1609.00, 
1610.00, 
1611.00, 
1612.00, 
1613.00, 
1614.00, 
1615.00, 
1616.00, 
1617.00, 
1618.00, 
1619.00, 
1620.00, 
1621.00, 
1622.00, 
1623.00, 
1624.00, 
1625.00, 
1626.00, 
1627.00, 
1628.00, 
1629.00, 
1630.00, 
1631.00, 
1632.00, 
1633.00, 
1634.00, 
1635.00, 
1636.00, 
1637.00, 
1638.00, 
1639.00, 
1640.00, 
1641.00, 
1642.00, 
1643.00, 
1644.00, 
1645.00, 
1646.00, 
1647.00, 
1648.00, 
1649.00, 
1650.00, 
1651.00, 
1652.00, 
1653.00, 
1654.00, 
1655.00, 
1656.00, 
1657.00, 
1658.00, 
1659.00, 
1660.00, 
1661.00, 
1662.00, 
1663.00, 
1664.00, 
1665.00, 
1666.00, 
1667.00, 
1668.00, 
1669.00, 
1670.00, 
1671.00, 
1672.00, 
1673.00, 
1674.00, 
1675.00, 
1676.00, 
1677.00, 
1678.00, 
1679.00, 
1680.00, 
1681.00, 
1682.00, 
1683.00, 
1684.00, 
1685.00, 
1686.00, 
1687.00, 
1688.00, 
1689.00, 
1690.00, 
1691.00, 
1692.00, 
1693.00, 
1694.00, 
1695.00, 
1696.00, 
1697.00, 
1698.00, 
1699.00, 
1700.00, 
1701.00, 
1702.00, 
1703.00, 
1704.00, 
1705.00, 
1706.00, 
1707.00, 
1708.00, 
1709.00, 
1710.00, 
1711.00, 
1712.00, 
1713.00, 
1714.00, 
1715.00, 
1716.00, 
1717.00, 
1718.00, 
1719.00, 
1720.00, 
1721.00, 
1722.00, 
1723.00, 
1724.00, 
1725.00, 
1726.00, 
1727.00, 
1728.00, 
1729.00, 
1730.00, 
1731.00, 
1732.00, 
1733.00, 
1734.00, 
1735.00, 
1736.00, 
1737.00, 
1738.00, 
1739.00, 
1740.00, 
1741.00, 
1742.00, 
1743.00, 
1744.00, 
1745.00, 
1746.00, 
1747.00, 
1748.00, 
1749.00, 
1750.00, 
1751.00, 
1752.00, 
1753.00, 
1754.00, 
1755.00, 
1756.00, 
1757.00, 
1758.00, 
1759.00, 
1760.00, 
1761.00, 
1762.00, 
1763.00, 
1764.00, 
1765.00, 
1766.00, 
1767.00, 
1768.00, 
1769.00, 
1770.00, 
1771.00, 
1772.00, 
1773.00, 
1774.00, 
1775.00, 
1776.00, 
1777.00, 
1778.00, 
1779.00, 
1780.00, 
1781.00, 
1782.00, 
1783.00, 
1784.00, 
1785.00, 
1786.00, 
1787.00, 
1788.00, 
1789.00, 
1790.00, 
1791.00, 
1792.00, 
1793.00, 
1794.00, 
1795.00, 
1796.00, 
1797.00, 
1798.00, 
1799.00, 
1800.00, 
1801.00, 
1802.00, 
1803.00, 
1804.00, 
1805.00, 
1806.00, 
1807.00, 
1808.00, 
1809.00, 
1810.00, 
1811.00, 
1812.00, 
1813.00, 
1814.00, 
1815.00, 
1816.00, 
1817.00, 
1818.00, 
1819.00, 
1820.00, 
1821.00, 
1822.00, 
1823.00, 
1824.00, 
1825.00, 
1826.00, 
1827.00, 
1828.00, 
1829.00, 
1830.00, 
1831.00, 
1832.00, 
1833.00, 
1834.00, 
1835.00, 
1836.00, 
1837.00, 
1838.00, 
1839.00, 
1840.00, 
1841.00, 
1842.00, 
1843.00, 
1844.00, 
1845.00, 
1846.00, 
1847.00, 
1848.00, 
1849.00, 
1850.00, 
1851.00, 
1852.00, 
1853.00, 
1854.00, 
1855.00, 
1856.00, 
1857.00, 
1858.00, 
1859.00, 
1860.00, 
1861.00, 
1862.00, 
1863.00, 
1864.00, 
1865.00, 
1866.00, 
1867.00, 
1868.00, 
1869.00, 
1870.00, 
1871.00, 
1872.00, 
1873.00, 
1874.00, 
1875.00, 
1876.00, 
1877.00, 
1878.00, 
1879.00, 
1880.00, 
1881.00, 
1882.00, 
1883.00, 
1884.00, 
1885.00, 
1886.00, 
1887.00, 
1888.00, 
1889.00, 
1890.00, 
1891.00, 
1892.00, 
1893.00, 
1894.00, 
1895.00, 
1896.00, 
1897.00, 
1898.00, 
1899.00, 
1900.00, 
1901.00, 
1902.00, 
1903.00, 
1904.00, 
1905.00, 
1906.00, 
1907.00, 
1908.00, 
1909.00, 
1910.00, 
1911.00, 
1912.00, 
1913.00, 
1914.00, 
1915.00, 
1916.00, 
1917.00, 
1918.00, 
1919.00, 
1920.00, 
1921.00, 
1922.00, 
1923.00, 
1924.00, 
1925.00, 
1926.00, 
1927.00, 
1928.00, 
1929.00, 
1930.00, 
1931.00, 
1932.00, 
1933.00, 
1934.00, 
1935.00, 
1936.00, 
1937.00, 
1938.00, 
1939.00, 
1940.00, 
1941.00, 
1942.00, 
1943.00, 
1944.00, 
1945.00, 
1946.00, 
1947.00, 
1948.00, 
1949.00, 
1950.00, 
1951.00, 
1952.00, 
1953.00, 
1954.00, 
1955.00, 
1956.00, 
1957.00, 
1958.00, 
1959.00, 
1960.00, 
1961.00, 
1962.00, 
1963.00, 
1964.00, 
1965.00, 
1966.00, 
1967.00, 
1968.00, 
1969.00, 
1970.00, 
1971.00, 
1972.00, 
1973.00, 
1974.00, 
1975.00, 
1976.00, 
1977.00, 
1978.00, 
1979.00, 
1980.00, 
1981.00, 
1982.00, 
1983.00, 
1984.00, 
1985.00, 
1986.00, 
1987.00, 
1988.00, 
1989.00, 
1990.00, 
1991.00, 
1992.00, 
1993.00, 
1994.00, 
1995.00, 
1996.00, 
1997.00, 
1998.00, 
1999.00, 
2000.00, 
2001.00, 
2002.00, 
2003.00, 
2004.00, 
2005.00, 
2006.00, 
2007.00, 
2008.00, 
2009.00, 
2010.00, 
2011.00, 
2012.00, 
2013.00, 
2014.00, 
2015.00, 
2016.00, 
2017.00, 
2018.00, 
2019.00, 
2020.00, 
2021.00, 
2022.00, 
2023.00, 
2024.00, 
2025.00, 
2026.00, 
2027.00, 
2028.00, 
2029.00, 
2030.00, 
2031.00, 
2032.00, 
2033.00, 
2034.00, 
2035.00, 
2036.00, 
2037.00, 
2038.00, 
2039.00, 
2040.00, 
2041.00, 
2042.00, 
2043.00, 
2044.00, 
2045.00, 
2046.00, 
2047.00, 
2048.00, 
2049.00, 
2050.00, 
2051.00, 
2052.00, 
2053.00, 
2054.00, 
2055.00, 
2056.00, 
2057.00, 
2058.00, 
2059.00, 
2060.00, 
2061.00, 
2062.00, 
2063.00, 
2064.00, 
2065.00, 
2066.00, 
2067.00, 
2068.00, 
2069.00, 
2070.00, 
2071.00, 
2072.00, 
2073.00, 
2074.00, 
2075.00, 
2076.00, 
2077.00, 
2078.00, 
2079.00, 
2080.00, 
2081.00, 
2082.00, 
2083.00, 
2084.00, 
2085.00, 
2086.00, 
2087.00, 
2088.00, 
2089.00, 
2090.00, 
2091.00, 
2092.00, 
2093.00, 
2094.00, 
2095.00, 
2096.00, 
2097.00, 
2098.00, 
2099.00, 
2100.00, 
2101.00, 
2102.00, 
2103.00, 
2104.00, 
2105.00, 
2106.00, 
2107.00, 
2108.00, 
2109.00, 
2110.00, 
2111.00, 
2112.00, 
2113.00, 
2114.00, 
2115.00, 
2116.00, 
2117.00, 
2118.00, 
2119.00, 
2120.00, 
2121.00, 
2122.00, 
2123.00, 
2124.00, 
2125.00, 
2126.00, 
2127.00, 
2128.00, 
2129.00, 
2130.00, 
2131.00, 
2132.00, 
2133.00, 
2134.00, 
2135.00, 
2136.00, 
2137.00, 
2138.00, 
2139.00, 
2140.00, 
2141.00, 
2142.00, 
2143.00, 
2144.00, 
2145.00, 
2146.00, 
2147.00, 
2148.00, 
2149.00, 
2150.00, 
2151.00, 
2152.00, 
2153.00, 
2154.00, 
2155.00, 
2156.00, 
2157.00, 
2158.00, 
2159.00, 
2160.00, 
2161.00, 
2162.00, 
2163.00, 
2164.00, 
2165.00, 
2166.00, 
2167.00, 
2168.00, 
2169.00, 
2170.00, 
2171.00, 
2172.00, 
2173.00, 
2174.00, 
2175.00, 
2176.00, 
2177.00, 
2178.00, 
2179.00, 
2180.00, 
2181.00, 
2182.00, 
2183.00, 
2184.00, 
2185.00, 
2186.00, 
2187.00, 
2188.00, 
2189.00, 
2190.00, 
2191.00, 
2192.00, 
2193.00, 
2194.00, 
2195.00, 
2196.00, 
2197.00, 
2198.00, 
2199.00, 
2200.00, 
2201.00, 
2202.00, 
2203.00, 
2204.00, 
2205.00, 
2206.00, 
2207.00, 
2208.00, 
2209.00, 
2210.00, 
2211.00, 
2212.00, 
2213.00, 
2214.00, 
2215.00, 
2216.00, 
2217.00, 
2218.00, 
2219.00, 
2220.00, 
2221.00, 
2222.00, 
2223.00, 
2224.00, 
2225.00, 
2226.00, 
2227.00, 
2228.00, 
2229.00, 
2230.00, 
2231.00, 
2232.00, 
2233.00, 
2234.00, 
2235.00, 
2236.00, 
2237.00, 
2238.00, 
2239.00, 
2240.00, 
2241.00, 
2242.00, 
2243.00, 
2244.00, 
2245.00, 
2246.00, 
2247.00, 
2248.00, 
2249.00, 
2250.00, 
2251.00, 
2252.00, 
2253.00, 
2254.00, 
2255.00, 
2256.00, 
2257.00, 
2258.00, 
2259.00, 
2260.00, 
2261.00, 
2262.00, 
2263.00, 
2264.00, 
2265.00, 
2266.00, 
2267.00, 
2268.00, 
2269.00, 
2270.00, 
2271.00, 
2272.00, 
2273.00, 
2274.00, 
2275.00, 
2276.00, 
2277.00, 
2278.00, 
2279.00, 
2280.00, 
2281.00, 
2282.00, 
2283.00, 
2284.00, 
2285.00, 
2286.00, 
2287.00, 
2288.00, 
2289.00, 
2290.00, 
2291.00, 
2292.00, 
2293.00, 
2294.00, 
2295.00, 
2296.00, 
2297.00, 
2298.00, 
2299.00, 
2300.00, 
2301.00, 
2302.00, 
2303.00, 
2304.00, 
2305.00, 
2306.00, 
2307.00, 
2308.00, 
2309.00, 
2310.00, 
2311.00, 
2312.00, 
2313.00, 
2314.00, 
2315.00, 
2316.00, 
2317.00, 
2318.00, 
2319.00, 
2320.00, 
2321.00, 
2322.00, 
2323.00, 
2324.00, 
2325.00, 
2326.00, 
2327.00, 
2328.00, 
2329.00, 
2330.00, 
2331.00, 
2332.00, 
2333.00, 
2334.00, 
2335.00, 
2336.00, 
2337.00, 
2338.00, 
2339.00, 
2340.00, 
2341.00, 
2342.00, 
2343.00, 
2344.00, 
2345.00, 
2346.00, 
2347.00, 
2348.00, 
2349.00, 
2350.00, 
2351.00, 
2352.00, 
2353.00, 
2354.00, 
2355.00, 
2356.00, 
2357.00, 
2358.00, 
2359.00, 
2360.00, 
2361.00, 
2362.00, 
2363.00, 
2364.00, 
2365.00, 
2366.00, 
2367.00, 
2368.00, 
2369.00, 
2370.00, 
2371.00, 
2372.00, 
2373.00, 
2374.00, 
2375.00, 
2376.00, 
2377.00, 
2378.00, 
2379.00, 
2380.00, 
2381.00, 
2382.00, 
2383.00, 
2384.00, 
2385.00, 
2386.00, 
2387.00, 
2388.00, 
2389.00, 
2390.00, 
2391.00, 
2392.00, 
2393.00, 
2394.00, 
2395.00, 
2396.00, 
2397.00, 
2398.00, 
2399.00, 
2400.00, 
2401.00, 
2402.00, 
2403.00, 
2404.00, 
2405.00, 
2406.00, 
2407.00, 
2408.00, 
2409.00, 
2410.00, 
2411.00, 
2412.00, 
2413.00, 
2414.00, 
2415.00, 
2416.00, 
2417.00, 
2418.00, 
2419.00, 
2420.00, 
2421.00, 
2422.00, 
2423.00, 
2424.00, 
2425.00, 
2426.00, 
2427.00, 
2428.00, 
2429.00, 
2430.00, 
2431.00, 
2432.00, 
2433.00, 
2434.00, 
2435.00, 
2436.00, 
2437.00, 
2438.00, 
2439.00, 
2440.00, 
2441.00, 
2442.00, 
2443.00, 
2444.00, 
2445.00, 
2446.00, 
2447.00, 
2448.00, 
2449.00, 
2450.00, 
2451.00, 
2452.00, 
2453.00, 
2454.00, 
2455.00, 
2456.00, 
2457.00, 
2458.00, 
2459.00, 
2460.00, 
2461.00, 
2462.00, 
2463.00, 
2464.00, 
2465.00, 
2466.00, 
2467.00, 
2468.00, 
2469.00, 
2470.00, 
2471.00, 
2472.00, 
2473.00, 
2474.00, 
2475.00, 
2476.00, 
2477.00, 
2478.00, 
2479.00, 
2480.00, 
2481.00, 
2482.00, 
2483.00, 
2484.00, 
2485.00, 
2486.00, 
2487.00, 
2488.00, 
2489.00, 
2490.00, 
2491.00, 
2492.00, 
2493.00, 
2494.00, 
2495.00, 
2496.00, 
2497.00, 
2498.00, 
2499.00, 
2500.00, 
2501.00, 
2502.00, 
2503.00, 
2504.00, 
2505.00, 
2506.00, 
2507.00, 
2508.00, 
2509.00, 
2510.00, 
2511.00, 
2512.00, 
2513.00, 
2514.00, 
2515.00, 
2516.00, 
2517.00, 
2518.00, 
2519.00, 
2520.00, 
2521.00, 
2522.00, 
2523.00, 
2524.00, 
2525.00, 
2526.00, 
2527.00, 
2528.00, 
2529.00, 
2530.00, 
2531.00, 
2532.00, 
2533.00, 
2534.00, 
2535.00, 
2536.00, 
2537.00, 
2538.00, 
2539.00, 
2540.00, 
2541.00, 
2542.00, 
2543.00, 
2544.00, 
2545.00, 
2546.00, 
2547.00, 
2548.00, 
2549.00, 
2550.00, 
2551.00, 
2552.00, 
2553.00, 
2554.00, 
2555.00, 
2556.00, 
2557.00, 
2558.00, 
2559.00, 
2560.00, 
2561.00, 
2562.00, 
2563.00, 
2564.00, 
2565.00, 
2566.00, 
2567.00, 
2568.00, 
2569.00, 
2570.00, 
2571.00, 
2572.00, 
2573.00, 
2574.00, 
2575.00, 
2576.00, 
2577.00, 
2578.00, 
2579.00, 
2580.00, 
2581.00, 
2582.00, 
2583.00, 
2584.00, 
2585.00, 
2586.00, 
2587.00, 
2588.00, 
2589.00, 
2590.00, 
2591.00, 
2592.00, 
2593.00, 
2594.00, 
2595.00, 
2596.00, 
2597.00, 
2598.00, 
2599.00, 
2600.00, 
