"2aP2 - RawData"
"Wavelength nm.","T%"
200.00,0.005
201.00,0.002
202.00,0.001
203.00,0.002
204.00,0.000
205.00,-0.001
206.00,0.001
207.00,0.002
208.00,0.002
209.00,0.000
210.00,-0.001
211.00,0.000
212.00,0.003
213.00,0.003
214.00,0.000
215.00,0.002
216.00,0.001
217.00,0.006
218.00,0.003
219.00,0.003
220.00,0.004
221.00,0.004
222.00,0.003
223.00,0.001
224.00,-0.000
225.00,0.002
226.00,0.002
227.00,0.003
228.00,0.000
229.00,0.004
230.00,0.001
231.00,0.002
232.00,0.004
233.00,0.006
234.00,0.002
235.00,0.003
236.00,0.002
237.00,0.003
238.00,0.001
239.00,0.003
240.00,0.002
241.00,0.002
242.00,0.001
243.00,0.001
244.00,0.001
245.00,0.002
246.00,0.002
247.00,0.001
248.00,0.001
249.00,0.001
250.00,0.003
251.00,0.000
252.00,0.001
253.00,0.003
254.00,0.000
255.00,0.000
256.00,-0.002
257.00,0.001
258.00,-0.001
259.00,-0.001
260.00,-0.000
261.00,0.001
262.00,0.002
263.00,0.001
264.00,0.001
265.00,0.002
266.00,0.001
267.00,0.001
268.00,0.002
269.00,0.000
270.00,0.000
271.00,-0.000
272.00,0.001
273.00,0.002
274.00,0.000
275.00,-0.000
276.00,0.002
277.00,0.000
278.00,0.001
279.00,0.002
280.00,0.001
281.00,0.001
282.00,0.000
283.00,0.000
284.00,-0.000
285.00,0.000
286.00,0.001
287.00,0.002
288.00,0.000
289.00,0.001
290.00,0.001
291.00,0.000
292.00,0.001
293.00,0.001
294.00,0.001
295.00,0.001
296.00,0.002
297.00,0.001
298.00,0.002
299.00,0.002
300.00,0.002
301.00,0.006
302.00,0.005
303.00,0.009
304.00,0.015
305.00,0.023
306.00,0.035
307.00,0.049
308.00,0.077
309.00,0.119
310.00,0.165
311.00,0.215
312.00,0.297
313.00,0.401
314.00,0.533
315.00,0.684
316.00,0.882
317.00,1.117
318.00,1.367
319.00,1.688
320.00,2.043
321.00,2.441
322.00,2.885
323.00,3.398
324.00,3.926
325.00,4.482
326.00,5.072
327.00,5.726
328.00,6.381
329.00,7.058
330.00,7.734
331.00,8.416
332.00,9.172
333.00,9.944
334.00,10.640
335.00,11.436
336.00,12.132
337.00,12.927
338.00,13.631
339.00,14.296
340.00,15.025
341.00,15.659
342.00,16.258
343.00,16.940
344.00,17.490
345.00,18.070
346.00,18.529
347.00,19.097
348.00,19.597
349.00,20.058
350.00,20.476
351.00,20.863
352.00,21.242
353.00,21.596
354.00,21.945
355.00,22.242
356.00,22.579
357.00,22.865
358.00,23.114
359.00,23.235
360.00,23.511
361.00,23.701
362.00,23.901
363.00,24.049
364.00,24.272
365.00,24.411
366.00,24.516
367.00,24.617
368.00,24.710
369.00,24.778
370.00,24.821
371.00,24.905
372.00,24.912
373.00,24.893
374.00,24.887
375.00,24.821
376.00,24.864
377.00,24.862
378.00,24.790
379.00,24.791
380.00,24.740
381.00,24.753
382.00,24.751
383.00,24.807
384.00,24.819
385.00,24.882
386.00,24.898
387.00,24.937
388.00,25.006
389.00,25.049
390.00,25.103
391.00,25.139
392.00,25.198
393.00,25.240
394.00,25.198
395.00,25.239
396.00,25.227
397.00,25.240
398.00,25.284
399.00,25.299
400.00,25.339
401.00,25.360
402.00,25.309
403.00,25.307
404.00,25.281
405.00,25.339
406.00,25.361
407.00,25.310
408.00,25.317
409.00,25.276
410.00,25.225
411.00,25.260
412.00,25.249
413.00,25.240
414.00,25.275
415.00,25.246
416.00,25.255
417.00,25.368
418.00,25.396
419.00,25.405
420.00,25.373
421.00,25.468
422.00,25.535
423.00,25.518
424.00,25.567
425.00,25.595
426.00,25.692
427.00,25.720
428.00,25.800
429.00,25.824
430.00,25.786
431.00,25.807
432.00,25.947
433.00,26.068
434.00,26.103
435.00,26.171
436.00,26.241
437.00,26.339
438.00,26.398
439.00,26.461
440.00,26.577
441.00,26.633
442.00,26.728
443.00,26.791
444.00,26.887
445.00,26.962
446.00,27.063
447.00,27.209
448.00,27.261
449.00,27.358
450.00,27.449
451.00,27.575
452.00,27.694
453.00,27.779
454.00,27.938
455.00,28.081
456.00,28.138
457.00,28.285
458.00,28.435
459.00,28.557
460.00,28.657
461.00,28.795
462.00,28.947
463.00,29.002
464.00,29.202
465.00,29.315
466.00,29.415
467.00,29.531
468.00,29.655
469.00,29.825
470.00,29.921
471.00,30.073
472.00,30.190
473.00,30.283
474.00,30.345
475.00,30.499
476.00,30.561
477.00,30.713
478.00,30.880
479.00,30.937
480.00,31.195
481.00,31.279
482.00,31.428
483.00,31.507
484.00,31.627
485.00,31.902
486.00,31.980
487.00,32.094
488.00,32.196
489.00,32.451
490.00,32.539
491.00,32.712
492.00,32.910
493.00,32.893
494.00,32.983
495.00,33.153
496.00,33.275
497.00,33.417
498.00,33.573
499.00,33.726
500.00,33.735
501.00,33.903
502.00,34.045
503.00,34.144
504.00,34.301
505.00,34.422
506.00,34.550
507.00,34.649
508.00,34.730
509.00,34.881
510.00,34.955
511.00,35.088
512.00,35.188
513.00,35.339
514.00,35.457
515.00,35.596
516.00,35.698
517.00,35.822
518.00,35.926
519.00,36.040
520.00,36.149
521.00,36.187
522.00,36.265
523.00,36.411
524.00,36.445
525.00,36.527
526.00,36.671
527.00,36.698
528.00,36.794
529.00,36.805
530.00,36.816
531.00,37.049
532.00,37.116
533.00,37.123
534.00,37.265
535.00,37.366
536.00,37.462
537.00,37.476
538.00,37.626
539.00,37.728
540.00,37.694
541.00,37.812
542.00,37.881
543.00,37.912
544.00,37.977
545.00,37.987
546.00,38.059
547.00,38.130
548.00,38.185
549.00,38.302
550.00,38.329
551.00,38.375
552.00,38.448
553.00,38.588
554.00,38.690
555.00,38.642
556.00,38.736
557.00,38.793
558.00,38.718
559.00,38.877
560.00,39.004
561.00,38.982
562.00,39.086
563.00,39.087
564.00,39.113
565.00,39.172
566.00,39.253
567.00,39.258
568.00,39.287
569.00,39.274
570.00,39.267
571.00,39.344
572.00,39.392
573.00,39.487
574.00,39.515
575.00,39.552
576.00,39.584
577.00,39.629
578.00,39.617
579.00,39.703
580.00,39.773
581.00,39.804
582.00,39.960
583.00,39.934
584.00,40.085
585.00,40.069
586.00,40.035
587.00,40.167
588.00,40.146
589.00,40.231
590.00,40.285
591.00,40.326
592.00,40.370
593.00,40.386
594.00,40.423
595.00,40.366
596.00,40.511
597.00,40.584
598.00,40.648
599.00,40.671
600.00,40.714
601.00,40.834
602.00,40.895
603.00,40.947
604.00,40.933
605.00,40.987
606.00,41.114
607.00,41.041
608.00,41.004
609.00,40.968
610.00,41.144
611.00,41.128
612.00,41.261
613.00,41.238
614.00,41.289
615.00,41.249
616.00,41.260
617.00,41.408
618.00,41.539
619.00,41.563
620.00,41.601
621.00,41.617
622.00,41.653
623.00,41.704
624.00,41.766
625.00,41.840
626.00,41.855
627.00,41.946
628.00,42.014
629.00,42.095
630.00,42.174
631.00,42.131
632.00,42.266
633.00,42.316
634.00,42.346
635.00,42.386
636.00,42.587
637.00,42.715
638.00,42.790
639.00,42.746
640.00,42.841
641.00,42.892
642.00,42.918
643.00,43.038
644.00,43.144
645.00,43.147
646.00,43.208
647.00,43.322
648.00,43.348
649.00,43.555
650.00,43.454
651.00,43.544
652.00,43.630
653.00,43.857
654.00,43.891
655.00,43.796
656.00,43.716
657.00,44.185
658.00,44.163
659.00,44.207
660.00,44.308
661.00,44.369
662.00,44.669
663.00,44.502
664.00,44.591
665.00,44.562
666.00,44.757
667.00,45.041
668.00,44.867
669.00,45.092
670.00,45.097
671.00,45.196
672.00,45.289
673.00,45.534
674.00,45.391
675.00,45.391
676.00,45.551
677.00,45.761
678.00,45.814
679.00,45.874
680.00,45.889
681.00,45.905
682.00,46.250
683.00,46.314
684.00,46.387
685.00,46.484
686.00,46.689
687.00,46.730
688.00,46.673
689.00,46.512
690.00,46.670
691.00,46.815
692.00,47.064
693.00,47.075
694.00,46.984
695.00,47.013
696.00,47.104
697.00,47.415
698.00,47.505
699.00,47.488
700.00,47.709
701.00,47.876
702.00,47.840
703.00,47.797
704.00,47.926
705.00,48.116
706.00,48.132
707.00,48.051
708.00,48.144
709.00,48.221
710.00,48.393
711.00,48.416
712.00,48.527
713.00,48.450
714.00,48.406
715.00,48.671
716.00,48.724
717.00,48.656
718.00,48.696
719.00,48.812
720.00,48.959
721.00,53.112
722.00,53.114
723.00,53.160
724.00,53.166
725.00,53.181
726.00,53.245
727.00,53.132
728.00,53.195
729.00,53.135
730.00,53.312
731.00,53.320
732.00,53.351
733.00,53.355
734.00,53.410
735.00,53.386
736.00,53.434
737.00,53.499
738.00,53.515
739.00,53.580
740.00,53.595
741.00,53.613
742.00,53.613
743.00,53.524
744.00,53.563
745.00,53.650
746.00,53.547
747.00,53.594
748.00,53.633
749.00,53.629
750.00,53.626
751.00,53.631
752.00,53.641
753.00,53.544
754.00,53.590
755.00,53.571
756.00,53.550
757.00,53.596
758.00,53.578
759.00,53.725
760.00,53.707
761.00,53.621
762.00,53.637
763.00,53.666
764.00,53.722
765.00,53.642
766.00,53.738
767.00,53.731
768.00,53.657
769.00,53.650
770.00,53.733
771.00,53.708
772.00,53.741
773.00,53.745
774.00,53.775
775.00,53.841
776.00,53.737
777.00,53.830
778.00,53.802
779.00,53.810
780.00,53.774
781.00,53.722
782.00,53.711
783.00,53.718
784.00,53.704
785.00,53.732
786.00,53.752
787.00,53.704
788.00,53.673
789.00,53.796
790.00,53.667
791.00,53.684
792.00,53.630
793.00,53.679
794.00,53.613
795.00,53.635
796.00,53.600
797.00,53.600
798.00,53.639
799.00,53.561
800.00,53.617
801.00,53.574
802.00,53.513
803.00,53.567
804.00,53.503
805.00,53.488
806.00,53.405
807.00,53.461
808.00,53.434
809.00,53.370
810.00,53.515
811.00,53.450
812.00,53.431
813.00,53.393
814.00,53.423
815.00,53.365
816.00,53.329
817.00,53.384
818.00,53.278
819.00,53.354
820.00,53.228
821.00,53.307
822.00,53.213
823.00,53.167
824.00,53.232
825.00,53.073
826.00,53.094
827.00,53.126
828.00,53.129
829.00,53.179
830.00,53.087
831.00,55.312
832.00,55.305
833.00,55.264
834.00,55.216
835.00,55.212
836.00,55.243
837.00,55.217
838.00,55.188
839.00,55.166
840.00,55.124
841.00,55.209
842.00,55.123
843.00,55.072
844.00,55.089
845.00,55.035
846.00,55.033
847.00,55.007
848.00,55.016
849.00,54.986
850.00,54.902
851.00,54.853
852.00,54.863
853.00,54.831
854.00,54.824
855.00,54.707
856.00,54.732
857.00,54.726
858.00,54.733
859.00,54.701
860.00,54.689
861.00,54.666
862.00,54.632
863.00,54.637
864.00,54.636
865.00,54.599
866.00,54.606
867.00,54.586
868.00,54.561
869.00,54.594
870.00,54.501
871.00,54.530
872.00,54.540
873.00,54.529
874.00,54.552
875.00,54.512
876.00,54.502
877.00,54.491
878.00,54.490
879.00,54.454
880.00,54.458
881.00,54.414
882.00,54.442
883.00,54.372
884.00,54.357
885.00,54.334
886.00,54.337
887.00,54.309
888.00,54.287
889.00,54.270
890.00,54.228
891.00,54.222
892.00,54.234
893.00,54.193
894.00,54.171
895.00,54.167
896.00,54.131
897.00,54.120
898.00,54.086
899.00,54.080
900.00,54.075
901.00,54.067
902.00,54.078
903.00,54.066
904.00,54.038
905.00,54.002
906.00,54.014
907.00,53.987
908.00,53.953
909.00,53.944
910.00,53.921
911.00,53.883
912.00,53.886
913.00,53.885
914.00,53.756
915.00,53.812
916.00,53.756
917.00,53.720
918.00,53.723
919.00,53.707
920.00,53.692
921.00,53.699
922.00,53.661
923.00,53.643
924.00,53.638
925.00,53.618
926.00,53.609
927.00,53.554
928.00,53.558
929.00,53.544
930.00,53.515
931.00,53.508
932.00,53.478
933.00,53.449
934.00,53.454
935.00,53.429
936.00,53.408
937.00,53.374
938.00,53.385
939.00,53.373
940.00,53.328
941.00,53.312
942.00,53.265
943.00,53.305
944.00,53.199
945.00,53.217
946.00,53.237
947.00,53.208
948.00,53.183
949.00,53.155
950.00,53.165
951.00,53.155
952.00,53.099
953.00,53.088
954.00,53.074
955.00,53.018
956.00,52.991
957.00,52.979
958.00,52.963
959.00,52.915
960.00,52.911
961.00,52.882
962.00,52.897
963.00,52.844
964.00,52.877
965.00,52.850
966.00,52.832
967.00,52.824
968.00,52.830
969.00,52.826
970.00,52.798
971.00,52.823
972.00,52.764
973.00,52.813
974.00,52.825
975.00,52.823
976.00,52.834
977.00,52.803
978.00,52.856
979.00,52.787
980.00,52.816
981.00,52.812
982.00,52.783
983.00,52.752
984.00,52.748
985.00,52.781
986.00,52.751
987.00,52.772
988.00,52.740
989.00,52.765
990.00,52.729
991.00,52.697
992.00,52.715
993.00,52.661
994.00,52.678
995.00,52.649
996.00,52.637
997.00,52.633
998.00,52.619
999.00,52.634
1000.00,52.589
1001.00,52.598
1002.00,52.564
1003.00,52.583
1004.00,52.554
1005.00,52.518
1006.00,52.548
1007.00,52.498
1008.00,52.513
1009.00,52.485
1010.00,52.472
1011.00,52.461
1012.00,52.447
1013.00,52.453
1014.00,52.399
1015.00,52.413
1016.00,52.368
1017.00,52.370
1018.00,52.361
1019.00,52.357
1020.00,52.342
1021.00,52.308
1022.00,52.309
1023.00,52.265
1024.00,52.248
1025.00,52.222
1026.00,52.229
1027.00,52.186
1028.00,52.189
1029.00,52.182
1030.00,52.153
1031.00,52.170
1032.00,52.121
1033.00,52.132
1034.00,52.081
1035.00,52.067
1036.00,52.044
1037.00,52.027
1038.00,51.980
1039.00,51.956
1040.00,51.951
1041.00,51.915
1042.00,51.924
1043.00,51.874
1044.00,51.941
1045.00,51.914
1046.00,51.957
1047.00,51.966
1048.00,51.949
1049.00,51.936
1050.00,51.950
1051.00,51.971
1052.00,51.985
1053.00,52.009
1054.00,51.992
1055.00,52.002
1056.00,52.005
1057.00,52.008
1058.00,51.998
1059.00,51.997
1060.00,52.004
1061.00,52.001
1062.00,51.975
1063.00,51.991
1064.00,51.975
1065.00,51.969
1066.00,51.974
1067.00,51.977
1068.00,51.958
1069.00,51.933
1070.00,51.925
1071.00,51.896
1072.00,51.922
1073.00,51.879
1074.00,51.888
1075.00,51.875
1076.00,51.879
1077.00,51.869
1078.00,51.850
1079.00,51.840
1080.00,51.856
1081.00,51.815
1082.00,51.843
1083.00,51.865
1084.00,51.797
1085.00,51.793
1086.00,51.802
1087.00,51.773
1088.00,51.765
1089.00,51.742
1090.00,51.753
1091.00,51.752
1092.00,51.741
1093.00,51.716
1094.00,51.710
1095.00,51.697
1096.00,51.699
1097.00,51.710
1098.00,51.689
1099.00,51.672
1100.00,51.673
1101.00,51.645
1102.00,51.638
1103.00,51.631
1104.00,51.629
1105.00,51.609
1106.00,51.595
1107.00,51.601
1108.00,51.600
1109.00,51.576
1110.00,51.564
1111.00,51.561
1112.00,51.554
1113.00,51.528
1114.00,51.527
1115.00,51.517
1116.00,51.523
1117.00,51.468
1118.00,51.470
1119.00,51.485
1120.00,51.484
1121.00,51.449
1122.00,51.456
1123.00,51.463
1124.00,51.449
1125.00,51.427
1126.00,51.441
1127.00,51.439
1128.00,51.415
1129.00,51.396
1130.00,51.420
1131.00,51.405
1132.00,51.390
1133.00,51.375
1134.00,51.377
1135.00,51.340
1136.00,51.360
1137.00,51.365
1138.00,51.366
1139.00,51.345
1140.00,51.346
1141.00,51.340
1142.00,51.322
1143.00,51.353
1144.00,51.344
1145.00,51.315
1146.00,51.312
1147.00,51.323
1148.00,51.300
1149.00,51.315
1150.00,51.316
1151.00,51.319
1152.00,51.312
1153.00,51.306
1154.00,51.291
1155.00,51.291
1156.00,51.281
1157.00,51.276
1158.00,51.257
1159.00,51.267
1160.00,51.253
1161.00,51.282
1162.00,51.289
1163.00,51.313
1164.00,51.279
1165.00,51.266
1166.00,51.285
1167.00,51.281
1168.00,51.284
1169.00,51.265
1170.00,51.266
1171.00,51.265
1172.00,51.245
1173.00,51.233
1174.00,51.268
1175.00,51.242
1176.00,51.244
1177.00,51.255
1178.00,51.244
1179.00,51.236
1180.00,51.232
1181.00,51.231
1182.00,51.228
1183.00,51.195
1184.00,51.184
1185.00,51.223
1186.00,51.176
1187.00,51.219
1188.00,51.195
1189.00,51.224
1190.00,51.223
1191.00,51.207
1192.00,51.224
1193.00,51.216
1194.00,51.213
1195.00,51.190
1196.00,51.234
1197.00,51.215
1198.00,51.221
1199.00,51.219
1200.00,51.214
1201.00,51.201
1202.00,51.209
1203.00,51.213
1204.00,51.213
1205.00,51.227
1206.00,51.189
1207.00,51.223
1208.00,51.186
1209.00,51.196
1210.00,51.203
1211.00,51.194
1212.00,51.199
1213.00,51.154
1214.00,51.189
1215.00,51.171
1216.00,51.152
1217.00,51.178
1218.00,51.192
1219.00,51.187
1220.00,51.169
1221.00,51.202
1222.00,51.181
1223.00,51.187
1224.00,51.179
1225.00,51.178
1226.00,51.192
1227.00,51.172
1228.00,51.201
1229.00,51.218
1230.00,51.234
1231.00,51.214
1232.00,51.241
1233.00,51.234
1234.00,51.237
1235.00,51.239
1236.00,51.228
1237.00,51.219
1238.00,51.226
1239.00,51.220
1240.00,51.238
1241.00,51.237
1242.00,51.222
1243.00,51.247
1244.00,51.233
1245.00,51.261
1246.00,51.247
1247.00,51.245
1248.00,51.237
1249.00,51.241
1250.00,51.263
1251.00,51.260
1252.00,51.274
1253.00,51.253
1254.00,51.275
1255.00,51.292
1256.00,51.259
1257.00,51.235
1258.00,51.272
1259.00,51.275
1260.00,51.277
1261.00,51.282
1262.00,51.307
1263.00,51.277
1264.00,51.292
1265.00,51.309
1266.00,51.315
1267.00,51.300
1268.00,51.309
1269.00,51.301
1270.00,51.331
1271.00,51.308
1272.00,51.324
1273.00,51.351
1274.00,51.330
1275.00,51.320
1276.00,51.350
1277.00,51.347
1278.00,51.346
1279.00,51.336
1280.00,51.329
1281.00,51.354
1282.00,51.361
1283.00,51.337
1284.00,51.356
1285.00,51.346
1286.00,51.357
1287.00,51.361
1288.00,51.386
1289.00,51.371
1290.00,51.389
1291.00,51.389
1292.00,51.401
1293.00,51.390
1294.00,51.396
1295.00,51.431
1296.00,51.414
1297.00,51.408
1298.00,51.446
1299.00,51.435
1300.00,51.449
1301.00,51.443
1302.00,51.448
1303.00,51.479
1304.00,51.435
1305.00,51.456
1306.00,51.473
1307.00,51.467
1308.00,51.470
1309.00,51.477
1310.00,51.497
1311.00,51.495
1312.00,51.499
1313.00,51.494
1314.00,51.516
1315.00,51.512
1316.00,51.536
1317.00,51.561
1318.00,51.554
1319.00,51.557
1320.00,51.578
1321.00,51.699
1322.00,51.710
1323.00,51.703
1324.00,51.698
1325.00,51.659
1326.00,51.674
1327.00,51.645
1328.00,51.656
1329.00,51.634
1330.00,51.678
1331.00,51.678
1332.00,51.691
1333.00,51.678
1334.00,51.721
1335.00,51.746
1336.00,51.769
1337.00,51.794
1338.00,51.864
1339.00,51.898
1340.00,51.964
1341.00,52.020
1342.00,52.088
1343.00,52.129
1344.00,52.179
1345.00,52.192
1346.00,52.255
1347.00,52.260
1348.00,52.253
1349.00,52.261
1350.00,52.303
1351.00,52.339
1352.00,52.329
1353.00,52.360
1354.00,52.364
1355.00,52.299
1356.00,52.393
1357.00,52.366
1358.00,52.415
1359.00,52.307
1360.00,52.457
1361.00,52.505
1362.00,52.425
1363.00,52.379
1364.00,52.276
1365.00,52.415
1366.00,52.435
1367.00,52.416
1368.00,52.458
1369.00,52.449
1370.00,52.361
1371.00,52.375
1372.00,52.318
1373.00,52.368
1374.00,52.407
1375.00,52.402
1376.00,52.398
1377.00,52.372
1378.00,52.415
1379.00,52.388
1380.00,52.440
1381.00,52.409
1382.00,52.454
1383.00,52.418
1384.00,52.322
1385.00,52.284
1386.00,52.408
1387.00,52.208
1388.00,52.420
1389.00,52.358
1390.00,52.303
1391.00,52.359
1392.00,52.381
1393.00,52.503
1394.00,52.412
1395.00,52.329
1396.00,52.368
1397.00,52.472
1398.00,52.322
1399.00,52.397
1400.00,52.402
1401.00,52.399
1402.00,52.416
1403.00,52.426
1404.00,52.394
1405.00,52.415
1406.00,52.407
1407.00,52.404
1408.00,52.425
1409.00,52.424
1410.00,52.473
1411.00,52.415
1412.00,52.549
1413.00,52.484
1414.00,52.413
1415.00,52.443
1416.00,52.496
1417.00,52.555
1418.00,52.529
1419.00,52.482
1420.00,52.519
1421.00,52.590
1422.00,52.590
1423.00,52.560
1424.00,52.584
1425.00,52.578
1426.00,52.581
1427.00,52.610
1428.00,52.626
1429.00,52.600
1430.00,52.683
1431.00,52.678
1432.00,52.661
1433.00,52.700
1434.00,52.665
1435.00,52.733
1436.00,52.741
1437.00,52.722
1438.00,52.738
1439.00,52.775
1440.00,52.785
1441.00,52.797
1442.00,52.787
1443.00,52.832
1444.00,52.885
1445.00,52.834
1446.00,52.837
1447.00,52.883
1448.00,52.901
1449.00,52.931
1450.00,52.931
1451.00,52.952
1452.00,52.938
1453.00,52.941
1454.00,52.974
1455.00,53.006
1456.00,53.018
1457.00,53.011
1458.00,53.018
1459.00,53.028
1460.00,53.024
1461.00,53.054
1462.00,53.093
1463.00,53.115
1464.00,53.148
1465.00,53.155
1466.00,53.155
1467.00,53.151
1468.00,53.244
1469.00,53.210
1470.00,53.209
1471.00,53.227
1472.00,53.224
1473.00,53.254
1474.00,53.281
1475.00,53.273
1476.00,53.312
1477.00,53.300
1478.00,53.310
1479.00,53.349
1480.00,53.367
1481.00,53.344
1482.00,53.353
1483.00,53.395
1484.00,53.398
1485.00,53.407
1486.00,53.399
1487.00,53.444
1488.00,53.450
1489.00,53.451
1490.00,53.457
1491.00,53.472
1492.00,53.485
1493.00,53.484
1494.00,53.506
1495.00,53.513
1496.00,53.522
1497.00,53.536
1498.00,53.549
1499.00,53.570
1500.00,53.582
1501.00, 
1502.00, 
1503.00, 
1504.00, 
1505.00, 
1506.00, 
1507.00, 
1508.00, 
1509.00, 
1510.00, 
1511.00, 
1512.00, 
1513.00, 
1514.00, 
1515.00, 
1516.00, 
1517.00, 
1518.00, 
1519.00, 
1520.00, 
1521.00, 
1522.00, 
1523.00, 
1524.00, 
1525.00, 
1526.00, 
1527.00, 
1528.00, 
1529.00, 
1530.00, 
1531.00, 
1532.00, 
1533.00, 
1534.00, 
1535.00, 
1536.00, 
1537.00, 
1538.00, 
1539.00, 
1540.00, 
1541.00, 
1542.00, 
1543.00, 
1544.00, 
1545.00, 
1546.00, 
1547.00, 
1548.00, 
1549.00, 
1550.00, 
1551.00, 
1552.00, 
1553.00, 
1554.00, 
1555.00, 
1556.00, 
1557.00, 
1558.00, 
1559.00, 
1560.00, 
1561.00, 
1562.00, 
1563.00, 
1564.00, 
1565.00, 
1566.00, 
1567.00, 
1568.00, 
1569.00, 
1570.00, 
1571.00, 
1572.00, 
1573.00, 
1574.00, 
1575.00, 
1576.00, 
1577.00, 
1578.00, 
1579.00, 
1580.00, 
1581.00, 
1582.00, 
1583.00, 
1584.00, 
1585.00, 
1586.00, 
1587.00, 
1588.00, 
1589.00, 
1590.00, 
1591.00, 
1592.00, 
1593.00, 
1594.00, 
1595.00, 
1596.00, 
1597.00, 
1598.00, 
1599.00, 
1600.00, 
1601.00, 
1602.00, 
1603.00, 
1604.00, 
1605.00, 
1606.00, 
1607.00, 
1608.00, 
1609.00, 
1610.00, 
1611.00, 
1612.00, 
1613.00, 
1614.00, 
1615.00, 
1616.00, 
1617.00, 
1618.00, 
1619.00, 
1620.00, 
1621.00, 
1622.00, 
1623.00, 
1624.00, 
1625.00, 
1626.00, 
1627.00, 
1628.00, 
1629.00, 
1630.00, 
1631.00, 
1632.00, 
1633.00, 
1634.00, 
1635.00, 
1636.00, 
1637.00, 
1638.00, 
1639.00, 
1640.00, 
1641.00, 
1642.00, 
1643.00, 
1644.00, 
1645.00, 
1646.00, 
1647.00, 
1648.00, 
1649.00, 
1650.00, 
1651.00, 
1652.00, 
1653.00, 
1654.00, 
1655.00, 
1656.00, 
1657.00, 
1658.00, 
1659.00, 
1660.00, 
1661.00, 
1662.00, 
1663.00, 
1664.00, 
1665.00, 
1666.00, 
1667.00, 
1668.00, 
1669.00, 
1670.00, 
1671.00, 
1672.00, 
1673.00, 
1674.00, 
1675.00, 
1676.00, 
1677.00, 
1678.00, 
1679.00, 
1680.00, 
1681.00, 
1682.00, 
1683.00, 
1684.00, 
1685.00, 
1686.00, 
1687.00, 
1688.00, 
1689.00, 
1690.00, 
1691.00, 
1692.00, 
1693.00, 
1694.00, 
1695.00, 
1696.00, 
1697.00, 
1698.00, 
1699.00, 
1700.00, 
1701.00, 
1702.00, 
1703.00, 
1704.00, 
1705.00, 
1706.00, 
1707.00, 
1708.00, 
1709.00, 
1710.00, 
1711.00, 
1712.00, 
1713.00, 
1714.00, 
1715.00, 
1716.00, 
1717.00, 
1718.00, 
1719.00, 
1720.00, 
1721.00, 
1722.00, 
1723.00, 
1724.00, 
1725.00, 
1726.00, 
1727.00, 
1728.00, 
1729.00, 
1730.00, 
1731.00, 
1732.00, 
1733.00, 
1734.00, 
1735.00, 
1736.00, 
1737.00, 
1738.00, 
1739.00, 
1740.00, 
1741.00, 
1742.00, 
1743.00, 
1744.00, 
1745.00, 
1746.00, 
1747.00, 
1748.00, 
1749.00, 
1750.00, 
1751.00, 
1752.00, 
1753.00, 
1754.00, 
1755.00, 
1756.00, 
1757.00, 
1758.00, 
1759.00, 
1760.00, 
1761.00, 
1762.00, 
1763.00, 
1764.00, 
1765.00, 
1766.00, 
1767.00, 
1768.00, 
1769.00, 
1770.00, 
1771.00, 
1772.00, 
1773.00, 
1774.00, 
1775.00, 
1776.00, 
1777.00, 
1778.00, 
1779.00, 
1780.00, 
1781.00, 
1782.00, 
1783.00, 
1784.00, 
1785.00, 
1786.00, 
1787.00, 
1788.00, 
1789.00, 
1790.00, 
1791.00, 
1792.00, 
1793.00, 
1794.00, 
1795.00, 
1796.00, 
1797.00, 
1798.00, 
1799.00, 
1800.00, 
1801.00, 
1802.00, 
1803.00, 
1804.00, 
1805.00, 
1806.00, 
1807.00, 
1808.00, 
1809.00, 
1810.00, 
1811.00, 
1812.00, 
1813.00, 
1814.00, 
1815.00, 
1816.00, 
1817.00, 
1818.00, 
1819.00, 
1820.00, 
1821.00, 
1822.00, 
1823.00, 
1824.00, 
1825.00, 
1826.00, 
1827.00, 
1828.00, 
1829.00, 
1830.00, 
1831.00, 
1832.00, 
1833.00, 
1834.00, 
1835.00, 
1836.00, 
1837.00, 
1838.00, 
1839.00, 
1840.00, 
1841.00, 
1842.00, 
1843.00, 
1844.00, 
1845.00, 
1846.00, 
1847.00, 
1848.00, 
1849.00, 
1850.00, 
1851.00, 
1852.00, 
1853.00, 
1854.00, 
1855.00, 
1856.00, 
1857.00, 
1858.00, 
1859.00, 
1860.00, 
1861.00, 
1862.00, 
1863.00, 
1864.00, 
1865.00, 
1866.00, 
1867.00, 
1868.00, 
1869.00, 
1870.00, 
1871.00, 
1872.00, 
1873.00, 
1874.00, 
1875.00, 
1876.00, 
1877.00, 
1878.00, 
1879.00, 
1880.00, 
1881.00, 
1882.00, 
1883.00, 
1884.00, 
1885.00, 
1886.00, 
1887.00, 
1888.00, 
1889.00, 
1890.00, 
1891.00, 
1892.00, 
1893.00, 
1894.00, 
1895.00, 
1896.00, 
1897.00, 
1898.00, 
1899.00, 
1900.00, 
1901.00, 
1902.00, 
1903.00, 
1904.00, 
1905.00, 
1906.00, 
1907.00, 
1908.00, 
1909.00, 
1910.00, 
1911.00, 
1912.00, 
1913.00, 
1914.00, 
1915.00, 
1916.00, 
1917.00, 
1918.00, 
1919.00, 
1920.00, 
1921.00, 
1922.00, 
1923.00, 
1924.00, 
1925.00, 
1926.00, 
1927.00, 
1928.00, 
1929.00, 
1930.00, 
1931.00, 
1932.00, 
1933.00, 
1934.00, 
1935.00, 
1936.00, 
1937.00, 
1938.00, 
1939.00, 
1940.00, 
1941.00, 
1942.00, 
1943.00, 
1944.00, 
1945.00, 
1946.00, 
1947.00, 
1948.00, 
1949.00, 
1950.00, 
1951.00, 
1952.00, 
1953.00, 
1954.00, 
1955.00, 
1956.00, 
1957.00, 
1958.00, 
1959.00, 
1960.00, 
1961.00, 
1962.00, 
1963.00, 
1964.00, 
1965.00, 
1966.00, 
1967.00, 
1968.00, 
1969.00, 
1970.00, 
1971.00, 
1972.00, 
1973.00, 
1974.00, 
1975.00, 
1976.00, 
1977.00, 
1978.00, 
1979.00, 
1980.00, 
1981.00, 
1982.00, 
1983.00, 
1984.00, 
1985.00, 
1986.00, 
1987.00, 
1988.00, 
1989.00, 
1990.00, 
1991.00, 
1992.00, 
1993.00, 
1994.00, 
1995.00, 
1996.00, 
1997.00, 
1998.00, 
1999.00, 
2000.00, 
2001.00, 
2002.00, 
2003.00, 
2004.00, 
2005.00, 
2006.00, 
2007.00, 
2008.00, 
2009.00, 
2010.00, 
2011.00, 
2012.00, 
2013.00, 
2014.00, 
2015.00, 
2016.00, 
2017.00, 
2018.00, 
2019.00, 
2020.00, 
2021.00, 
2022.00, 
2023.00, 
2024.00, 
2025.00, 
2026.00, 
2027.00, 
2028.00, 
2029.00, 
2030.00, 
2031.00, 
2032.00, 
2033.00, 
2034.00, 
2035.00, 
2036.00, 
2037.00, 
2038.00, 
2039.00, 
2040.00, 
2041.00, 
2042.00, 
2043.00, 
2044.00, 
2045.00, 
2046.00, 
2047.00, 
2048.00, 
2049.00, 
2050.00, 
2051.00, 
2052.00, 
2053.00, 
2054.00, 
2055.00, 
2056.00, 
2057.00, 
2058.00, 
2059.00, 
2060.00, 
2061.00, 
2062.00, 
2063.00, 
2064.00, 
2065.00, 
2066.00, 
2067.00, 
2068.00, 
2069.00, 
2070.00, 
2071.00, 
2072.00, 
2073.00, 
2074.00, 
2075.00, 
2076.00, 
2077.00, 
2078.00, 
2079.00, 
2080.00, 
2081.00, 
2082.00, 
2083.00, 
2084.00, 
2085.00, 
2086.00, 
2087.00, 
2088.00, 
2089.00, 
2090.00, 
2091.00, 
2092.00, 
2093.00, 
2094.00, 
2095.00, 
2096.00, 
2097.00, 
2098.00, 
2099.00, 
2100.00, 
2101.00, 
2102.00, 
2103.00, 
2104.00, 
2105.00, 
2106.00, 
2107.00, 
2108.00, 
2109.00, 
2110.00, 
2111.00, 
2112.00, 
2113.00, 
2114.00, 
2115.00, 
2116.00, 
2117.00, 
2118.00, 
2119.00, 
2120.00, 
2121.00, 
2122.00, 
2123.00, 
2124.00, 
2125.00, 
2126.00, 
2127.00, 
2128.00, 
2129.00, 
2130.00, 
2131.00, 
2132.00, 
2133.00, 
2134.00, 
2135.00, 
2136.00, 
2137.00, 
2138.00, 
2139.00, 
2140.00, 
2141.00, 
2142.00, 
2143.00, 
2144.00, 
2145.00, 
2146.00, 
2147.00, 
2148.00, 
2149.00, 
2150.00, 
2151.00, 
2152.00, 
2153.00, 
2154.00, 
2155.00, 
2156.00, 
2157.00, 
2158.00, 
2159.00, 
2160.00, 
2161.00, 
2162.00, 
2163.00, 
2164.00, 
2165.00, 
2166.00, 
2167.00, 
2168.00, 
2169.00, 
2170.00, 
2171.00, 
2172.00, 
2173.00, 
2174.00, 
2175.00, 
2176.00, 
2177.00, 
2178.00, 
2179.00, 
2180.00, 
2181.00, 
2182.00, 
2183.00, 
2184.00, 
2185.00, 
2186.00, 
2187.00, 
2188.00, 
2189.00, 
2190.00, 
2191.00, 
2192.00, 
2193.00, 
2194.00, 
2195.00, 
2196.00, 
2197.00, 
2198.00, 
2199.00, 
2200.00, 
2201.00, 
2202.00, 
2203.00, 
2204.00, 
2205.00, 
2206.00, 
2207.00, 
2208.00, 
2209.00, 
2210.00, 
2211.00, 
2212.00, 
2213.00, 
2214.00, 
2215.00, 
2216.00, 
2217.00, 
2218.00, 
2219.00, 
2220.00, 
2221.00, 
2222.00, 
2223.00, 
2224.00, 
2225.00, 
2226.00, 
2227.00, 
2228.00, 
2229.00, 
2230.00, 
2231.00, 
2232.00, 
2233.00, 
2234.00, 
2235.00, 
2236.00, 
2237.00, 
2238.00, 
2239.00, 
2240.00, 
2241.00, 
2242.00, 
2243.00, 
2244.00, 
2245.00, 
2246.00, 
2247.00, 
2248.00, 
2249.00, 
2250.00, 
2251.00, 
2252.00, 
2253.00, 
2254.00, 
2255.00, 
2256.00, 
2257.00, 
2258.00, 
2259.00, 
2260.00, 
2261.00, 
2262.00, 
2263.00, 
2264.00, 
2265.00, 
2266.00, 
2267.00, 
2268.00, 
2269.00, 
2270.00, 
2271.00, 
2272.00, 
2273.00, 
2274.00, 
2275.00, 
2276.00, 
2277.00, 
2278.00, 
2279.00, 
2280.00, 
2281.00, 
2282.00, 
2283.00, 
2284.00, 
2285.00, 
2286.00, 
2287.00, 
2288.00, 
2289.00, 
2290.00, 
2291.00, 
2292.00, 
2293.00, 
2294.00, 
2295.00, 
2296.00, 
2297.00, 
2298.00, 
2299.00, 
2300.00, 
2301.00, 
2302.00, 
2303.00, 
2304.00, 
2305.00, 
2306.00, 
2307.00, 
2308.00, 
2309.00, 
2310.00, 
2311.00, 
2312.00, 
2313.00, 
2314.00, 
2315.00, 
2316.00, 
2317.00, 
2318.00, 
2319.00, 
2320.00, 
2321.00, 
2322.00, 
2323.00, 
2324.00, 
2325.00, 
2326.00, 
2327.00, 
2328.00, 
2329.00, 
2330.00, 
2331.00, 
2332.00, 
2333.00, 
2334.00, 
2335.00, 
2336.00, 
2337.00, 
2338.00, 
2339.00, 
2340.00, 
2341.00, 
2342.00, 
2343.00, 
2344.00, 
2345.00, 
2346.00, 
2347.00, 
2348.00, 
2349.00, 
2350.00, 
2351.00, 
2352.00, 
2353.00, 
2354.00, 
2355.00, 
2356.00, 
2357.00, 
2358.00, 
2359.00, 
2360.00, 
2361.00, 
2362.00, 
2363.00, 
2364.00, 
2365.00, 
2366.00, 
2367.00, 
2368.00, 
2369.00, 
2370.00, 
2371.00, 
2372.00, 
2373.00, 
2374.00, 
2375.00, 
2376.00, 
2377.00, 
2378.00, 
2379.00, 
2380.00, 
2381.00, 
2382.00, 
2383.00, 
2384.00, 
2385.00, 
2386.00, 
2387.00, 
2388.00, 
2389.00, 
2390.00, 
2391.00, 
2392.00, 
2393.00, 
2394.00, 
2395.00, 
2396.00, 
2397.00, 
2398.00, 
2399.00, 
2400.00, 
2401.00, 
2402.00, 
2403.00, 
2404.00, 
2405.00, 
2406.00, 
2407.00, 
2408.00, 
2409.00, 
2410.00, 
2411.00, 
2412.00, 
2413.00, 
2414.00, 
2415.00, 
2416.00, 
2417.00, 
2418.00, 
2419.00, 
2420.00, 
2421.00, 
2422.00, 
2423.00, 
2424.00, 
2425.00, 
2426.00, 
2427.00, 
2428.00, 
2429.00, 
2430.00, 
2431.00, 
2432.00, 
2433.00, 
2434.00, 
2435.00, 
2436.00, 
2437.00, 
2438.00, 
2439.00, 
2440.00, 
2441.00, 
2442.00, 
2443.00, 
2444.00, 
2445.00, 
2446.00, 
2447.00, 
2448.00, 
2449.00, 
2450.00, 
2451.00, 
2452.00, 
2453.00, 
2454.00, 
2455.00, 
2456.00, 
2457.00, 
2458.00, 
2459.00, 
2460.00, 
2461.00, 
2462.00, 
2463.00, 
2464.00, 
2465.00, 
2466.00, 
2467.00, 
2468.00, 
2469.00, 
2470.00, 
2471.00, 
2472.00, 
2473.00, 
2474.00, 
2475.00, 
2476.00, 
2477.00, 
2478.00, 
2479.00, 
2480.00, 
2481.00, 
2482.00, 
2483.00, 
2484.00, 
2485.00, 
2486.00, 
2487.00, 
2488.00, 
2489.00, 
2490.00, 
2491.00, 
2492.00, 
2493.00, 
2494.00, 
2495.00, 
2496.00, 
2497.00, 
2498.00, 
2499.00, 
2500.00, 
2501.00, 
2502.00, 
2503.00, 
2504.00, 
2505.00, 
2506.00, 
2507.00, 
2508.00, 
2509.00, 
2510.00, 
2511.00, 
2512.00, 
2513.00, 
2514.00, 
2515.00, 
2516.00, 
2517.00, 
2518.00, 
2519.00, 
2520.00, 
2521.00, 
2522.00, 
2523.00, 
2524.00, 
2525.00, 
2526.00, 
2527.00, 
2528.00, 
2529.00, 
2530.00, 
2531.00, 
2532.00, 
2533.00, 
2534.00, 
2535.00, 
2536.00, 
2537.00, 
2538.00, 
2539.00, 
2540.00, 
2541.00, 
2542.00, 
2543.00, 
2544.00, 
2545.00, 
2546.00, 
2547.00, 
2548.00, 
2549.00, 
2550.00, 
2551.00, 
2552.00, 
2553.00, 
2554.00, 
2555.00, 
2556.00, 
2557.00, 
2558.00, 
2559.00, 
2560.00, 
2561.00, 
2562.00, 
2563.00, 
2564.00, 
2565.00, 
2566.00, 
2567.00, 
2568.00, 
2569.00, 
2570.00, 
2571.00, 
2572.00, 
2573.00, 
2574.00, 
2575.00, 
2576.00, 
2577.00, 
2578.00, 
2579.00, 
2580.00, 
2581.00, 
2582.00, 
2583.00, 
2584.00, 
2585.00, 
2586.00, 
2587.00, 
2588.00, 
2589.00, 
2590.00, 
2591.00, 
2592.00, 
2593.00, 
2594.00, 
2595.00, 
2596.00, 
2597.00, 
2598.00, 
2599.00, 
2600.00, 
