"2cP1 - RawData"
"Wavelength nm.","T%"
200.00,0.003
201.00,0.004
202.00,-0.000
203.00,0.001
204.00,0.003
205.00,0.003
206.00,0.004
207.00,0.001
208.00,0.002
209.00,0.001
210.00,0.002
211.00,0.002
212.00,0.004
213.00,0.004
214.00,0.002
215.00,0.002
216.00,0.002
217.00,0.001
218.00,-0.001
219.00,0.001
220.00,0.003
221.00,0.004
222.00,0.001
223.00,0.000
224.00,0.000
225.00,0.000
226.00,0.002
227.00,0.003
228.00,0.001
229.00,0.002
230.00,0.001
231.00,-0.001
232.00,0.001
233.00,0.001
234.00,0.001
235.00,-0.000
236.00,-0.000
237.00,-0.001
238.00,0.001
239.00,0.001
240.00,0.002
241.00,-0.001
242.00,0.001
243.00,0.002
244.00,-0.001
245.00,0.001
246.00,-0.000
247.00,0.001
248.00,0.004
249.00,0.002
250.00,0.001
251.00,0.002
252.00,0.001
253.00,0.000
254.00,0.001
255.00,0.003
256.00,0.002
257.00,-0.000
258.00,-0.001
259.00,-0.000
260.00,-0.000
261.00,-0.000
262.00,0.001
263.00,-0.001
264.00,0.000
265.00,-0.000
266.00,-0.001
267.00,0.001
268.00,0.001
269.00,0.001
270.00,0.000
271.00,-0.000
272.00,0.000
273.00,0.001
274.00,0.000
275.00,-0.001
276.00,-0.001
277.00,0.001
278.00,0.000
279.00,0.001
280.00,0.000
281.00,0.001
282.00,0.001
283.00,0.001
284.00,0.001
285.00,0.002
286.00,0.001
287.00,0.001
288.00,0.001
289.00,-0.002
290.00,0.001
291.00,0.001
292.00,0.000
293.00,0.000
294.00,0.002
295.00,-0.000
296.00,0.001
297.00,0.000
298.00,0.000
299.00,0.002
300.00,0.004
301.00,0.004
302.00,0.006
303.00,0.010
304.00,0.016
305.00,0.024
306.00,0.039
307.00,0.059
308.00,0.090
309.00,0.138
310.00,0.191
311.00,0.261
312.00,0.354
313.00,0.478
314.00,0.633
315.00,0.825
316.00,1.061
317.00,1.341
318.00,1.644
319.00,2.028
320.00,2.489
321.00,2.965
322.00,3.510
323.00,4.142
324.00,4.814
325.00,5.492
326.00,6.198
327.00,6.996
328.00,7.825
329.00,8.693
330.00,9.578
331.00,10.421
332.00,11.339
333.00,12.305
334.00,13.223
335.00,14.176
336.00,15.129
337.00,16.018
338.00,16.997
339.00,17.794
340.00,18.728
341.00,19.560
342.00,20.342
343.00,21.135
344.00,21.929
345.00,22.671
346.00,23.316
347.00,23.974
348.00,24.640
349.00,25.195
350.00,25.797
351.00,26.325
352.00,26.793
353.00,27.261
354.00,27.710
355.00,28.106
356.00,28.624
357.00,28.957
358.00,29.320
359.00,29.650
360.00,29.944
361.00,30.191
362.00,30.504
363.00,30.741
364.00,31.003
365.00,31.206
366.00,31.373
367.00,31.567
368.00,31.654
369.00,31.818
370.00,31.936
371.00,32.023
372.00,32.087
373.00,32.114
374.00,32.087
375.00,32.114
376.00,32.200
377.00,32.200
378.00,32.108
379.00,32.132
380.00,32.174
381.00,32.151
382.00,32.202
383.00,32.306
384.00,32.314
385.00,32.430
386.00,32.460
387.00,32.641
388.00,32.718
389.00,32.805
390.00,32.881
391.00,32.961
392.00,33.069
393.00,33.081
394.00,33.078
395.00,33.143
396.00,33.209
397.00,33.264
398.00,33.308
399.00,33.306
400.00,33.349
401.00,33.417
402.00,33.412
403.00,33.407
404.00,33.403
405.00,33.497
406.00,33.517
407.00,33.458
408.00,33.448
409.00,33.384
410.00,33.361
411.00,33.355
412.00,33.340
413.00,33.394
414.00,33.395
415.00,33.346
416.00,33.408
417.00,33.425
418.00,33.432
419.00,33.492
420.00,33.486
421.00,33.592
422.00,33.641
423.00,33.696
424.00,33.666
425.00,33.667
426.00,33.716
427.00,33.778
428.00,33.819
429.00,33.845
430.00,33.891
431.00,33.924
432.00,33.927
433.00,34.038
434.00,34.044
435.00,34.100
436.00,34.138
437.00,34.237
438.00,34.304
439.00,34.336
440.00,34.369
441.00,34.456
442.00,34.509
443.00,34.579
444.00,34.678
445.00,34.727
446.00,34.805
447.00,34.896
448.00,34.978
449.00,35.078
450.00,35.135
451.00,35.191
452.00,35.328
453.00,35.416
454.00,35.490
455.00,35.669
456.00,35.690
457.00,35.712
458.00,35.825
459.00,35.955
460.00,36.024
461.00,36.144
462.00,36.233
463.00,36.351
464.00,36.492
465.00,36.535
466.00,36.637
467.00,36.739
468.00,36.801
469.00,36.951
470.00,36.996
471.00,37.057
472.00,37.122
473.00,37.168
474.00,37.278
475.00,37.343
476.00,37.436
477.00,37.552
478.00,37.701
479.00,37.733
480.00,37.923
481.00,38.035
482.00,38.103
483.00,38.189
484.00,38.304
485.00,38.471
486.00,38.548
487.00,38.682
488.00,38.790
489.00,38.968
490.00,39.009
491.00,39.098
492.00,39.280
493.00,39.272
494.00,39.309
495.00,39.453
496.00,39.556
497.00,39.620
498.00,39.736
499.00,39.845
500.00,39.891
501.00,39.976
502.00,40.099
503.00,40.231
504.00,40.297
505.00,40.422
506.00,40.501
507.00,40.550
508.00,40.624
509.00,40.771
510.00,40.865
511.00,40.908
512.00,40.991
513.00,41.115
514.00,41.232
515.00,41.339
516.00,41.382
517.00,41.500
518.00,41.596
519.00,41.653
520.00,41.663
521.00,41.762
522.00,41.808
523.00,41.900
524.00,41.922
525.00,41.991
526.00,42.098
527.00,42.194
528.00,42.307
529.00,42.291
530.00,42.302
531.00,42.490
532.00,42.554
533.00,42.550
534.00,42.632
535.00,42.711
536.00,42.759
537.00,42.815
538.00,42.903
539.00,42.939
540.00,43.042
541.00,43.099
542.00,43.121
543.00,43.124
544.00,43.216
545.00,43.238
546.00,43.248
547.00,43.393
548.00,43.449
549.00,43.398
550.00,43.532
551.00,43.608
552.00,43.646
553.00,43.718
554.00,43.795
555.00,43.769
556.00,43.816
557.00,43.875
558.00,43.886
559.00,43.935
560.00,44.090
561.00,44.084
562.00,44.185
563.00,44.180
564.00,44.246
565.00,44.236
566.00,44.231
567.00,44.295
568.00,44.301
569.00,44.353
570.00,44.330
571.00,44.363
572.00,44.442
573.00,44.428
574.00,44.518
575.00,44.536
576.00,44.563
577.00,44.605
578.00,44.659
579.00,44.686
580.00,44.793
581.00,44.858
582.00,44.949
583.00,44.911
584.00,45.056
585.00,45.072
586.00,45.065
587.00,45.188
588.00,45.182
589.00,45.181
590.00,45.231
591.00,45.265
592.00,45.296
593.00,45.319
594.00,45.368
595.00,45.345
596.00,45.418
597.00,45.527
598.00,45.515
599.00,45.447
600.00,45.498
601.00,45.650
602.00,45.728
603.00,45.747
604.00,45.604
605.00,45.615
606.00,45.866
607.00,45.839
608.00,45.870
609.00,45.870
610.00,45.789
611.00,45.843
612.00,45.962
613.00,45.930
614.00,45.939
615.00,45.937
616.00,45.973
617.00,46.014
618.00,46.089
619.00,46.127
620.00,46.149
621.00,46.139
622.00,46.140
623.00,46.216
624.00,46.204
625.00,46.320
626.00,46.404
627.00,46.424
628.00,46.428
629.00,46.498
630.00,46.519
631.00,46.495
632.00,46.560
633.00,46.626
634.00,46.654
635.00,46.681
636.00,46.775
637.00,46.945
638.00,46.891
639.00,46.846
640.00,46.896
641.00,46.894
642.00,47.025
643.00,47.061
644.00,46.978
645.00,47.085
646.00,47.124
647.00,47.215
648.00,47.262
649.00,47.333
650.00,47.185
651.00,47.411
652.00,47.406
653.00,47.496
654.00,47.490
655.00,47.419
656.00,47.566
657.00,47.677
658.00,47.776
659.00,47.653
660.00,47.817
661.00,47.755
662.00,47.905
663.00,47.892
664.00,47.956
665.00,47.940
666.00,48.053
667.00,48.103
668.00,48.025
669.00,48.306
670.00,48.248
671.00,48.134
672.00,48.238
673.00,48.369
674.00,48.321
675.00,48.440
676.00,48.484
677.00,48.425
678.00,48.419
679.00,48.494
680.00,48.484
681.00,48.565
682.00,48.693
683.00,48.644
684.00,48.804
685.00,48.836
686.00,48.908
687.00,48.880
688.00,48.861
689.00,48.867
690.00,48.991
691.00,48.924
692.00,49.018
693.00,48.966
694.00,48.953
695.00,49.010
696.00,49.120
697.00,49.156
698.00,49.228
699.00,49.285
700.00,49.284
701.00,49.260
702.00,49.357
703.00,49.422
704.00,49.488
705.00,49.522
706.00,49.658
707.00,49.470
708.00,49.451
709.00,49.717
710.00,49.508
711.00,49.470
712.00,49.628
713.00,49.558
714.00,49.609
715.00,49.665
716.00,49.548
717.00,49.669
718.00,49.717
719.00,49.653
720.00,49.749
721.00,54.301
722.00,54.320
723.00,54.272
724.00,54.218
725.00,54.214
726.00,54.227
727.00,54.172
728.00,54.079
729.00,54.058
730.00,54.077
731.00,54.040
732.00,54.102
733.00,54.088
734.00,54.097
735.00,54.022
736.00,54.110
737.00,54.077
738.00,54.065
739.00,53.990
740.00,54.026
741.00,54.056
742.00,53.958
743.00,53.965
744.00,53.885
745.00,53.876
746.00,53.890
747.00,53.844
748.00,53.809
749.00,53.753
750.00,53.733
751.00,53.742
752.00,53.698
753.00,53.598
754.00,53.646
755.00,53.607
756.00,53.576
757.00,53.601
758.00,53.589
759.00,53.609
760.00,53.562
761.00,53.555
762.00,53.490
763.00,53.483
764.00,53.453
765.00,53.378
766.00,53.453
767.00,53.399
768.00,53.436
769.00,53.410
770.00,53.392
771.00,53.306
772.00,53.358
773.00,53.388
774.00,53.349
775.00,53.397
776.00,53.318
777.00,53.317
778.00,53.321
779.00,53.264
780.00,53.285
781.00,53.230
782.00,53.273
783.00,53.154
784.00,53.196
785.00,53.117
786.00,53.139
787.00,53.080
788.00,53.142
789.00,53.065
790.00,53.050
791.00,53.020
792.00,52.927
793.00,52.970
794.00,52.877
795.00,52.845
796.00,52.887
797.00,52.786
798.00,52.805
799.00,52.707
800.00,52.726
801.00,52.805
802.00,52.714
803.00,52.722
804.00,52.719
805.00,52.595
806.00,52.619
807.00,52.566
808.00,52.543
809.00,52.445
810.00,52.544
811.00,52.474
812.00,52.481
813.00,52.380
814.00,52.448
815.00,52.442
816.00,52.373
817.00,52.410
818.00,52.369
819.00,52.387
820.00,52.360
821.00,52.339
822.00,52.172
823.00,52.262
824.00,52.301
825.00,52.158
826.00,52.013
827.00,52.170
828.00,52.199
829.00,52.142
830.00,52.010
831.00,54.532
832.00,54.505
833.00,54.511
834.00,54.443
835.00,54.345
836.00,54.460
837.00,54.337
838.00,54.330
839.00,54.316
840.00,54.278
841.00,54.306
842.00,54.232
843.00,54.223
844.00,54.242
845.00,54.152
846.00,54.164
847.00,54.109
848.00,54.063
849.00,54.023
850.00,54.003
851.00,53.937
852.00,53.898
853.00,53.910
854.00,53.901
855.00,53.751
856.00,53.796
857.00,53.919
858.00,53.763
859.00,53.686
860.00,53.710
861.00,53.656
862.00,53.558
863.00,53.686
864.00,53.598
865.00,53.581
866.00,53.546
867.00,53.540
868.00,53.519
869.00,53.558
870.00,53.432
871.00,53.503
872.00,53.492
873.00,53.441
874.00,53.497
875.00,53.463
876.00,53.411
877.00,53.367
878.00,53.560
879.00,53.355
880.00,53.343
881.00,53.328
882.00,53.344
883.00,53.306
884.00,53.275
885.00,53.219
886.00,53.231
887.00,53.181
888.00,53.166
889.00,53.163
890.00,53.135
891.00,53.111
892.00,53.080
893.00,53.172
894.00,53.061
895.00,53.040
896.00,53.013
897.00,53.003
898.00,52.955
899.00,52.956
900.00,52.969
901.00,52.913
902.00,52.901
903.00,52.898
904.00,52.905
905.00,52.815
906.00,52.850
907.00,52.816
908.00,52.767
909.00,52.751
910.00,52.748
911.00,52.729
912.00,52.714
913.00,52.707
914.00,52.680
915.00,52.656
916.00,52.580
917.00,52.600
918.00,52.564
919.00,52.517
920.00,52.517
921.00,52.481
922.00,52.487
923.00,52.451
924.00,52.461
925.00,52.408
926.00,52.409
927.00,52.376
928.00,52.358
929.00,52.364
930.00,52.306
931.00,52.303
932.00,52.210
933.00,52.343
934.00,52.259
935.00,52.226
936.00,52.194
937.00,52.182
938.00,52.160
939.00,52.151
940.00,52.127
941.00,52.121
942.00,52.059
943.00,52.082
944.00,52.029
945.00,52.031
946.00,52.063
947.00,51.961
948.00,51.972
949.00,51.946
950.00,51.929
951.00,51.927
952.00,51.872
953.00,51.849
954.00,51.821
955.00,51.792
956.00,51.774
957.00,51.747
958.00,51.748
959.00,51.704
960.00,51.686
961.00,51.659
962.00,51.682
963.00,51.620
964.00,51.633
965.00,51.603
966.00,51.608
967.00,51.593
968.00,51.570
969.00,51.586
970.00,51.577
971.00,51.581
972.00,51.545
973.00,51.585
974.00,51.584
975.00,51.570
976.00,51.597
977.00,51.560
978.00,51.630
979.00,51.563
980.00,51.600
981.00,51.598
982.00,51.570
983.00,51.561
984.00,51.561
985.00,51.559
986.00,51.511
987.00,51.528
988.00,51.512
989.00,51.508
990.00,51.476
991.00,51.477
992.00,51.478
993.00,51.396
994.00,51.445
995.00,51.417
996.00,51.389
997.00,51.401
998.00,51.381
999.00,51.390
1000.00,51.343
1001.00,51.356
1002.00,51.332
1003.00,51.332
1004.00,51.306
1005.00,51.285
1006.00,51.314
1007.00,51.255
1008.00,51.268
1009.00,51.246
1010.00,51.235
1011.00,51.234
1012.00,51.202
1013.00,51.208
1014.00,51.172
1015.00,51.179
1016.00,51.146
1017.00,51.150
1018.00,51.106
1019.00,51.087
1020.00,51.095
1021.00,51.064
1022.00,51.059
1023.00,51.013
1024.00,51.014
1025.00,50.998
1026.00,50.982
1027.00,50.959
1028.00,50.964
1029.00,50.929
1030.00,50.910
1031.00,50.914
1032.00,50.872
1033.00,50.869
1034.00,50.835
1035.00,50.824
1036.00,50.788
1037.00,50.784
1038.00,50.758
1039.00,50.749
1040.00,50.730
1041.00,50.686
1042.00,50.700
1043.00,50.652
1044.00,50.690
1045.00,50.671
1046.00,50.669
1047.00,50.669
1048.00,50.672
1049.00,50.690
1050.00,50.691
1051.00,50.704
1052.00,50.729
1053.00,50.741
1054.00,50.723
1055.00,50.789
1056.00,50.757
1057.00,50.763
1058.00,50.758
1059.00,50.737
1060.00,50.762
1061.00,50.764
1062.00,50.726
1063.00,50.742
1064.00,50.727
1065.00,50.725
1066.00,50.704
1067.00,50.709
1068.00,50.717
1069.00,50.690
1070.00,50.660
1071.00,50.649
1072.00,50.668
1073.00,50.624
1074.00,50.638
1075.00,50.629
1076.00,50.619
1077.00,50.608
1078.00,50.580
1079.00,50.580
1080.00,50.577
1081.00,50.548
1082.00,50.555
1083.00,50.550
1084.00,50.529
1085.00,50.540
1086.00,50.526
1087.00,50.506
1088.00,50.502
1089.00,50.479
1090.00,50.480
1091.00,50.471
1092.00,50.458
1093.00,50.443
1094.00,50.427
1095.00,50.418
1096.00,50.408
1097.00,50.403
1098.00,50.403
1099.00,50.387
1100.00,50.400
1101.00,50.403
1102.00,50.368
1103.00,50.361
1104.00,50.353
1105.00,50.340
1106.00,50.317
1107.00,50.316
1108.00,50.321
1109.00,50.301
1110.00,50.304
1111.00,50.286
1112.00,50.284
1113.00,50.272
1114.00,50.272
1115.00,50.274
1116.00,50.282
1117.00,50.230
1118.00,50.233
1119.00,50.226
1120.00,50.219
1121.00,50.210
1122.00,50.196
1123.00,50.188
1124.00,50.189
1125.00,50.162
1126.00,50.181
1127.00,50.176
1128.00,50.150
1129.00,50.134
1130.00,50.135
1131.00,50.128
1132.00,50.129
1133.00,50.126
1134.00,50.121
1135.00,50.098
1136.00,50.075
1137.00,50.097
1138.00,50.100
1139.00,50.087
1140.00,50.102
1141.00,50.086
1142.00,50.079
1143.00,50.057
1144.00,50.063
1145.00,50.040
1146.00,50.033
1147.00,50.062
1148.00,50.024
1149.00,50.037
1150.00,50.026
1151.00,50.041
1152.00,50.018
1153.00,49.999
1154.00,50.022
1155.00,50.004
1156.00,50.000
1157.00,50.036
1158.00,49.991
1159.00,50.004
1160.00,49.992
1161.00,49.991
1162.00,50.006
1163.00,50.000
1164.00,49.985
1165.00,49.984
1166.00,49.983
1167.00,49.984
1168.00,49.985
1169.00,49.984
1170.00,49.995
1171.00,49.965
1172.00,49.949
1173.00,49.954
1174.00,49.978
1175.00,49.955
1176.00,49.970
1177.00,49.967
1178.00,49.949
1179.00,49.949
1180.00,49.935
1181.00,49.954
1182.00,49.963
1183.00,49.918
1184.00,49.916
1185.00,49.942
1186.00,49.913
1187.00,49.929
1188.00,49.918
1189.00,49.933
1190.00,49.923
1191.00,49.921
1192.00,49.936
1193.00,49.924
1194.00,49.920
1195.00,49.910
1196.00,49.944
1197.00,49.921
1198.00,49.924
1199.00,49.916
1200.00,49.914
1201.00,49.933
1202.00,49.916
1203.00,49.929
1204.00,49.918
1205.00,49.907
1206.00,49.910
1207.00,49.927
1208.00,49.888
1209.00,49.899
1210.00,49.900
1211.00,49.893
1212.00,49.907
1213.00,49.873
1214.00,49.898
1215.00,49.885
1216.00,49.856
1217.00,49.883
1218.00,49.876
1219.00,49.874
1220.00,49.893
1221.00,49.889
1222.00,49.878
1223.00,49.933
1224.00,49.890
1225.00,49.879
1226.00,49.892
1227.00,49.858
1228.00,49.871
1229.00,49.881
1230.00,49.908
1231.00,49.903
1232.00,49.924
1233.00,49.923
1234.00,49.941
1235.00,49.930
1236.00,49.949
1237.00,49.932
1238.00,49.918
1239.00,49.923
1240.00,49.927
1241.00,49.919
1242.00,49.921
1243.00,49.943
1244.00,49.914
1245.00,49.944
1246.00,49.952
1247.00,49.950
1248.00,49.934
1249.00,49.929
1250.00,49.962
1251.00,49.963
1252.00,49.965
1253.00,49.952
1254.00,49.978
1255.00,49.986
1256.00,49.966
1257.00,49.926
1258.00,49.971
1259.00,49.980
1260.00,49.979
1261.00,49.990
1262.00,49.999
1263.00,49.983
1264.00,49.986
1265.00,49.979
1266.00,50.006
1267.00,50.012
1268.00,50.038
1269.00,50.044
1270.00,50.027
1271.00,50.010
1272.00,50.028
1273.00,50.031
1274.00,50.027
1275.00,50.037
1276.00,50.046
1277.00,50.047
1278.00,50.078
1279.00,50.067
1280.00,50.053
1281.00,50.067
1282.00,50.061
1283.00,50.102
1284.00,50.051
1285.00,50.034
1286.00,50.061
1287.00,50.061
1288.00,50.075
1289.00,50.075
1290.00,50.096
1291.00,50.097
1292.00,50.096
1293.00,50.067
1294.00,50.089
1295.00,50.113
1296.00,50.089
1297.00,50.109
1298.00,50.127
1299.00,50.106
1300.00,50.121
1301.00,50.118
1302.00,50.149
1303.00,50.154
1304.00,50.129
1305.00,50.163
1306.00,50.170
1307.00,50.156
1308.00,50.172
1309.00,50.185
1310.00,50.180
1311.00,50.180
1312.00,50.177
1313.00,50.190
1314.00,50.213
1315.00,50.195
1316.00,50.217
1317.00,50.228
1318.00,50.216
1319.00,50.222
1320.00,50.247
1321.00,50.413
1322.00,50.408
1323.00,50.393
1324.00,50.390
1325.00,50.408
1326.00,50.386
1327.00,50.387
1328.00,50.412
1329.00,50.355
1330.00,50.367
1331.00,50.377
1332.00,50.375
1333.00,50.382
1334.00,50.414
1335.00,50.444
1336.00,50.462
1337.00,50.470
1338.00,50.550
1339.00,50.592
1340.00,50.631
1341.00,50.696
1342.00,50.792
1343.00,50.860
1344.00,50.850
1345.00,50.903
1346.00,50.969
1347.00,50.969
1348.00,50.981
1349.00,51.037
1350.00,51.052
1351.00,51.060
1352.00,51.064
1353.00,51.096
1354.00,51.040
1355.00,51.069
1356.00,51.069
1357.00,51.074
1358.00,51.139
1359.00,51.117
1360.00,51.188
1361.00,50.985
1362.00,51.088
1363.00,51.193
1364.00,51.027
1365.00,51.149
1366.00,51.201
1367.00,51.054
1368.00,51.117
1369.00,51.111
1370.00,51.103
1371.00,51.049
1372.00,51.069
1373.00,51.058
1374.00,51.084
1375.00,51.111
1376.00,51.078
1377.00,51.105
1378.00,51.178
1379.00,51.141
1380.00,51.205
1381.00,51.070
1382.00,50.965
1383.00,51.113
1384.00,50.983
1385.00,50.910
1386.00,51.047
1387.00,51.058
1388.00,50.995
1389.00,50.883
1390.00,51.009
1391.00,50.995
1392.00,51.071
1393.00,51.126
1394.00,50.999
1395.00,50.970
1396.00,51.040
1397.00,51.199
1398.00,51.025
1399.00,50.973
1400.00,50.772
1401.00,51.045
1402.00,50.708
1403.00,51.042
1404.00,51.055
1405.00,51.084
1406.00,51.085
1407.00,51.106
1408.00,51.055
1409.00,51.128
1410.00,51.128
1411.00,51.131
1412.00,51.183
1413.00,51.088
1414.00,51.117
1415.00,51.147
1416.00,51.179
1417.00,51.174
1418.00,51.176
1419.00,51.153
1420.00,51.203
1421.00,51.239
1422.00,51.231
1423.00,51.220
1424.00,51.256
1425.00,51.237
1426.00,51.268
1427.00,51.280
1428.00,51.280
1429.00,51.304
1430.00,51.312
1431.00,51.315
1432.00,51.337
1433.00,51.350
1434.00,51.354
1435.00,51.408
1436.00,51.384
1437.00,51.384
1438.00,51.414
1439.00,51.441
1440.00,51.464
1441.00,51.467
1442.00,51.461
1443.00,51.515
1444.00,51.544
1445.00,51.490
1446.00,51.501
1447.00,51.543
1448.00,51.574
1449.00,51.628
1450.00,51.639
1451.00,51.590
1452.00,51.604
1453.00,51.633
1454.00,51.648
1455.00,51.673
1456.00,51.679
1457.00,51.699
1458.00,51.692
1459.00,51.717
1460.00,51.732
1461.00,51.736
1462.00,51.767
1463.00,51.788
1464.00,51.802
1465.00,51.819
1466.00,51.813
1467.00,51.828
1468.00,51.907
1469.00,51.858
1470.00,51.870
1471.00,51.892
1472.00,51.872
1473.00,51.903
1474.00,51.923
1475.00,51.916
1476.00,51.939
1477.00,51.922
1478.00,51.944
1479.00,51.969
1480.00,51.970
1481.00,51.972
1482.00,51.982
1483.00,52.024
1484.00,52.033
1485.00,52.044
1486.00,52.044
1487.00,52.078
1488.00,52.067
1489.00,52.082
1490.00,52.104
1491.00,52.097
1492.00,52.132
1493.00,52.138
1494.00,52.141
1495.00,52.167
1496.00,52.170
1497.00,52.171
1498.00,52.179
1499.00,52.191
1500.00,52.221
1501.00, 
1502.00, 
1503.00, 
1504.00, 
1505.00, 
1506.00, 
1507.00, 
1508.00, 
1509.00, 
1510.00, 
1511.00, 
1512.00, 
1513.00, 
1514.00, 
1515.00, 
1516.00, 
1517.00, 
1518.00, 
1519.00, 
1520.00, 
1521.00, 
1522.00, 
1523.00, 
1524.00, 
1525.00, 
1526.00, 
1527.00, 
1528.00, 
1529.00, 
1530.00, 
1531.00, 
1532.00, 
1533.00, 
1534.00, 
1535.00, 
1536.00, 
1537.00, 
1538.00, 
1539.00, 
1540.00, 
1541.00, 
1542.00, 
1543.00, 
1544.00, 
1545.00, 
1546.00, 
1547.00, 
1548.00, 
1549.00, 
1550.00, 
1551.00, 
1552.00, 
1553.00, 
1554.00, 
1555.00, 
1556.00, 
1557.00, 
1558.00, 
1559.00, 
1560.00, 
1561.00, 
1562.00, 
1563.00, 
1564.00, 
1565.00, 
1566.00, 
1567.00, 
1568.00, 
1569.00, 
1570.00, 
1571.00, 
1572.00, 
1573.00, 
1574.00, 
1575.00, 
1576.00, 
1577.00, 
1578.00, 
1579.00, 
1580.00, 
1581.00, 
1582.00, 
1583.00, 
1584.00, 
1585.00, 
1586.00, 
1587.00, 
1588.00, 
1589.00, 
1590.00, 
1591.00, 
1592.00, 
1593.00, 
1594.00, 
1595.00, 
1596.00, 
1597.00, 
1598.00, 
1599.00, 
1600.00, 
1601.00, 
1602.00, 
1603.00, 
1604.00, 
1605.00, 
1606.00, 
1607.00, 
1608.00, 
1609.00, 
1610.00, 
1611.00, 
1612.00, 
1613.00, 
1614.00, 
1615.00, 
1616.00, 
1617.00, 
1618.00, 
1619.00, 
1620.00, 
1621.00, 
1622.00, 
1623.00, 
1624.00, 
1625.00, 
1626.00, 
1627.00, 
1628.00, 
1629.00, 
1630.00, 
1631.00, 
1632.00, 
1633.00, 
1634.00, 
1635.00, 
1636.00, 
1637.00, 
1638.00, 
1639.00, 
1640.00, 
1641.00, 
1642.00, 
1643.00, 
1644.00, 
1645.00, 
1646.00, 
1647.00, 
1648.00, 
1649.00, 
1650.00, 
1651.00, 
1652.00, 
1653.00, 
1654.00, 
1655.00, 
1656.00, 
1657.00, 
1658.00, 
1659.00, 
1660.00, 
1661.00, 
1662.00, 
1663.00, 
1664.00, 
1665.00, 
1666.00, 
1667.00, 
1668.00, 
1669.00, 
1670.00, 
1671.00, 
1672.00, 
1673.00, 
1674.00, 
1675.00, 
1676.00, 
1677.00, 
1678.00, 
1679.00, 
1680.00, 
1681.00, 
1682.00, 
1683.00, 
1684.00, 
1685.00, 
1686.00, 
1687.00, 
1688.00, 
1689.00, 
1690.00, 
1691.00, 
1692.00, 
1693.00, 
1694.00, 
1695.00, 
1696.00, 
1697.00, 
1698.00, 
1699.00, 
1700.00, 
1701.00, 
1702.00, 
1703.00, 
1704.00, 
1705.00, 
1706.00, 
1707.00, 
1708.00, 
1709.00, 
1710.00, 
1711.00, 
1712.00, 
1713.00, 
1714.00, 
1715.00, 
1716.00, 
1717.00, 
1718.00, 
1719.00, 
1720.00, 
1721.00, 
1722.00, 
1723.00, 
1724.00, 
1725.00, 
1726.00, 
1727.00, 
1728.00, 
1729.00, 
1730.00, 
1731.00, 
1732.00, 
1733.00, 
1734.00, 
1735.00, 
1736.00, 
1737.00, 
1738.00, 
1739.00, 
1740.00, 
1741.00, 
1742.00, 
1743.00, 
1744.00, 
1745.00, 
1746.00, 
1747.00, 
1748.00, 
1749.00, 
1750.00, 
1751.00, 
1752.00, 
1753.00, 
1754.00, 
1755.00, 
1756.00, 
1757.00, 
1758.00, 
1759.00, 
1760.00, 
1761.00, 
1762.00, 
1763.00, 
1764.00, 
1765.00, 
1766.00, 
1767.00, 
1768.00, 
1769.00, 
1770.00, 
1771.00, 
1772.00, 
1773.00, 
1774.00, 
1775.00, 
1776.00, 
1777.00, 
1778.00, 
1779.00, 
1780.00, 
1781.00, 
1782.00, 
1783.00, 
1784.00, 
1785.00, 
1786.00, 
1787.00, 
1788.00, 
1789.00, 
1790.00, 
1791.00, 
1792.00, 
1793.00, 
1794.00, 
1795.00, 
1796.00, 
1797.00, 
1798.00, 
1799.00, 
1800.00, 
1801.00, 
1802.00, 
1803.00, 
1804.00, 
1805.00, 
1806.00, 
1807.00, 
1808.00, 
1809.00, 
1810.00, 
1811.00, 
1812.00, 
1813.00, 
1814.00, 
1815.00, 
1816.00, 
1817.00, 
1818.00, 
1819.00, 
1820.00, 
1821.00, 
1822.00, 
1823.00, 
1824.00, 
1825.00, 
1826.00, 
1827.00, 
1828.00, 
1829.00, 
1830.00, 
1831.00, 
1832.00, 
1833.00, 
1834.00, 
1835.00, 
1836.00, 
1837.00, 
1838.00, 
1839.00, 
1840.00, 
1841.00, 
1842.00, 
1843.00, 
1844.00, 
1845.00, 
1846.00, 
1847.00, 
1848.00, 
1849.00, 
1850.00, 
1851.00, 
1852.00, 
1853.00, 
1854.00, 
1855.00, 
1856.00, 
1857.00, 
1858.00, 
1859.00, 
1860.00, 
1861.00, 
1862.00, 
1863.00, 
1864.00, 
1865.00, 
1866.00, 
1867.00, 
1868.00, 
1869.00, 
1870.00, 
1871.00, 
1872.00, 
1873.00, 
1874.00, 
1875.00, 
1876.00, 
1877.00, 
1878.00, 
1879.00, 
1880.00, 
1881.00, 
1882.00, 
1883.00, 
1884.00, 
1885.00, 
1886.00, 
1887.00, 
1888.00, 
1889.00, 
1890.00, 
1891.00, 
1892.00, 
1893.00, 
1894.00, 
1895.00, 
1896.00, 
1897.00, 
1898.00, 
1899.00, 
1900.00, 
1901.00, 
1902.00, 
1903.00, 
1904.00, 
1905.00, 
1906.00, 
1907.00, 
1908.00, 
1909.00, 
1910.00, 
1911.00, 
1912.00, 
1913.00, 
1914.00, 
1915.00, 
1916.00, 
1917.00, 
1918.00, 
1919.00, 
1920.00, 
1921.00, 
1922.00, 
1923.00, 
1924.00, 
1925.00, 
1926.00, 
1927.00, 
1928.00, 
1929.00, 
1930.00, 
1931.00, 
1932.00, 
1933.00, 
1934.00, 
1935.00, 
1936.00, 
1937.00, 
1938.00, 
1939.00, 
1940.00, 
1941.00, 
1942.00, 
1943.00, 
1944.00, 
1945.00, 
1946.00, 
1947.00, 
1948.00, 
1949.00, 
1950.00, 
1951.00, 
1952.00, 
1953.00, 
1954.00, 
1955.00, 
1956.00, 
1957.00, 
1958.00, 
1959.00, 
1960.00, 
1961.00, 
1962.00, 
1963.00, 
1964.00, 
1965.00, 
1966.00, 
1967.00, 
1968.00, 
1969.00, 
1970.00, 
1971.00, 
1972.00, 
1973.00, 
1974.00, 
1975.00, 
1976.00, 
1977.00, 
1978.00, 
1979.00, 
1980.00, 
1981.00, 
1982.00, 
1983.00, 
1984.00, 
1985.00, 
1986.00, 
1987.00, 
1988.00, 
1989.00, 
1990.00, 
1991.00, 
1992.00, 
1993.00, 
1994.00, 
1995.00, 
1996.00, 
1997.00, 
1998.00, 
1999.00, 
2000.00, 
2001.00, 
2002.00, 
2003.00, 
2004.00, 
2005.00, 
2006.00, 
2007.00, 
2008.00, 
2009.00, 
2010.00, 
2011.00, 
2012.00, 
2013.00, 
2014.00, 
2015.00, 
2016.00, 
2017.00, 
2018.00, 
2019.00, 
2020.00, 
2021.00, 
2022.00, 
2023.00, 
2024.00, 
2025.00, 
2026.00, 
2027.00, 
2028.00, 
2029.00, 
2030.00, 
2031.00, 
2032.00, 
2033.00, 
2034.00, 
2035.00, 
2036.00, 
2037.00, 
2038.00, 
2039.00, 
2040.00, 
2041.00, 
2042.00, 
2043.00, 
2044.00, 
2045.00, 
2046.00, 
2047.00, 
2048.00, 
2049.00, 
2050.00, 
2051.00, 
2052.00, 
2053.00, 
2054.00, 
2055.00, 
2056.00, 
2057.00, 
2058.00, 
2059.00, 
2060.00, 
2061.00, 
2062.00, 
2063.00, 
2064.00, 
2065.00, 
2066.00, 
2067.00, 
2068.00, 
2069.00, 
2070.00, 
2071.00, 
2072.00, 
2073.00, 
2074.00, 
2075.00, 
2076.00, 
2077.00, 
2078.00, 
2079.00, 
2080.00, 
2081.00, 
2082.00, 
2083.00, 
2084.00, 
2085.00, 
2086.00, 
2087.00, 
2088.00, 
2089.00, 
2090.00, 
2091.00, 
2092.00, 
2093.00, 
2094.00, 
2095.00, 
2096.00, 
2097.00, 
2098.00, 
2099.00, 
2100.00, 
2101.00, 
2102.00, 
2103.00, 
2104.00, 
2105.00, 
2106.00, 
2107.00, 
2108.00, 
2109.00, 
2110.00, 
2111.00, 
2112.00, 
2113.00, 
2114.00, 
2115.00, 
2116.00, 
2117.00, 
2118.00, 
2119.00, 
2120.00, 
2121.00, 
2122.00, 
2123.00, 
2124.00, 
2125.00, 
2126.00, 
2127.00, 
2128.00, 
2129.00, 
2130.00, 
2131.00, 
2132.00, 
2133.00, 
2134.00, 
2135.00, 
2136.00, 
2137.00, 
2138.00, 
2139.00, 
2140.00, 
2141.00, 
2142.00, 
2143.00, 
2144.00, 
2145.00, 
2146.00, 
2147.00, 
2148.00, 
2149.00, 
2150.00, 
2151.00, 
2152.00, 
2153.00, 
2154.00, 
2155.00, 
2156.00, 
2157.00, 
2158.00, 
2159.00, 
2160.00, 
2161.00, 
2162.00, 
2163.00, 
2164.00, 
2165.00, 
2166.00, 
2167.00, 
2168.00, 
2169.00, 
2170.00, 
2171.00, 
2172.00, 
2173.00, 
2174.00, 
2175.00, 
2176.00, 
2177.00, 
2178.00, 
2179.00, 
2180.00, 
2181.00, 
2182.00, 
2183.00, 
2184.00, 
2185.00, 
2186.00, 
2187.00, 
2188.00, 
2189.00, 
2190.00, 
2191.00, 
2192.00, 
2193.00, 
2194.00, 
2195.00, 
2196.00, 
2197.00, 
2198.00, 
2199.00, 
2200.00, 
2201.00, 
2202.00, 
2203.00, 
2204.00, 
2205.00, 
2206.00, 
2207.00, 
2208.00, 
2209.00, 
2210.00, 
2211.00, 
2212.00, 
2213.00, 
2214.00, 
2215.00, 
2216.00, 
2217.00, 
2218.00, 
2219.00, 
2220.00, 
2221.00, 
2222.00, 
2223.00, 
2224.00, 
2225.00, 
2226.00, 
2227.00, 
2228.00, 
2229.00, 
2230.00, 
2231.00, 
2232.00, 
2233.00, 
2234.00, 
2235.00, 
2236.00, 
2237.00, 
2238.00, 
2239.00, 
2240.00, 
2241.00, 
2242.00, 
2243.00, 
2244.00, 
2245.00, 
2246.00, 
2247.00, 
2248.00, 
2249.00, 
2250.00, 
2251.00, 
2252.00, 
2253.00, 
2254.00, 
2255.00, 
2256.00, 
2257.00, 
2258.00, 
2259.00, 
2260.00, 
2261.00, 
2262.00, 
2263.00, 
2264.00, 
2265.00, 
2266.00, 
2267.00, 
2268.00, 
2269.00, 
2270.00, 
2271.00, 
2272.00, 
2273.00, 
2274.00, 
2275.00, 
2276.00, 
2277.00, 
2278.00, 
2279.00, 
2280.00, 
2281.00, 
2282.00, 
2283.00, 
2284.00, 
2285.00, 
2286.00, 
2287.00, 
2288.00, 
2289.00, 
2290.00, 
2291.00, 
2292.00, 
2293.00, 
2294.00, 
2295.00, 
2296.00, 
2297.00, 
2298.00, 
2299.00, 
2300.00, 
2301.00, 
2302.00, 
2303.00, 
2304.00, 
2305.00, 
2306.00, 
2307.00, 
2308.00, 
2309.00, 
2310.00, 
2311.00, 
2312.00, 
2313.00, 
2314.00, 
2315.00, 
2316.00, 
2317.00, 
2318.00, 
2319.00, 
2320.00, 
2321.00, 
2322.00, 
2323.00, 
2324.00, 
2325.00, 
2326.00, 
2327.00, 
2328.00, 
2329.00, 
2330.00, 
2331.00, 
2332.00, 
2333.00, 
2334.00, 
2335.00, 
2336.00, 
2337.00, 
2338.00, 
2339.00, 
2340.00, 
2341.00, 
2342.00, 
2343.00, 
2344.00, 
2345.00, 
2346.00, 
2347.00, 
2348.00, 
2349.00, 
2350.00, 
2351.00, 
2352.00, 
2353.00, 
2354.00, 
2355.00, 
2356.00, 
2357.00, 
2358.00, 
2359.00, 
2360.00, 
2361.00, 
2362.00, 
2363.00, 
2364.00, 
2365.00, 
2366.00, 
2367.00, 
2368.00, 
2369.00, 
2370.00, 
2371.00, 
2372.00, 
2373.00, 
2374.00, 
2375.00, 
2376.00, 
2377.00, 
2378.00, 
2379.00, 
2380.00, 
2381.00, 
2382.00, 
2383.00, 
2384.00, 
2385.00, 
2386.00, 
2387.00, 
2388.00, 
2389.00, 
2390.00, 
2391.00, 
2392.00, 
2393.00, 
2394.00, 
2395.00, 
2396.00, 
2397.00, 
2398.00, 
2399.00, 
2400.00, 
2401.00, 
2402.00, 
2403.00, 
2404.00, 
2405.00, 
2406.00, 
2407.00, 
2408.00, 
2409.00, 
2410.00, 
2411.00, 
2412.00, 
2413.00, 
2414.00, 
2415.00, 
2416.00, 
2417.00, 
2418.00, 
2419.00, 
2420.00, 
2421.00, 
2422.00, 
2423.00, 
2424.00, 
2425.00, 
2426.00, 
2427.00, 
2428.00, 
2429.00, 
2430.00, 
2431.00, 
2432.00, 
2433.00, 
2434.00, 
2435.00, 
2436.00, 
2437.00, 
2438.00, 
2439.00, 
2440.00, 
2441.00, 
2442.00, 
2443.00, 
2444.00, 
2445.00, 
2446.00, 
2447.00, 
2448.00, 
2449.00, 
2450.00, 
2451.00, 
2452.00, 
2453.00, 
2454.00, 
2455.00, 
2456.00, 
2457.00, 
2458.00, 
2459.00, 
2460.00, 
2461.00, 
2462.00, 
2463.00, 
2464.00, 
2465.00, 
2466.00, 
2467.00, 
2468.00, 
2469.00, 
2470.00, 
2471.00, 
2472.00, 
2473.00, 
2474.00, 
2475.00, 
2476.00, 
2477.00, 
2478.00, 
2479.00, 
2480.00, 
2481.00, 
2482.00, 
2483.00, 
2484.00, 
2485.00, 
2486.00, 
2487.00, 
2488.00, 
2489.00, 
2490.00, 
2491.00, 
2492.00, 
2493.00, 
2494.00, 
2495.00, 
2496.00, 
2497.00, 
2498.00, 
2499.00, 
2500.00, 
2501.00, 
2502.00, 
2503.00, 
2504.00, 
2505.00, 
2506.00, 
2507.00, 
2508.00, 
2509.00, 
2510.00, 
2511.00, 
2512.00, 
2513.00, 
2514.00, 
2515.00, 
2516.00, 
2517.00, 
2518.00, 
2519.00, 
2520.00, 
2521.00, 
2522.00, 
2523.00, 
2524.00, 
2525.00, 
2526.00, 
2527.00, 
2528.00, 
2529.00, 
2530.00, 
2531.00, 
2532.00, 
2533.00, 
2534.00, 
2535.00, 
2536.00, 
2537.00, 
2538.00, 
2539.00, 
2540.00, 
2541.00, 
2542.00, 
2543.00, 
2544.00, 
2545.00, 
2546.00, 
2547.00, 
2548.00, 
2549.00, 
2550.00, 
2551.00, 
2552.00, 
2553.00, 
2554.00, 
2555.00, 
2556.00, 
2557.00, 
2558.00, 
2559.00, 
2560.00, 
2561.00, 
2562.00, 
2563.00, 
2564.00, 
2565.00, 
2566.00, 
2567.00, 
2568.00, 
2569.00, 
2570.00, 
2571.00, 
2572.00, 
2573.00, 
2574.00, 
2575.00, 
2576.00, 
2577.00, 
2578.00, 
2579.00, 
2580.00, 
2581.00, 
2582.00, 
2583.00, 
2584.00, 
2585.00, 
2586.00, 
2587.00, 
2588.00, 
2589.00, 
2590.00, 
2591.00, 
2592.00, 
2593.00, 
2594.00, 
2595.00, 
2596.00, 
2597.00, 
2598.00, 
2599.00, 
2600.00, 
