"1bP2 - RawData"
"Wavelength nm.","T%"
200.00,-0.000
201.00,0.005
202.00,0.001
203.00,-0.001
204.00,-0.000
205.00,0.003
206.00,0.002
207.00,-0.000
208.00,-0.001
209.00,0.001
210.00,0.002
211.00,-0.001
212.00,0.001
213.00,0.001
214.00,0.003
215.00,0.001
216.00,0.000
217.00,0.001
218.00,-0.000
219.00,-0.000
220.00,0.002
221.00,-0.001
222.00,0.003
223.00,0.003
224.00,0.000
225.00,0.001
226.00,0.000
227.00,0.001
228.00,0.000
229.00,0.004
230.00,-0.000
231.00,-0.000
232.00,-0.000
233.00,0.000
234.00,-0.001
235.00,0.001
236.00,-0.000
237.00,0.002
238.00,0.001
239.00,0.002
240.00,-0.001
241.00,-0.000
242.00,0.001
243.00,0.002
244.00,-0.001
245.00,0.000
246.00,-0.001
247.00,0.000
248.00,0.000
249.00,-0.001
250.00,0.000
251.00,0.002
252.00,-0.001
253.00,-0.000
254.00,-0.000
255.00,-0.000
256.00,0.001
257.00,0.001
258.00,-0.000
259.00,-0.002
260.00,0.000
261.00,0.000
262.00,-0.001
263.00,0.001
264.00,0.001
265.00,0.001
266.00,-0.000
267.00,0.001
268.00,0.001
269.00,0.000
270.00,0.001
271.00,0.001
272.00,-0.000
273.00,-0.000
274.00,0.000
275.00,-0.002
276.00,-0.000
277.00,0.001
278.00,0.001
279.00,0.000
280.00,0.001
281.00,-0.000
282.00,0.001
283.00,-0.002
284.00,0.001
285.00,0.002
286.00,-0.002
287.00,0.001
288.00,0.001
289.00,0.000
290.00,0.002
291.00,0.002
292.00,0.001
293.00,0.001
294.00,0.001
295.00,-0.000
296.00,0.001
297.00,0.000
298.00,0.003
299.00,0.002
300.00,0.005
301.00,0.007
302.00,0.008
303.00,0.014
304.00,0.023
305.00,0.036
306.00,0.055
307.00,0.082
308.00,0.125
309.00,0.187
310.00,0.257
311.00,0.353
312.00,0.476
313.00,0.641
314.00,0.852
315.00,1.082
316.00,1.368
317.00,1.713
318.00,2.082
319.00,2.554
320.00,3.044
321.00,3.621
322.00,4.257
323.00,4.967
324.00,5.719
325.00,6.456
326.00,7.210
327.00,8.071
328.00,8.921
329.00,9.821
330.00,10.768
331.00,11.664
332.00,12.619
333.00,13.593
334.00,14.503
335.00,15.395
336.00,16.347
337.00,17.232
338.00,18.094
339.00,18.965
340.00,19.793
341.00,20.610
342.00,21.378
343.00,22.091
344.00,22.772
345.00,23.559
346.00,24.071
347.00,24.605
348.00,25.163
349.00,25.690
350.00,26.179
351.00,26.645
352.00,27.048
353.00,27.413
354.00,27.709
355.00,28.131
356.00,28.396
357.00,28.697
358.00,28.978
359.00,29.226
360.00,29.527
361.00,29.707
362.00,29.863
363.00,30.111
364.00,30.204
365.00,30.380
366.00,30.509
367.00,30.587
368.00,30.725
369.00,30.710
370.00,30.774
371.00,30.764
372.00,30.776
373.00,30.771
374.00,30.809
375.00,30.777
376.00,30.744
377.00,30.681
378.00,30.632
379.00,30.472
380.00,30.488
381.00,30.489
382.00,30.470
383.00,30.488
384.00,30.552
385.00,30.607
386.00,30.598
387.00,30.575
388.00,30.800
389.00,30.799
390.00,30.820
391.00,30.840
392.00,30.918
393.00,30.941
394.00,30.982
395.00,31.002
396.00,31.012
397.00,31.090
398.00,30.992
399.00,31.058
400.00,30.996
401.00,31.058
402.00,31.059
403.00,31.056
404.00,31.022
405.00,31.054
406.00,31.031
407.00,30.963
408.00,30.938
409.00,30.879
410.00,30.833
411.00,30.825
412.00,30.775
413.00,30.814
414.00,30.777
415.00,30.720
416.00,30.835
417.00,30.778
418.00,30.835
419.00,30.876
420.00,30.917
421.00,31.002
422.00,30.983
423.00,30.993
424.00,31.058
425.00,31.091
426.00,31.139
427.00,31.161
428.00,31.235
429.00,31.226
430.00,31.248
431.00,31.335
432.00,31.368
433.00,31.406
434.00,31.457
435.00,31.551
436.00,31.559
437.00,31.628
438.00,31.695
439.00,31.770
440.00,31.782
441.00,31.850
442.00,31.981
443.00,32.014
444.00,32.133
445.00,32.133
446.00,32.204
447.00,32.364
448.00,32.477
449.00,32.568
450.00,32.669
451.00,32.740
452.00,32.783
453.00,32.916
454.00,33.025
455.00,33.107
456.00,33.212
457.00,33.329
458.00,33.388
459.00,33.492
460.00,33.631
461.00,33.740
462.00,33.843
463.00,33.959
464.00,34.085
465.00,34.143
466.00,34.269
467.00,34.399
468.00,34.494
469.00,34.591
470.00,34.622
471.00,34.626
472.00,34.886
473.00,34.924
474.00,35.012
475.00,35.099
476.00,35.140
477.00,35.305
478.00,35.398
479.00,35.542
480.00,35.672
481.00,35.765
482.00,35.898
483.00,36.028
484.00,36.173
485.00,36.337
486.00,36.421
487.00,36.557
488.00,36.713
489.00,36.797
490.00,36.948
491.00,37.036
492.00,37.208
493.00,37.391
494.00,37.512
495.00,37.471
496.00,37.649
497.00,37.664
498.00,37.765
499.00,37.963
500.00,38.020
501.00,38.106
502.00,38.282
503.00,38.366
504.00,38.420
505.00,38.478
506.00,38.671
507.00,38.673
508.00,38.689
509.00,38.918
510.00,39.007
511.00,39.070
512.00,39.157
513.00,39.352
514.00,39.462
515.00,39.526
516.00,39.688
517.00,39.773
518.00,39.832
519.00,39.886
520.00,39.937
521.00,40.032
522.00,40.135
523.00,40.096
524.00,40.162
525.00,40.292
526.00,40.349
527.00,40.396
528.00,40.443
529.00,40.549
530.00,40.652
531.00,40.771
532.00,40.855
533.00,40.970
534.00,41.020
535.00,41.124
536.00,41.156
537.00,41.191
538.00,41.274
539.00,41.352
540.00,41.388
541.00,41.403
542.00,41.400
543.00,41.476
544.00,41.482
545.00,41.532
546.00,41.582
547.00,41.633
548.00,41.732
549.00,41.796
550.00,41.929
551.00,41.950
552.00,42.000
553.00,42.098
554.00,42.136
555.00,42.131
556.00,42.218
557.00,42.241
558.00,42.345
559.00,42.374
560.00,42.379
561.00,42.462
562.00,42.534
563.00,42.530
564.00,42.533
565.00,42.561
566.00,42.566
567.00,42.584
568.00,42.637
569.00,42.659
570.00,42.652
571.00,42.676
572.00,42.701
573.00,42.685
574.00,42.778
575.00,42.705
576.00,42.688
577.00,42.745
578.00,42.883
579.00,42.951
580.00,42.973
581.00,43.061
582.00,43.143
583.00,43.158
584.00,43.274
585.00,43.273
586.00,43.305
587.00,43.338
588.00,43.383
589.00,43.299
590.00,43.338
591.00,43.351
592.00,43.320
593.00,43.404
594.00,43.476
595.00,43.552
596.00,43.558
597.00,43.669
598.00,43.720
599.00,43.695
600.00,43.820
601.00,43.872
602.00,43.885
603.00,43.868
604.00,43.826
605.00,43.904
606.00,43.941
607.00,43.931
608.00,43.986
609.00,44.033
610.00,43.977
611.00,44.076
612.00,44.083
613.00,44.019
614.00,44.110
615.00,44.194
616.00,44.283
617.00,44.253
618.00,44.269
619.00,44.374
620.00,44.346
621.00,44.371
622.00,44.451
623.00,44.526
624.00,44.576
625.00,44.562
626.00,44.613
627.00,44.661
628.00,44.636
629.00,44.676
630.00,44.719
631.00,44.742
632.00,44.807
633.00,44.853
634.00,44.914
635.00,45.072
636.00,45.094
637.00,45.092
638.00,45.136
639.00,45.133
640.00,45.186
641.00,45.256
642.00,45.283
643.00,45.316
644.00,45.418
645.00,45.436
646.00,45.532
647.00,45.546
648.00,45.503
649.00,45.582
650.00,45.561
651.00,45.686
652.00,45.737
653.00,45.858
654.00,45.823
655.00,45.876
656.00,46.063
657.00,46.181
658.00,46.242
659.00,46.319
660.00,46.313
661.00,46.224
662.00,46.305
663.00,46.368
664.00,46.535
665.00,46.628
666.00,46.666
667.00,46.898
668.00,46.297
669.00,46.960
670.00,47.016
671.00,46.897
672.00,46.898
673.00,46.990
674.00,47.093
675.00,47.170
676.00,47.284
677.00,47.365
678.00,47.140
679.00,47.318
680.00,47.418
681.00,47.479
682.00,47.596
683.00,47.613
684.00,47.696
685.00,47.671
686.00,47.603
687.00,47.732
688.00,47.888
689.00,47.756
690.00,47.917
691.00,48.072
692.00,47.927
693.00,47.809
694.00,47.994
695.00,48.218
696.00,48.149
697.00,48.284
698.00,48.296
699.00,48.400
700.00,48.407
701.00,48.434
702.00,48.533
703.00,48.604
704.00,48.648
705.00,48.569
706.00,48.624
707.00,48.768
708.00,48.594
709.00,48.776
710.00,49.130
711.00,48.820
712.00,48.828
713.00,48.952
714.00,48.957
715.00,49.096
716.00,48.921
717.00,49.017
718.00,49.251
719.00,49.179
720.00,49.180
721.00,53.810
722.00,53.849
723.00,53.736
724.00,53.726
725.00,53.681
726.00,53.759
727.00,53.750
728.00,53.773
729.00,53.691
730.00,53.775
731.00,53.689
732.00,53.664
733.00,53.742
734.00,53.728
735.00,53.753
736.00,53.727
737.00,53.723
738.00,53.831
739.00,53.729
740.00,53.717
741.00,53.752
742.00,53.770
743.00,53.783
744.00,53.776
745.00,53.802
746.00,53.703
747.00,53.630
748.00,53.594
749.00,53.717
750.00,53.636
751.00,53.545
752.00,53.507
753.00,53.668
754.00,53.521
755.00,53.530
756.00,53.617
757.00,53.536
758.00,53.548
759.00,53.527
760.00,53.575
761.00,53.516
762.00,53.455
763.00,53.530
764.00,53.474
765.00,53.515
766.00,53.499
767.00,53.488
768.00,53.469
769.00,53.480
770.00,53.468
771.00,53.458
772.00,53.476
773.00,53.478
774.00,53.500
775.00,53.345
776.00,53.405
777.00,53.481
778.00,53.377
779.00,53.421
780.00,53.375
781.00,53.371
782.00,53.380
783.00,53.351
784.00,53.428
785.00,53.261
786.00,53.333
787.00,53.327
788.00,53.273
789.00,53.241
790.00,53.169
791.00,53.277
792.00,53.139
793.00,53.202
794.00,53.160
795.00,53.205
796.00,53.105
797.00,53.044
798.00,53.065
799.00,52.997
800.00,52.938
801.00,52.999
802.00,53.015
803.00,52.922
804.00,52.877
805.00,52.937
806.00,52.881
807.00,52.906
808.00,52.942
809.00,52.855
810.00,52.794
811.00,52.768
812.00,52.820
813.00,52.737
814.00,52.808
815.00,52.760
816.00,52.763
817.00,52.716
818.00,52.587
819.00,52.626
820.00,52.568
821.00,52.601
822.00,52.666
823.00,52.576
824.00,52.592
825.00,52.481
826.00,52.493
827.00,52.608
828.00,52.555
829.00,52.531
830.00,52.497
831.00,55.131
832.00,55.108
833.00,55.025
834.00,55.013
835.00,54.985
836.00,54.994
837.00,54.957
838.00,54.969
839.00,54.922
840.00,54.887
841.00,54.919
842.00,54.835
843.00,54.871
844.00,54.855
845.00,54.764
846.00,54.829
847.00,54.747
848.00,54.709
849.00,54.646
850.00,54.682
851.00,54.608
852.00,54.619
853.00,54.589
854.00,54.541
855.00,54.524
856.00,54.481
857.00,54.443
858.00,54.458
859.00,54.457
860.00,54.309
861.00,54.437
862.00,54.362
863.00,54.375
864.00,54.396
865.00,54.343
866.00,54.335
867.00,54.319
868.00,54.280
869.00,54.294
870.00,54.282
871.00,54.262
872.00,54.282
873.00,54.250
874.00,54.261
875.00,54.234
876.00,54.222
877.00,54.208
878.00,54.209
879.00,54.169
880.00,54.164
881.00,54.134
882.00,54.167
883.00,54.140
884.00,54.067
885.00,54.105
886.00,54.096
887.00,54.053
888.00,54.013
889.00,54.006
890.00,53.991
891.00,53.972
892.00,53.957
893.00,53.950
894.00,53.940
895.00,53.908
896.00,53.892
897.00,53.867
898.00,53.816
899.00,53.865
900.00,53.821
901.00,53.795
902.00,53.828
903.00,53.765
904.00,53.768
905.00,53.768
906.00,53.726
907.00,53.681
908.00,53.694
909.00,53.663
910.00,53.612
911.00,53.651
912.00,53.593
913.00,53.580
914.00,53.614
915.00,53.522
916.00,53.517
917.00,53.555
918.00,53.685
919.00,53.453
920.00,53.432
921.00,53.441
922.00,53.444
923.00,53.410
924.00,53.360
925.00,53.372
926.00,53.338
927.00,53.314
928.00,53.295
929.00,53.331
930.00,53.285
931.00,53.270
932.00,53.251
933.00,53.206
934.00,53.221
935.00,53.177
936.00,53.177
937.00,53.161
938.00,53.151
939.00,53.136
940.00,53.086
941.00,53.090
942.00,53.069
943.00,53.046
944.00,53.008
945.00,53.027
946.00,53.031
947.00,52.985
948.00,52.951
949.00,52.913
950.00,52.984
951.00,52.898
952.00,52.891
953.00,52.880
954.00,52.850
955.00,52.799
956.00,52.778
957.00,52.754
958.00,52.762
959.00,52.702
960.00,52.708
961.00,52.707
962.00,52.696
963.00,52.656
964.00,52.677
965.00,52.696
966.00,52.627
967.00,52.619
968.00,52.607
969.00,52.630
970.00,52.606
971.00,52.635
972.00,52.590
973.00,52.619
974.00,52.642
975.00,52.611
976.00,52.628
977.00,52.604
978.00,52.656
979.00,52.617
980.00,52.645
981.00,52.645
982.00,52.607
983.00,52.620
984.00,52.595
985.00,52.612
986.00,52.571
987.00,52.599
988.00,52.556
989.00,52.522
990.00,52.575
991.00,52.529
992.00,52.534
993.00,52.526
994.00,52.488
995.00,52.463
996.00,52.472
997.00,52.465
998.00,52.438
999.00,52.464
1000.00,52.429
1001.00,52.409
1002.00,52.404
1003.00,52.396
1004.00,52.379
1005.00,52.349
1006.00,52.377
1007.00,52.354
1008.00,52.354
1009.00,52.323
1010.00,52.305
1011.00,52.339
1012.00,52.287
1013.00,52.292
1014.00,52.265
1015.00,52.262
1016.00,52.229
1017.00,52.210
1018.00,52.207
1019.00,52.184
1020.00,52.173
1021.00,52.157
1022.00,52.143
1023.00,52.119
1024.00,52.088
1025.00,52.072
1026.00,52.090
1027.00,52.067
1028.00,52.069
1029.00,52.055
1030.00,52.050
1031.00,52.048
1032.00,52.001
1033.00,52.001
1034.00,51.985
1035.00,51.947
1036.00,51.901
1037.00,51.893
1038.00,51.877
1039.00,51.843
1040.00,51.842
1041.00,51.828
1042.00,51.806
1043.00,51.775
1044.00,51.820
1045.00,51.810
1046.00,51.788
1047.00,51.814
1048.00,51.827
1049.00,51.828
1050.00,51.829
1051.00,51.872
1052.00,51.879
1053.00,51.876
1054.00,51.894
1055.00,51.904
1056.00,51.950
1057.00,51.944
1058.00,51.908
1059.00,51.920
1060.00,51.937
1061.00,51.931
1062.00,51.905
1063.00,51.910
1064.00,51.902
1065.00,51.885
1066.00,51.870
1067.00,51.867
1068.00,51.881
1069.00,51.864
1070.00,51.837
1071.00,51.828
1072.00,51.860
1073.00,51.826
1074.00,51.823
1075.00,51.808
1076.00,51.803
1077.00,51.792
1078.00,51.772
1079.00,51.791
1080.00,51.785
1081.00,51.771
1082.00,51.775
1083.00,51.767
1084.00,51.765
1085.00,51.762
1086.00,51.744
1087.00,51.731
1088.00,51.727
1089.00,51.726
1090.00,51.721
1091.00,51.726
1092.00,51.727
1093.00,51.707
1094.00,51.680
1095.00,51.678
1096.00,51.654
1097.00,51.646
1098.00,51.646
1099.00,51.634
1100.00,51.614
1101.00,51.616
1102.00,51.597
1103.00,51.605
1104.00,51.606
1105.00,51.585
1106.00,51.585
1107.00,51.594
1108.00,51.569
1109.00,51.551
1110.00,51.546
1111.00,51.534
1112.00,51.516
1113.00,51.508
1114.00,51.506
1115.00,51.501
1116.00,51.481
1117.00,51.494
1118.00,51.500
1119.00,51.475
1120.00,51.471
1121.00,51.477
1122.00,51.454
1123.00,51.446
1124.00,51.457
1125.00,51.453
1126.00,51.469
1127.00,51.450
1128.00,51.441
1129.00,51.387
1130.00,51.401
1131.00,51.409
1132.00,51.430
1133.00,51.375
1134.00,51.386
1135.00,51.367
1136.00,51.393
1137.00,51.395
1138.00,51.392
1139.00,51.405
1140.00,51.391
1141.00,51.375
1142.00,51.365
1143.00,51.383
1144.00,51.361
1145.00,51.362
1146.00,51.353
1147.00,51.349
1148.00,51.342
1149.00,51.346
1150.00,51.358
1151.00,51.365
1152.00,51.364
1153.00,51.362
1154.00,51.356
1155.00,51.363
1156.00,51.355
1157.00,51.359
1158.00,51.360
1159.00,51.367
1160.00,51.335
1161.00,51.349
1162.00,51.345
1163.00,51.323
1164.00,51.332
1165.00,51.324
1166.00,51.331
1167.00,51.323
1168.00,51.334
1169.00,51.339
1170.00,51.311
1171.00,51.322
1172.00,51.322
1173.00,51.313
1174.00,51.320
1175.00,51.302
1176.00,51.331
1177.00,51.298
1178.00,51.310
1179.00,51.335
1180.00,51.312
1181.00,51.336
1182.00,51.323
1183.00,51.326
1184.00,51.314
1185.00,51.316
1186.00,51.309
1187.00,51.299
1188.00,51.298
1189.00,51.316
1190.00,51.316
1191.00,51.340
1192.00,51.367
1193.00,51.316
1194.00,51.316
1195.00,51.292
1196.00,51.311
1197.00,51.313
1198.00,51.293
1199.00,51.302
1200.00,51.314
1201.00,51.325
1202.00,51.312
1203.00,51.319
1204.00,51.297
1205.00,51.311
1206.00,51.312
1207.00,51.308
1208.00,51.289
1209.00,51.307
1210.00,51.298
1211.00,51.304
1212.00,51.316
1213.00,51.299
1214.00,51.316
1215.00,51.284
1216.00,51.299
1217.00,51.313
1218.00,51.289
1219.00,51.295
1220.00,51.282
1221.00,51.311
1222.00,51.290
1223.00,51.316
1224.00,51.304
1225.00,51.295
1226.00,51.299
1227.00,51.305
1228.00,51.320
1229.00,51.316
1230.00,51.335
1231.00,51.325
1232.00,51.350
1233.00,51.359
1234.00,51.348
1235.00,51.349
1236.00,51.359
1237.00,51.339
1238.00,51.344
1239.00,51.358
1240.00,51.341
1241.00,51.344
1242.00,51.345
1243.00,51.351
1244.00,51.339
1245.00,51.366
1246.00,51.390
1247.00,51.386
1248.00,51.368
1249.00,51.381
1250.00,51.397
1251.00,51.385
1252.00,51.382
1253.00,51.381
1254.00,51.407
1255.00,51.396
1256.00,51.372
1257.00,51.387
1258.00,51.441
1259.00,51.425
1260.00,51.454
1261.00,51.456
1262.00,51.425
1263.00,51.409
1264.00,51.420
1265.00,51.436
1266.00,51.431
1267.00,51.448
1268.00,51.463
1269.00,51.481
1270.00,51.490
1271.00,51.489
1272.00,51.505
1273.00,51.508
1274.00,51.490
1275.00,51.497
1276.00,51.500
1277.00,51.507
1278.00,51.514
1279.00,51.523
1280.00,51.514
1281.00,51.528
1282.00,51.529
1283.00,51.521
1284.00,51.515
1285.00,51.523
1286.00,51.520
1287.00,51.525
1288.00,51.539
1289.00,51.539
1290.00,51.572
1291.00,51.562
1292.00,51.552
1293.00,51.566
1294.00,51.578
1295.00,51.581
1296.00,51.572
1297.00,51.581
1298.00,51.615
1299.00,51.582
1300.00,51.638
1301.00,51.612
1302.00,51.651
1303.00,51.640
1304.00,51.640
1305.00,51.661
1306.00,51.656
1307.00,51.645
1308.00,51.654
1309.00,51.659
1310.00,51.653
1311.00,51.627
1312.00,51.666
1313.00,51.657
1314.00,51.691
1315.00,51.693
1316.00,51.704
1317.00,51.716
1318.00,51.719
1319.00,51.722
1320.00,51.716
1321.00,51.906
1322.00,51.883
1323.00,51.882
1324.00,51.864
1325.00,51.847
1326.00,51.874
1327.00,51.876
1328.00,51.882
1329.00,51.831
1330.00,51.862
1331.00,51.881
1332.00,51.867
1333.00,51.864
1334.00,51.903
1335.00,51.924
1336.00,51.943
1337.00,51.989
1338.00,52.029
1339.00,52.099
1340.00,52.155
1341.00,52.219
1342.00,52.280
1343.00,52.314
1344.00,52.349
1345.00,52.439
1346.00,52.440
1347.00,52.460
1348.00,52.488
1349.00,52.503
1350.00,52.534
1351.00,52.540
1352.00,52.537
1353.00,52.543
1354.00,52.553
1355.00,52.512
1356.00,52.587
1357.00,52.570
1358.00,52.607
1359.00,52.581
1360.00,52.622
1361.00,52.667
1362.00,52.475
1363.00,52.694
1364.00,52.799
1365.00,52.601
1366.00,52.724
1367.00,52.650
1368.00,52.493
1369.00,52.709
1370.00,52.579
1371.00,52.541
1372.00,52.549
1373.00,52.619
1374.00,52.599
1375.00,52.597
1376.00,52.556
1377.00,52.532
1378.00,52.610
1379.00,52.601
1380.00,52.608
1381.00,52.725
1382.00,52.591
1383.00,52.665
1384.00,52.514
1385.00,52.454
1386.00,52.576
1387.00,52.547
1388.00,52.501
1389.00,52.485
1390.00,52.417
1391.00,52.547
1392.00,52.556
1393.00,52.694
1394.00,52.647
1395.00,52.449
1396.00,52.481
1397.00,52.448
1398.00,52.582
1399.00,52.604
1400.00,52.442
1401.00,52.437
1402.00,52.602
1403.00,52.581
1404.00,52.501
1405.00,52.623
1406.00,52.575
1407.00,52.595
1408.00,52.641
1409.00,52.558
1410.00,52.615
1411.00,52.591
1412.00,52.698
1413.00,52.622
1414.00,52.590
1415.00,52.615
1416.00,52.678
1417.00,52.744
1418.00,52.642
1419.00,52.654
1420.00,52.660
1421.00,52.710
1422.00,52.709
1423.00,52.695
1424.00,52.715
1425.00,52.728
1426.00,52.749
1427.00,52.781
1428.00,52.753
1429.00,52.766
1430.00,52.816
1431.00,52.794
1432.00,52.804
1433.00,52.831
1434.00,52.805
1435.00,52.908
1436.00,52.887
1437.00,52.872
1438.00,52.876
1439.00,52.916
1440.00,52.937
1441.00,52.950
1442.00,52.948
1443.00,52.977
1444.00,53.070
1445.00,52.977
1446.00,52.990
1447.00,53.030
1448.00,53.058
1449.00,53.072
1450.00,53.070
1451.00,53.064
1452.00,53.092
1453.00,53.102
1454.00,53.125
1455.00,53.144
1456.00,53.142
1457.00,53.142
1458.00,53.169
1459.00,53.170
1460.00,53.207
1461.00,53.209
1462.00,53.233
1463.00,53.255
1464.00,53.253
1465.00,53.263
1466.00,53.272
1467.00,53.286
1468.00,53.352
1469.00,53.316
1470.00,53.328
1471.00,53.347
1472.00,53.365
1473.00,53.362
1474.00,53.416
1475.00,53.404
1476.00,53.420
1477.00,53.425
1478.00,53.412
1479.00,53.447
1480.00,53.433
1481.00,53.460
1482.00,53.496
1483.00,53.504
1484.00,53.497
1485.00,53.509
1486.00,53.506
1487.00,53.525
1488.00,53.559
1489.00,53.538
1490.00,53.559
1491.00,53.577
1492.00,53.584
1493.00,53.588
1494.00,53.621
1495.00,53.594
1496.00,53.634
1497.00,53.617
1498.00,53.610
1499.00,53.637
1500.00,53.638
1501.00, 
1502.00, 
1503.00, 
1504.00, 
1505.00, 
1506.00, 
1507.00, 
1508.00, 
1509.00, 
1510.00, 
1511.00, 
1512.00, 
1513.00, 
1514.00, 
1515.00, 
1516.00, 
1517.00, 
1518.00, 
1519.00, 
1520.00, 
1521.00, 
1522.00, 
1523.00, 
1524.00, 
1525.00, 
1526.00, 
1527.00, 
1528.00, 
1529.00, 
1530.00, 
1531.00, 
1532.00, 
1533.00, 
1534.00, 
1535.00, 
1536.00, 
1537.00, 
1538.00, 
1539.00, 
1540.00, 
1541.00, 
1542.00, 
1543.00, 
1544.00, 
1545.00, 
1546.00, 
1547.00, 
1548.00, 
1549.00, 
1550.00, 
1551.00, 
1552.00, 
1553.00, 
1554.00, 
1555.00, 
1556.00, 
1557.00, 
1558.00, 
1559.00, 
1560.00, 
1561.00, 
1562.00, 
1563.00, 
1564.00, 
1565.00, 
1566.00, 
1567.00, 
1568.00, 
1569.00, 
1570.00, 
1571.00, 
1572.00, 
1573.00, 
1574.00, 
1575.00, 
1576.00, 
1577.00, 
1578.00, 
1579.00, 
1580.00, 
1581.00, 
1582.00, 
1583.00, 
1584.00, 
1585.00, 
1586.00, 
1587.00, 
1588.00, 
1589.00, 
1590.00, 
1591.00, 
1592.00, 
1593.00, 
1594.00, 
1595.00, 
1596.00, 
1597.00, 
1598.00, 
1599.00, 
1600.00, 
1601.00, 
1602.00, 
1603.00, 
1604.00, 
1605.00, 
1606.00, 
1607.00, 
1608.00, 
1609.00, 
1610.00, 
1611.00, 
1612.00, 
1613.00, 
1614.00, 
1615.00, 
1616.00, 
1617.00, 
1618.00, 
1619.00, 
1620.00, 
1621.00, 
1622.00, 
1623.00, 
1624.00, 
1625.00, 
1626.00, 
1627.00, 
1628.00, 
1629.00, 
1630.00, 
1631.00, 
1632.00, 
1633.00, 
1634.00, 
1635.00, 
1636.00, 
1637.00, 
1638.00, 
1639.00, 
1640.00, 
1641.00, 
1642.00, 
1643.00, 
1644.00, 
1645.00, 
1646.00, 
1647.00, 
1648.00, 
1649.00, 
1650.00, 
1651.00, 
1652.00, 
1653.00, 
1654.00, 
1655.00, 
1656.00, 
1657.00, 
1658.00, 
1659.00, 
1660.00, 
1661.00, 
1662.00, 
1663.00, 
1664.00, 
1665.00, 
1666.00, 
1667.00, 
1668.00, 
1669.00, 
1670.00, 
1671.00, 
1672.00, 
1673.00, 
1674.00, 
1675.00, 
1676.00, 
1677.00, 
1678.00, 
1679.00, 
1680.00, 
1681.00, 
1682.00, 
1683.00, 
1684.00, 
1685.00, 
1686.00, 
1687.00, 
1688.00, 
1689.00, 
1690.00, 
1691.00, 
1692.00, 
1693.00, 
1694.00, 
1695.00, 
1696.00, 
1697.00, 
1698.00, 
1699.00, 
1700.00, 
1701.00, 
1702.00, 
1703.00, 
1704.00, 
1705.00, 
1706.00, 
1707.00, 
1708.00, 
1709.00, 
1710.00, 
1711.00, 
1712.00, 
1713.00, 
1714.00, 
1715.00, 
1716.00, 
1717.00, 
1718.00, 
1719.00, 
1720.00, 
1721.00, 
1722.00, 
1723.00, 
1724.00, 
1725.00, 
1726.00, 
1727.00, 
1728.00, 
1729.00, 
1730.00, 
1731.00, 
1732.00, 
1733.00, 
1734.00, 
1735.00, 
1736.00, 
1737.00, 
1738.00, 
1739.00, 
1740.00, 
1741.00, 
1742.00, 
1743.00, 
1744.00, 
1745.00, 
1746.00, 
1747.00, 
1748.00, 
1749.00, 
1750.00, 
1751.00, 
1752.00, 
1753.00, 
1754.00, 
1755.00, 
1756.00, 
1757.00, 
1758.00, 
1759.00, 
1760.00, 
1761.00, 
1762.00, 
1763.00, 
1764.00, 
1765.00, 
1766.00, 
1767.00, 
1768.00, 
1769.00, 
1770.00, 
1771.00, 
1772.00, 
1773.00, 
1774.00, 
1775.00, 
1776.00, 
1777.00, 
1778.00, 
1779.00, 
1780.00, 
1781.00, 
1782.00, 
1783.00, 
1784.00, 
1785.00, 
1786.00, 
1787.00, 
1788.00, 
1789.00, 
1790.00, 
1791.00, 
1792.00, 
1793.00, 
1794.00, 
1795.00, 
1796.00, 
1797.00, 
1798.00, 
1799.00, 
1800.00, 
1801.00, 
1802.00, 
1803.00, 
1804.00, 
1805.00, 
1806.00, 
1807.00, 
1808.00, 
1809.00, 
1810.00, 
1811.00, 
1812.00, 
1813.00, 
1814.00, 
1815.00, 
1816.00, 
1817.00, 
1818.00, 
1819.00, 
1820.00, 
1821.00, 
1822.00, 
1823.00, 
1824.00, 
1825.00, 
1826.00, 
1827.00, 
1828.00, 
1829.00, 
1830.00, 
1831.00, 
1832.00, 
1833.00, 
1834.00, 
1835.00, 
1836.00, 
1837.00, 
1838.00, 
1839.00, 
1840.00, 
1841.00, 
1842.00, 
1843.00, 
1844.00, 
1845.00, 
1846.00, 
1847.00, 
1848.00, 
1849.00, 
1850.00, 
1851.00, 
1852.00, 
1853.00, 
1854.00, 
1855.00, 
1856.00, 
1857.00, 
1858.00, 
1859.00, 
1860.00, 
1861.00, 
1862.00, 
1863.00, 
1864.00, 
1865.00, 
1866.00, 
1867.00, 
1868.00, 
1869.00, 
1870.00, 
1871.00, 
1872.00, 
1873.00, 
1874.00, 
1875.00, 
1876.00, 
1877.00, 
1878.00, 
1879.00, 
1880.00, 
1881.00, 
1882.00, 
1883.00, 
1884.00, 
1885.00, 
1886.00, 
1887.00, 
1888.00, 
1889.00, 
1890.00, 
1891.00, 
1892.00, 
1893.00, 
1894.00, 
1895.00, 
1896.00, 
1897.00, 
1898.00, 
1899.00, 
1900.00, 
1901.00, 
1902.00, 
1903.00, 
1904.00, 
1905.00, 
1906.00, 
1907.00, 
1908.00, 
1909.00, 
1910.00, 
1911.00, 
1912.00, 
1913.00, 
1914.00, 
1915.00, 
1916.00, 
1917.00, 
1918.00, 
1919.00, 
1920.00, 
1921.00, 
1922.00, 
1923.00, 
1924.00, 
1925.00, 
1926.00, 
1927.00, 
1928.00, 
1929.00, 
1930.00, 
1931.00, 
1932.00, 
1933.00, 
1934.00, 
1935.00, 
1936.00, 
1937.00, 
1938.00, 
1939.00, 
1940.00, 
1941.00, 
1942.00, 
1943.00, 
1944.00, 
1945.00, 
1946.00, 
1947.00, 
1948.00, 
1949.00, 
1950.00, 
1951.00, 
1952.00, 
1953.00, 
1954.00, 
1955.00, 
1956.00, 
1957.00, 
1958.00, 
1959.00, 
1960.00, 
1961.00, 
1962.00, 
1963.00, 
1964.00, 
1965.00, 
1966.00, 
1967.00, 
1968.00, 
1969.00, 
1970.00, 
1971.00, 
1972.00, 
1973.00, 
1974.00, 
1975.00, 
1976.00, 
1977.00, 
1978.00, 
1979.00, 
1980.00, 
1981.00, 
1982.00, 
1983.00, 
1984.00, 
1985.00, 
1986.00, 
1987.00, 
1988.00, 
1989.00, 
1990.00, 
1991.00, 
1992.00, 
1993.00, 
1994.00, 
1995.00, 
1996.00, 
1997.00, 
1998.00, 
1999.00, 
2000.00, 
2001.00, 
2002.00, 
2003.00, 
2004.00, 
2005.00, 
2006.00, 
2007.00, 
2008.00, 
2009.00, 
2010.00, 
2011.00, 
2012.00, 
2013.00, 
2014.00, 
2015.00, 
2016.00, 
2017.00, 
2018.00, 
2019.00, 
2020.00, 
2021.00, 
2022.00, 
2023.00, 
2024.00, 
2025.00, 
2026.00, 
2027.00, 
2028.00, 
2029.00, 
2030.00, 
2031.00, 
2032.00, 
2033.00, 
2034.00, 
2035.00, 
2036.00, 
2037.00, 
2038.00, 
2039.00, 
2040.00, 
2041.00, 
2042.00, 
2043.00, 
2044.00, 
2045.00, 
2046.00, 
2047.00, 
2048.00, 
2049.00, 
2050.00, 
2051.00, 
2052.00, 
2053.00, 
2054.00, 
2055.00, 
2056.00, 
2057.00, 
2058.00, 
2059.00, 
2060.00, 
2061.00, 
2062.00, 
2063.00, 
2064.00, 
2065.00, 
2066.00, 
2067.00, 
2068.00, 
2069.00, 
2070.00, 
2071.00, 
2072.00, 
2073.00, 
2074.00, 
2075.00, 
2076.00, 
2077.00, 
2078.00, 
2079.00, 
2080.00, 
2081.00, 
2082.00, 
2083.00, 
2084.00, 
2085.00, 
2086.00, 
2087.00, 
2088.00, 
2089.00, 
2090.00, 
2091.00, 
2092.00, 
2093.00, 
2094.00, 
2095.00, 
2096.00, 
2097.00, 
2098.00, 
2099.00, 
2100.00, 
2101.00, 
2102.00, 
2103.00, 
2104.00, 
2105.00, 
2106.00, 
2107.00, 
2108.00, 
2109.00, 
2110.00, 
2111.00, 
2112.00, 
2113.00, 
2114.00, 
2115.00, 
2116.00, 
2117.00, 
2118.00, 
2119.00, 
2120.00, 
2121.00, 
2122.00, 
2123.00, 
2124.00, 
2125.00, 
2126.00, 
2127.00, 
2128.00, 
2129.00, 
2130.00, 
2131.00, 
2132.00, 
2133.00, 
2134.00, 
2135.00, 
2136.00, 
2137.00, 
2138.00, 
2139.00, 
2140.00, 
2141.00, 
2142.00, 
2143.00, 
2144.00, 
2145.00, 
2146.00, 
2147.00, 
2148.00, 
2149.00, 
2150.00, 
2151.00, 
2152.00, 
2153.00, 
2154.00, 
2155.00, 
2156.00, 
2157.00, 
2158.00, 
2159.00, 
2160.00, 
2161.00, 
2162.00, 
2163.00, 
2164.00, 
2165.00, 
2166.00, 
2167.00, 
2168.00, 
2169.00, 
2170.00, 
2171.00, 
2172.00, 
2173.00, 
2174.00, 
2175.00, 
2176.00, 
2177.00, 
2178.00, 
2179.00, 
2180.00, 
2181.00, 
2182.00, 
2183.00, 
2184.00, 
2185.00, 
2186.00, 
2187.00, 
2188.00, 
2189.00, 
2190.00, 
2191.00, 
2192.00, 
2193.00, 
2194.00, 
2195.00, 
2196.00, 
2197.00, 
2198.00, 
2199.00, 
2200.00, 
2201.00, 
2202.00, 
2203.00, 
2204.00, 
2205.00, 
2206.00, 
2207.00, 
2208.00, 
2209.00, 
2210.00, 
2211.00, 
2212.00, 
2213.00, 
2214.00, 
2215.00, 
2216.00, 
2217.00, 
2218.00, 
2219.00, 
2220.00, 
2221.00, 
2222.00, 
2223.00, 
2224.00, 
2225.00, 
2226.00, 
2227.00, 
2228.00, 
2229.00, 
2230.00, 
2231.00, 
2232.00, 
2233.00, 
2234.00, 
2235.00, 
2236.00, 
2237.00, 
2238.00, 
2239.00, 
2240.00, 
2241.00, 
2242.00, 
2243.00, 
2244.00, 
2245.00, 
2246.00, 
2247.00, 
2248.00, 
2249.00, 
2250.00, 
2251.00, 
2252.00, 
2253.00, 
2254.00, 
2255.00, 
2256.00, 
2257.00, 
2258.00, 
2259.00, 
2260.00, 
2261.00, 
2262.00, 
2263.00, 
2264.00, 
2265.00, 
2266.00, 
2267.00, 
2268.00, 
2269.00, 
2270.00, 
2271.00, 
2272.00, 
2273.00, 
2274.00, 
2275.00, 
2276.00, 
2277.00, 
2278.00, 
2279.00, 
2280.00, 
2281.00, 
2282.00, 
2283.00, 
2284.00, 
2285.00, 
2286.00, 
2287.00, 
2288.00, 
2289.00, 
2290.00, 
2291.00, 
2292.00, 
2293.00, 
2294.00, 
2295.00, 
2296.00, 
2297.00, 
2298.00, 
2299.00, 
2300.00, 
2301.00, 
2302.00, 
2303.00, 
2304.00, 
2305.00, 
2306.00, 
2307.00, 
2308.00, 
2309.00, 
2310.00, 
2311.00, 
2312.00, 
2313.00, 
2314.00, 
2315.00, 
2316.00, 
2317.00, 
2318.00, 
2319.00, 
2320.00, 
2321.00, 
2322.00, 
2323.00, 
2324.00, 
2325.00, 
2326.00, 
2327.00, 
2328.00, 
2329.00, 
2330.00, 
2331.00, 
2332.00, 
2333.00, 
2334.00, 
2335.00, 
2336.00, 
2337.00, 
2338.00, 
2339.00, 
2340.00, 
2341.00, 
2342.00, 
2343.00, 
2344.00, 
2345.00, 
2346.00, 
2347.00, 
2348.00, 
2349.00, 
2350.00, 
2351.00, 
2352.00, 
2353.00, 
2354.00, 
2355.00, 
2356.00, 
2357.00, 
2358.00, 
2359.00, 
2360.00, 
2361.00, 
2362.00, 
2363.00, 
2364.00, 
2365.00, 
2366.00, 
2367.00, 
2368.00, 
2369.00, 
2370.00, 
2371.00, 
2372.00, 
2373.00, 
2374.00, 
2375.00, 
2376.00, 
2377.00, 
2378.00, 
2379.00, 
2380.00, 
2381.00, 
2382.00, 
2383.00, 
2384.00, 
2385.00, 
2386.00, 
2387.00, 
2388.00, 
2389.00, 
2390.00, 
2391.00, 
2392.00, 
2393.00, 
2394.00, 
2395.00, 
2396.00, 
2397.00, 
2398.00, 
2399.00, 
2400.00, 
2401.00, 
2402.00, 
2403.00, 
2404.00, 
2405.00, 
2406.00, 
2407.00, 
2408.00, 
2409.00, 
2410.00, 
2411.00, 
2412.00, 
2413.00, 
2414.00, 
2415.00, 
2416.00, 
2417.00, 
2418.00, 
2419.00, 
2420.00, 
2421.00, 
2422.00, 
2423.00, 
2424.00, 
2425.00, 
2426.00, 
2427.00, 
2428.00, 
2429.00, 
2430.00, 
2431.00, 
2432.00, 
2433.00, 
2434.00, 
2435.00, 
2436.00, 
2437.00, 
2438.00, 
2439.00, 
2440.00, 
2441.00, 
2442.00, 
2443.00, 
2444.00, 
2445.00, 
2446.00, 
2447.00, 
2448.00, 
2449.00, 
2450.00, 
2451.00, 
2452.00, 
2453.00, 
2454.00, 
2455.00, 
2456.00, 
2457.00, 
2458.00, 
2459.00, 
2460.00, 
2461.00, 
2462.00, 
2463.00, 
2464.00, 
2465.00, 
2466.00, 
2467.00, 
2468.00, 
2469.00, 
2470.00, 
2471.00, 
2472.00, 
2473.00, 
2474.00, 
2475.00, 
2476.00, 
2477.00, 
2478.00, 
2479.00, 
2480.00, 
2481.00, 
2482.00, 
2483.00, 
2484.00, 
2485.00, 
2486.00, 
2487.00, 
2488.00, 
2489.00, 
2490.00, 
2491.00, 
2492.00, 
2493.00, 
2494.00, 
2495.00, 
2496.00, 
2497.00, 
2498.00, 
2499.00, 
2500.00, 
2501.00, 
2502.00, 
2503.00, 
2504.00, 
2505.00, 
2506.00, 
2507.00, 
2508.00, 
2509.00, 
2510.00, 
2511.00, 
2512.00, 
2513.00, 
2514.00, 
2515.00, 
2516.00, 
2517.00, 
2518.00, 
2519.00, 
2520.00, 
2521.00, 
2522.00, 
2523.00, 
2524.00, 
2525.00, 
2526.00, 
2527.00, 
2528.00, 
2529.00, 
2530.00, 
2531.00, 
2532.00, 
2533.00, 
2534.00, 
2535.00, 
2536.00, 
2537.00, 
2538.00, 
2539.00, 
2540.00, 
2541.00, 
2542.00, 
2543.00, 
2544.00, 
2545.00, 
2546.00, 
2547.00, 
2548.00, 
2549.00, 
2550.00, 
2551.00, 
2552.00, 
2553.00, 
2554.00, 
2555.00, 
2556.00, 
2557.00, 
2558.00, 
2559.00, 
2560.00, 
2561.00, 
2562.00, 
2563.00, 
2564.00, 
2565.00, 
2566.00, 
2567.00, 
2568.00, 
2569.00, 
2570.00, 
2571.00, 
2572.00, 
2573.00, 
2574.00, 
2575.00, 
2576.00, 
2577.00, 
2578.00, 
2579.00, 
2580.00, 
2581.00, 
2582.00, 
2583.00, 
2584.00, 
2585.00, 
2586.00, 
2587.00, 
2588.00, 
2589.00, 
2590.00, 
2591.00, 
2592.00, 
2593.00, 
2594.00, 
2595.00, 
2596.00, 
2597.00, 
2598.00, 
2599.00, 
2600.00, 
