"2aP2 - RawData"
"Wavelength nm.","T%"
200.00,0.002
201.00,0.001
202.00,0.003
203.00,0.003
204.00,0.001
205.00,-0.000
206.00,0.003
207.00,-0.000
208.00,0.002
209.00,0.002
210.00,-0.000
211.00,0.002
212.00,0.001
213.00,0.002
214.00,0.002
215.00,0.002
216.00,0.001
217.00,0.003
218.00,0.001
219.00,0.001
220.00,-0.000
221.00,0.006
222.00,0.002
223.00,0.002
224.00,0.003
225.00,0.001
226.00,0.002
227.00,0.001
228.00,0.002
229.00,0.002
230.00,-0.001
231.00,0.001
232.00,0.003
233.00,0.001
234.00,0.001
235.00,0.003
236.00,0.002
237.00,0.001
238.00,0.003
239.00,0.002
240.00,0.001
241.00,0.001
242.00,0.003
243.00,0.003
244.00,0.001
245.00,0.001
246.00,0.001
247.00,0.002
248.00,0.001
249.00,0.000
250.00,0.000
251.00,0.002
252.00,-0.000
253.00,0.003
254.00,0.000
255.00,0.002
256.00,0.002
257.00,0.002
258.00,0.001
259.00,0.002
260.00,0.001
261.00,-0.001
262.00,-0.000
263.00,0.001
264.00,0.002
265.00,0.001
266.00,0.001
267.00,-0.001
268.00,-0.001
269.00,0.001
270.00,0.001
271.00,-0.002
272.00,-0.001
273.00,0.001
274.00,0.000
275.00,0.001
276.00,0.002
277.00,0.000
278.00,-0.001
279.00,0.001
280.00,0.001
281.00,0.001
282.00,0.001
283.00,0.001
284.00,-0.001
285.00,-0.000
286.00,-0.000
287.00,-0.002
288.00,0.001
289.00,0.000
290.00,-0.001
291.00,-0.001
292.00,0.000
293.00,-0.002
294.00,-0.000
295.00,0.000
296.00,0.001
297.00,0.002
298.00,0.000
299.00,0.001
300.00,0.001
301.00,0.002
302.00,0.005
303.00,0.008
304.00,0.012
305.00,0.016
306.00,0.026
307.00,0.038
308.00,0.062
309.00,0.093
310.00,0.135
311.00,0.178
312.00,0.250
313.00,0.327
314.00,0.432
315.00,0.556
316.00,0.717
317.00,0.897
318.00,1.108
319.00,1.366
320.00,1.660
321.00,1.975
322.00,2.340
323.00,2.764
324.00,3.193
325.00,3.606
326.00,4.059
327.00,4.596
328.00,5.150
329.00,5.666
330.00,6.258
331.00,6.846
332.00,7.417
333.00,8.069
334.00,8.593
335.00,9.212
336.00,9.836
337.00,10.451
338.00,11.039
339.00,11.544
340.00,12.159
341.00,12.688
342.00,13.190
343.00,13.680
344.00,14.143
345.00,14.670
346.00,15.064
347.00,15.434
348.00,15.831
349.00,16.172
350.00,16.539
351.00,16.852
352.00,17.129
353.00,17.410
354.00,17.646
355.00,17.919
356.00,18.098
357.00,18.304
358.00,18.510
359.00,18.743
360.00,18.957
361.00,19.083
362.00,19.188
363.00,19.347
364.00,19.433
365.00,19.510
366.00,19.594
367.00,19.654
368.00,19.709
369.00,19.704
370.00,19.809
371.00,19.817
372.00,19.796
373.00,19.771
374.00,19.803
375.00,19.848
376.00,19.745
377.00,19.682
378.00,19.620
379.00,19.601
380.00,19.519
381.00,19.559
382.00,19.529
383.00,19.544
384.00,19.539
385.00,19.586
386.00,19.563
387.00,19.622
388.00,19.680
389.00,19.698
390.00,19.711
391.00,19.717
392.00,19.748
393.00,19.693
394.00,19.735
395.00,19.758
396.00,19.762
397.00,19.760
398.00,19.723
399.00,19.747
400.00,19.759
401.00,19.750
402.00,19.738
403.00,19.717
404.00,19.690
405.00,19.730
406.00,19.734
407.00,19.691
408.00,19.650
409.00,19.629
410.00,19.581
411.00,19.611
412.00,19.577
413.00,19.610
414.00,19.601
415.00,19.589
416.00,19.679
417.00,19.627
418.00,19.663
419.00,19.733
420.00,19.783
421.00,19.815
422.00,19.838
423.00,19.869
424.00,19.917
425.00,19.965
426.00,19.980
427.00,20.022
428.00,20.073
429.00,20.101
430.00,20.170
431.00,20.224
432.00,20.267
433.00,20.314
434.00,20.412
435.00,20.492
436.00,20.511
437.00,20.588
438.00,20.660
439.00,20.702
440.00,20.829
441.00,20.889
442.00,20.972
443.00,21.050
444.00,21.192
445.00,21.265
446.00,21.342
447.00,21.429
448.00,21.530
449.00,21.688
450.00,21.792
451.00,21.865
452.00,21.957
453.00,22.099
454.00,22.164
455.00,22.309
456.00,22.437
457.00,22.541
458.00,22.620
459.00,22.795
460.00,22.943
461.00,23.083
462.00,23.199
463.00,23.339
464.00,23.484
465.00,23.599
466.00,23.743
467.00,23.901
468.00,23.969
469.00,24.118
470.00,24.214
471.00,24.318
472.00,24.461
473.00,24.560
474.00,24.670
475.00,24.801
476.00,24.914
477.00,25.023
478.00,25.185
479.00,25.354
480.00,25.451
481.00,25.610
482.00,25.758
483.00,25.915
484.00,26.102
485.00,26.248
486.00,26.387
487.00,26.530
488.00,26.697
489.00,26.859
490.00,27.008
491.00,27.170
492.00,27.320
493.00,27.492
494.00,27.677
495.00,27.679
496.00,27.755
497.00,27.937
498.00,28.102
499.00,28.266
500.00,28.372
501.00,28.484
502.00,28.645
503.00,28.783
504.00,28.872
505.00,29.016
506.00,29.097
507.00,29.173
508.00,29.362
509.00,29.507
510.00,29.685
511.00,29.771
512.00,29.938
513.00,30.122
514.00,30.191
515.00,30.373
516.00,30.485
517.00,30.579
518.00,30.700
519.00,30.736
520.00,30.839
521.00,30.991
522.00,31.072
523.00,31.074
524.00,31.207
525.00,31.356
526.00,31.423
527.00,31.451
528.00,31.555
529.00,31.738
530.00,31.886
531.00,32.005
532.00,32.039
533.00,32.167
534.00,32.219
535.00,32.383
536.00,32.438
537.00,32.496
538.00,32.506
539.00,32.641
540.00,32.746
541.00,32.832
542.00,32.849
543.00,32.933
544.00,32.978
545.00,33.087
546.00,33.101
547.00,33.235
548.00,33.325
549.00,33.377
550.00,33.518
551.00,33.564
552.00,33.552
553.00,33.645
554.00,33.805
555.00,33.830
556.00,33.926
557.00,33.984
558.00,34.037
559.00,34.067
560.00,34.161
561.00,34.221
562.00,34.353
563.00,34.327
564.00,34.372
565.00,34.431
566.00,34.410
567.00,34.461
568.00,34.561
569.00,34.626
570.00,34.637
571.00,34.699
572.00,34.697
573.00,34.678
574.00,34.806
575.00,34.762
576.00,34.806
577.00,34.816
578.00,34.987
579.00,35.019
580.00,35.034
581.00,35.257
582.00,35.310
583.00,35.231
584.00,35.365
585.00,35.423
586.00,35.489
587.00,35.602
588.00,35.619
589.00,35.551
590.00,35.656
591.00,35.711
592.00,35.713
593.00,35.710
594.00,35.823
595.00,35.971
596.00,36.004
597.00,36.087
598.00,36.118
599.00,36.053
600.00,36.141
601.00,36.265
602.00,36.227
603.00,36.304
604.00,36.348
605.00,36.428
606.00,36.407
607.00,36.444
608.00,36.587
609.00,36.672
610.00,36.620
611.00,36.679
612.00,36.692
613.00,36.794
614.00,36.845
615.00,36.881
616.00,37.016
617.00,37.045
618.00,37.002
619.00,37.151
620.00,37.151
621.00,37.213
622.00,37.356
623.00,37.400
624.00,37.462
625.00,37.492
626.00,37.587
627.00,37.662
628.00,37.684
629.00,37.757
630.00,37.817
631.00,37.903
632.00,37.973
633.00,38.055
634.00,38.192
635.00,38.292
636.00,38.351
637.00,38.430
638.00,38.548
639.00,38.586
640.00,38.626
641.00,38.697
642.00,38.765
643.00,38.905
644.00,38.969
645.00,39.070
646.00,39.233
647.00,39.282
648.00,39.375
649.00,39.335
650.00,39.366
651.00,39.602
652.00,39.744
653.00,39.743
654.00,39.740
655.00,40.044
656.00,40.311
657.00,40.079
658.00,40.277
659.00,40.486
660.00,40.508
661.00,40.438
662.00,40.553
663.00,40.655
664.00,41.030
665.00,41.214
666.00,41.136
667.00,41.283
668.00,40.897
669.00,41.624
670.00,41.779
671.00,41.715
672.00,41.695
673.00,41.829
674.00,41.898
675.00,42.078
676.00,42.294
677.00,42.428
678.00,42.222
679.00,42.425
680.00,42.611
681.00,42.787
682.00,42.847
683.00,42.882
684.00,43.059
685.00,43.144
686.00,43.044
687.00,43.206
688.00,43.346
689.00,43.400
690.00,43.737
691.00,43.927
692.00,43.760
693.00,43.701
694.00,43.933
695.00,44.132
696.00,44.225
697.00,44.261
698.00,44.356
699.00,44.665
700.00,44.671
701.00,44.669
702.00,44.805
703.00,44.934
704.00,45.119
705.00,45.003
706.00,45.183
707.00,45.241
708.00,45.074
709.00,45.627
710.00,45.907
711.00,45.493
712.00,45.612
713.00,45.874
714.00,45.827
715.00,45.988
716.00,45.996
717.00,46.170
718.00,46.172
719.00,46.264
720.00,46.527
721.00,50.888
722.00,50.911
723.00,50.953
724.00,50.971
725.00,51.004
726.00,51.087
727.00,51.165
728.00,51.182
729.00,51.205
730.00,51.302
731.00,51.249
732.00,51.326
733.00,51.449
734.00,51.428
735.00,51.554
736.00,51.496
737.00,51.563
738.00,51.667
739.00,51.686
740.00,51.796
741.00,51.739
742.00,51.897
743.00,51.908
744.00,51.848
745.00,51.902
746.00,51.939
747.00,51.952
748.00,51.956
749.00,52.018
750.00,51.997
751.00,52.027
752.00,51.995
753.00,52.080
754.00,52.077
755.00,52.094
756.00,52.181
757.00,52.155
758.00,52.249
759.00,52.229
760.00,52.252
761.00,52.240
762.00,52.234
763.00,52.341
764.00,52.340
765.00,52.379
766.00,52.380
767.00,52.346
768.00,52.463
769.00,52.421
770.00,52.539
771.00,52.511
772.00,52.523
773.00,52.509
774.00,52.626
775.00,52.560
776.00,52.580
777.00,52.644
778.00,52.662
779.00,52.629
780.00,52.594
781.00,52.564
782.00,52.705
783.00,52.631
784.00,52.701
785.00,52.626
786.00,52.680
787.00,52.638
788.00,52.660
789.00,52.633
790.00,52.611
791.00,52.724
792.00,52.658
793.00,52.653
794.00,52.741
795.00,52.671
796.00,52.627
797.00,52.656
798.00,52.696
799.00,52.655
800.00,52.621
801.00,52.633
802.00,52.657
803.00,52.586
804.00,52.591
805.00,52.602
806.00,52.632
807.00,52.634
808.00,52.639
809.00,52.606
810.00,52.530
811.00,52.560
812.00,52.642
813.00,52.514
814.00,52.545
815.00,52.567
816.00,52.514
817.00,52.507
818.00,52.504
819.00,52.485
820.00,52.463
821.00,52.458
822.00,52.492
823.00,52.452
824.00,52.457
825.00,52.394
826.00,52.329
827.00,52.487
828.00,52.488
829.00,52.558
830.00,52.443
831.00,54.553
832.00,54.558
833.00,54.537
834.00,54.520
835.00,54.487
836.00,54.485
837.00,54.486
838.00,54.500
839.00,54.485
840.00,54.419
841.00,54.432
842.00,54.394
843.00,54.414
844.00,54.437
845.00,54.329
846.00,54.375
847.00,54.339
848.00,54.316
849.00,54.289
850.00,54.286
851.00,54.200
852.00,54.237
853.00,54.214
854.00,54.165
855.00,54.129
856.00,54.079
857.00,54.075
858.00,54.099
859.00,54.125
860.00,53.943
861.00,54.082
862.00,54.000
863.00,54.011
864.00,53.999
865.00,54.000
866.00,53.966
867.00,53.967
868.00,53.974
869.00,53.949
870.00,53.935
871.00,53.922
872.00,53.928
873.00,53.905
874.00,53.915
875.00,53.901
876.00,53.861
877.00,53.849
878.00,53.874
879.00,53.832
880.00,53.841
881.00,53.790
882.00,53.872
883.00,53.811
884.00,53.750
885.00,53.745
886.00,53.759
887.00,53.718
888.00,53.690
889.00,53.676
890.00,53.682
891.00,53.628
892.00,53.626
893.00,53.611
894.00,53.623
895.00,53.573
896.00,53.578
897.00,53.560
898.00,53.519
899.00,53.541
900.00,53.510
901.00,53.528
902.00,53.514
903.00,53.452
904.00,53.488
905.00,53.440
906.00,53.433
907.00,53.396
908.00,53.362
909.00,53.342
910.00,53.305
911.00,53.329
912.00,53.296
913.00,53.391
914.00,53.295
915.00,53.256
916.00,53.207
917.00,53.203
918.00,53.175
919.00,53.131
920.00,53.102
921.00,53.130
922.00,53.105
923.00,53.097
924.00,53.075
925.00,53.070
926.00,53.041
927.00,53.031
928.00,52.992
929.00,53.017
930.00,52.965
931.00,52.967
932.00,52.956
933.00,52.932
934.00,52.938
935.00,52.921
936.00,52.884
937.00,52.849
938.00,53.029
939.00,52.856
940.00,52.810
941.00,52.826
942.00,52.769
943.00,52.766
944.00,52.725
945.00,52.741
946.00,52.735
947.00,52.690
948.00,52.691
949.00,52.669
950.00,52.659
951.00,52.621
952.00,52.609
953.00,52.559
954.00,52.550
955.00,52.517
956.00,52.506
957.00,52.429
958.00,52.469
959.00,52.417
960.00,52.419
961.00,52.402
962.00,52.407
963.00,52.366
964.00,52.360
965.00,52.345
966.00,52.331
967.00,52.331
968.00,52.302
969.00,52.327
970.00,52.296
971.00,52.319
972.00,52.268
973.00,52.324
974.00,52.347
975.00,52.305
976.00,52.315
977.00,52.294
978.00,52.347
979.00,52.299
980.00,52.319
981.00,52.322
982.00,52.289
983.00,52.300
984.00,52.273
985.00,52.300
986.00,52.247
987.00,52.276
988.00,52.240
989.00,52.225
990.00,52.226
991.00,52.205
992.00,52.225
993.00,52.194
994.00,52.166
995.00,52.150
996.00,52.163
997.00,52.136
998.00,52.086
999.00,52.174
1000.00,52.103
1001.00,52.091
1002.00,52.080
1003.00,52.085
1004.00,52.069
1005.00,52.034
1006.00,52.071
1007.00,52.037
1008.00,52.015
1009.00,51.988
1010.00,51.988
1011.00,51.972
1012.00,51.939
1013.00,51.945
1014.00,51.909
1015.00,51.915
1016.00,51.871
1017.00,51.876
1018.00,51.864
1019.00,51.826
1020.00,51.832
1021.00,51.809
1022.00,51.802
1023.00,51.770
1024.00,51.788
1025.00,51.758
1026.00,51.746
1027.00,51.725
1028.00,51.720
1029.00,51.706
1030.00,51.669
1031.00,51.689
1032.00,51.655
1033.00,51.629
1034.00,51.609
1035.00,51.600
1036.00,51.540
1037.00,51.530
1038.00,51.510
1039.00,51.470
1040.00,51.462
1041.00,51.439
1042.00,51.429
1043.00,51.409
1044.00,51.442
1045.00,51.431
1046.00,51.401
1047.00,51.420
1048.00,51.437
1049.00,51.454
1050.00,51.448
1051.00,51.503
1052.00,51.487
1053.00,51.497
1054.00,51.489
1055.00,51.511
1056.00,51.535
1057.00,51.532
1058.00,51.511
1059.00,51.522
1060.00,51.514
1061.00,51.494
1062.00,51.494
1063.00,51.482
1064.00,51.477
1065.00,51.485
1066.00,51.453
1067.00,51.462
1068.00,51.476
1069.00,51.444
1070.00,51.423
1071.00,51.402
1072.00,51.443
1073.00,51.410
1074.00,51.401
1075.00,51.372
1076.00,51.392
1077.00,51.371
1078.00,51.342
1079.00,51.350
1080.00,51.346
1081.00,51.325
1082.00,51.309
1083.00,51.300
1084.00,51.311
1085.00,51.315
1086.00,51.294
1087.00,51.295
1088.00,51.274
1089.00,51.280
1090.00,51.272
1091.00,51.274
1092.00,51.277
1093.00,51.296
1094.00,51.213
1095.00,51.220
1096.00,51.196
1097.00,51.197
1098.00,51.188
1099.00,51.171
1100.00,51.149
1101.00,51.165
1102.00,51.145
1103.00,51.161
1104.00,51.135
1105.00,51.116
1106.00,51.117
1107.00,51.113
1108.00,51.096
1109.00,51.098
1110.00,51.094
1111.00,51.103
1112.00,51.063
1113.00,51.061
1114.00,51.066
1115.00,51.048
1116.00,51.030
1117.00,51.027
1118.00,51.010
1119.00,51.000
1120.00,51.009
1121.00,50.993
1122.00,50.977
1123.00,50.977
1124.00,50.954
1125.00,50.950
1126.00,50.964
1127.00,50.952
1128.00,50.942
1129.00,50.892
1130.00,50.909
1131.00,50.918
1132.00,50.893
1133.00,50.912
1134.00,50.891
1135.00,50.882
1136.00,50.886
1137.00,50.889
1138.00,50.870
1139.00,50.883
1140.00,50.872
1141.00,50.868
1142.00,50.852
1143.00,50.861
1144.00,50.831
1145.00,50.838
1146.00,50.828
1147.00,50.826
1148.00,50.815
1149.00,50.825
1150.00,50.838
1151.00,50.836
1152.00,50.815
1153.00,50.817
1154.00,50.800
1155.00,50.815
1156.00,50.800
1157.00,50.803
1158.00,50.798
1159.00,50.790
1160.00,50.776
1161.00,50.798
1162.00,50.781
1163.00,50.768
1164.00,50.771
1165.00,50.765
1166.00,50.783
1167.00,50.759
1168.00,50.789
1169.00,50.776
1170.00,50.768
1171.00,50.751
1172.00,50.751
1173.00,50.741
1174.00,50.749
1175.00,50.759
1176.00,50.751
1177.00,50.734
1178.00,50.747
1179.00,50.741
1180.00,50.740
1181.00,50.762
1182.00,50.737
1183.00,50.721
1184.00,50.730
1185.00,50.731
1186.00,50.723
1187.00,50.724
1188.00,50.716
1189.00,50.721
1190.00,50.714
1191.00,50.700
1192.00,50.710
1193.00,50.697
1194.00,50.708
1195.00,50.694
1196.00,50.725
1197.00,50.728
1198.00,50.701
1199.00,50.713
1200.00,50.733
1201.00,50.749
1202.00,50.713
1203.00,50.711
1204.00,50.693
1205.00,50.719
1206.00,50.712
1207.00,50.707
1208.00,50.693
1209.00,50.696
1210.00,50.700
1211.00,50.685
1212.00,50.694
1213.00,50.673
1214.00,50.692
1215.00,50.658
1216.00,50.679
1217.00,50.689
1218.00,50.655
1219.00,50.681
1220.00,50.652
1221.00,50.681
1222.00,50.663
1223.00,50.695
1224.00,50.696
1225.00,50.657
1226.00,50.662
1227.00,50.668
1228.00,50.685
1229.00,50.677
1230.00,50.717
1231.00,50.707
1232.00,50.726
1233.00,50.731
1234.00,50.728
1235.00,50.733
1236.00,50.725
1237.00,50.730
1238.00,50.746
1239.00,50.748
1240.00,50.727
1241.00,50.735
1242.00,50.732
1243.00,50.739
1244.00,50.718
1245.00,50.750
1246.00,50.770
1247.00,50.752
1248.00,50.749
1249.00,50.751
1250.00,50.762
1251.00,50.735
1252.00,50.754
1253.00,50.731
1254.00,50.773
1255.00,50.758
1256.00,50.733
1257.00,50.732
1258.00,50.781
1259.00,50.765
1260.00,50.791
1261.00,50.784
1262.00,50.768
1263.00,50.774
1264.00,50.767
1265.00,50.782
1266.00,50.777
1267.00,50.783
1268.00,50.803
1269.00,50.804
1270.00,50.810
1271.00,50.819
1272.00,50.817
1273.00,50.826
1274.00,50.822
1275.00,50.832
1276.00,50.827
1277.00,50.834
1278.00,50.834
1279.00,50.847
1280.00,50.832
1281.00,50.843
1282.00,50.861
1283.00,50.852
1284.00,50.862
1285.00,50.854
1286.00,50.878
1287.00,50.883
1288.00,50.868
1289.00,50.861
1290.00,50.897
1291.00,50.893
1292.00,50.866
1293.00,50.891
1294.00,50.909
1295.00,50.887
1296.00,50.893
1297.00,50.894
1298.00,50.949
1299.00,50.919
1300.00,50.944
1301.00,50.936
1302.00,50.946
1303.00,50.945
1304.00,50.947
1305.00,50.960
1306.00,50.967
1307.00,50.981
1308.00,50.985
1309.00,50.991
1310.00,50.990
1311.00,50.972
1312.00,50.994
1313.00,51.005
1314.00,51.031
1315.00,51.039
1316.00,51.023
1317.00,51.044
1318.00,51.049
1319.00,51.036
1320.00,51.045
1321.00,51.222
1322.00,51.198
1323.00,51.193
1324.00,51.164
1325.00,51.166
1326.00,51.195
1327.00,51.168
1328.00,51.176
1329.00,51.181
1330.00,51.180
1331.00,51.199
1332.00,51.197
1333.00,51.191
1334.00,51.215
1335.00,51.228
1336.00,51.252
1337.00,51.292
1338.00,51.320
1339.00,51.399
1340.00,51.452
1341.00,51.493
1342.00,51.574
1343.00,51.609
1344.00,51.648
1345.00,51.732
1346.00,51.756
1347.00,51.770
1348.00,51.796
1349.00,51.809
1350.00,51.848
1351.00,51.863
1352.00,51.853
1353.00,51.900
1354.00,51.879
1355.00,51.828
1356.00,51.884
1357.00,51.865
1358.00,51.912
1359.00,51.921
1360.00,51.866
1361.00,51.907
1362.00,51.851
1363.00,51.938
1364.00,51.931
1365.00,51.902
1366.00,51.952
1367.00,51.870
1368.00,51.861
1369.00,51.950
1370.00,51.879
1371.00,51.789
1372.00,51.864
1373.00,51.899
1374.00,51.890
1375.00,51.881
1376.00,51.862
1377.00,51.850
1378.00,51.916
1379.00,51.895
1380.00,51.881
1381.00,51.971
1382.00,51.789
1383.00,51.925
1384.00,51.818
1385.00,51.765
1386.00,51.908
1387.00,51.845
1388.00,51.792
1389.00,51.825
1390.00,51.822
1391.00,51.866
1392.00,51.842
1393.00,51.936
1394.00,51.919
1395.00,51.770
1396.00,51.769
1397.00,51.805
1398.00,51.930
1399.00,51.864
1400.00,51.766
1401.00,51.805
1402.00,51.929
1403.00,51.865
1404.00,51.857
1405.00,51.920
1406.00,51.930
1407.00,51.933
1408.00,51.912
1409.00,51.883
1410.00,51.944
1411.00,51.942
1412.00,51.973
1413.00,51.924
1414.00,51.927
1415.00,51.945
1416.00,52.005
1417.00,52.049
1418.00,51.963
1419.00,51.984
1420.00,52.005
1421.00,52.057
1422.00,52.046
1423.00,52.045
1424.00,52.044
1425.00,52.069
1426.00,52.066
1427.00,52.098
1428.00,52.082
1429.00,52.073
1430.00,52.125
1431.00,52.143
1432.00,52.136
1433.00,52.163
1434.00,52.145
1435.00,52.211
1436.00,52.222
1437.00,52.200
1438.00,52.231
1439.00,52.268
1440.00,52.272
1441.00,52.281
1442.00,52.286
1443.00,52.311
1444.00,52.416
1445.00,52.336
1446.00,52.328
1447.00,52.386
1448.00,52.430
1449.00,52.421
1450.00,52.430
1451.00,52.425
1452.00,52.458
1453.00,52.453
1454.00,52.482
1455.00,52.501
1456.00,52.514
1457.00,52.507
1458.00,52.541
1459.00,52.537
1460.00,52.573
1461.00,52.585
1462.00,52.589
1463.00,52.590
1464.00,52.612
1465.00,52.615
1466.00,52.631
1467.00,52.659
1468.00,52.693
1469.00,52.682
1470.00,52.688
1471.00,52.708
1472.00,52.727
1473.00,52.707
1474.00,52.751
1475.00,52.767
1476.00,52.766
1477.00,52.773
1478.00,52.776
1479.00,52.800
1480.00,52.804
1481.00,52.790
1482.00,52.849
1483.00,52.867
1484.00,52.862
1485.00,52.878
1486.00,52.888
1487.00,52.916
1488.00,52.951
1489.00,52.938
1490.00,52.953
1491.00,52.977
1492.00,52.979
1493.00,52.977
1494.00,53.014
1495.00,52.982
1496.00,53.033
1497.00,53.024
1498.00,53.020
1499.00,53.054
1500.00,53.061
1501.00, 
1502.00, 
1503.00, 
1504.00, 
1505.00, 
1506.00, 
1507.00, 
1508.00, 
1509.00, 
1510.00, 
1511.00, 
1512.00, 
1513.00, 
1514.00, 
1515.00, 
1516.00, 
1517.00, 
1518.00, 
1519.00, 
1520.00, 
1521.00, 
1522.00, 
1523.00, 
1524.00, 
1525.00, 
1526.00, 
1527.00, 
1528.00, 
1529.00, 
1530.00, 
1531.00, 
1532.00, 
1533.00, 
1534.00, 
1535.00, 
1536.00, 
1537.00, 
1538.00, 
1539.00, 
1540.00, 
1541.00, 
1542.00, 
1543.00, 
1544.00, 
1545.00, 
1546.00, 
1547.00, 
1548.00, 
1549.00, 
1550.00, 
1551.00, 
1552.00, 
1553.00, 
1554.00, 
1555.00, 
1556.00, 
1557.00, 
1558.00, 
1559.00, 
1560.00, 
1561.00, 
1562.00, 
1563.00, 
1564.00, 
1565.00, 
1566.00, 
1567.00, 
1568.00, 
1569.00, 
1570.00, 
1571.00, 
1572.00, 
1573.00, 
1574.00, 
1575.00, 
1576.00, 
1577.00, 
1578.00, 
1579.00, 
1580.00, 
1581.00, 
1582.00, 
1583.00, 
1584.00, 
1585.00, 
1586.00, 
1587.00, 
1588.00, 
1589.00, 
1590.00, 
1591.00, 
1592.00, 
1593.00, 
1594.00, 
1595.00, 
1596.00, 
1597.00, 
1598.00, 
1599.00, 
1600.00, 
1601.00, 
1602.00, 
1603.00, 
1604.00, 
1605.00, 
1606.00, 
1607.00, 
1608.00, 
1609.00, 
1610.00, 
1611.00, 
1612.00, 
1613.00, 
1614.00, 
1615.00, 
1616.00, 
1617.00, 
1618.00, 
1619.00, 
1620.00, 
1621.00, 
1622.00, 
1623.00, 
1624.00, 
1625.00, 
1626.00, 
1627.00, 
1628.00, 
1629.00, 
1630.00, 
1631.00, 
1632.00, 
1633.00, 
1634.00, 
1635.00, 
1636.00, 
1637.00, 
1638.00, 
1639.00, 
1640.00, 
1641.00, 
1642.00, 
1643.00, 
1644.00, 
1645.00, 
1646.00, 
1647.00, 
1648.00, 
1649.00, 
1650.00, 
1651.00, 
1652.00, 
1653.00, 
1654.00, 
1655.00, 
1656.00, 
1657.00, 
1658.00, 
1659.00, 
1660.00, 
1661.00, 
1662.00, 
1663.00, 
1664.00, 
1665.00, 
1666.00, 
1667.00, 
1668.00, 
1669.00, 
1670.00, 
1671.00, 
1672.00, 
1673.00, 
1674.00, 
1675.00, 
1676.00, 
1677.00, 
1678.00, 
1679.00, 
1680.00, 
1681.00, 
1682.00, 
1683.00, 
1684.00, 
1685.00, 
1686.00, 
1687.00, 
1688.00, 
1689.00, 
1690.00, 
1691.00, 
1692.00, 
1693.00, 
1694.00, 
1695.00, 
1696.00, 
1697.00, 
1698.00, 
1699.00, 
1700.00, 
1701.00, 
1702.00, 
1703.00, 
1704.00, 
1705.00, 
1706.00, 
1707.00, 
1708.00, 
1709.00, 
1710.00, 
1711.00, 
1712.00, 
1713.00, 
1714.00, 
1715.00, 
1716.00, 
1717.00, 
1718.00, 
1719.00, 
1720.00, 
1721.00, 
1722.00, 
1723.00, 
1724.00, 
1725.00, 
1726.00, 
1727.00, 
1728.00, 
1729.00, 
1730.00, 
1731.00, 
1732.00, 
1733.00, 
1734.00, 
1735.00, 
1736.00, 
1737.00, 
1738.00, 
1739.00, 
1740.00, 
1741.00, 
1742.00, 
1743.00, 
1744.00, 
1745.00, 
1746.00, 
1747.00, 
1748.00, 
1749.00, 
1750.00, 
1751.00, 
1752.00, 
1753.00, 
1754.00, 
1755.00, 
1756.00, 
1757.00, 
1758.00, 
1759.00, 
1760.00, 
1761.00, 
1762.00, 
1763.00, 
1764.00, 
1765.00, 
1766.00, 
1767.00, 
1768.00, 
1769.00, 
1770.00, 
1771.00, 
1772.00, 
1773.00, 
1774.00, 
1775.00, 
1776.00, 
1777.00, 
1778.00, 
1779.00, 
1780.00, 
1781.00, 
1782.00, 
1783.00, 
1784.00, 
1785.00, 
1786.00, 
1787.00, 
1788.00, 
1789.00, 
1790.00, 
1791.00, 
1792.00, 
1793.00, 
1794.00, 
1795.00, 
1796.00, 
1797.00, 
1798.00, 
1799.00, 
1800.00, 
1801.00, 
1802.00, 
1803.00, 
1804.00, 
1805.00, 
1806.00, 
1807.00, 
1808.00, 
1809.00, 
1810.00, 
1811.00, 
1812.00, 
1813.00, 
1814.00, 
1815.00, 
1816.00, 
1817.00, 
1818.00, 
1819.00, 
1820.00, 
1821.00, 
1822.00, 
1823.00, 
1824.00, 
1825.00, 
1826.00, 
1827.00, 
1828.00, 
1829.00, 
1830.00, 
1831.00, 
1832.00, 
1833.00, 
1834.00, 
1835.00, 
1836.00, 
1837.00, 
1838.00, 
1839.00, 
1840.00, 
1841.00, 
1842.00, 
1843.00, 
1844.00, 
1845.00, 
1846.00, 
1847.00, 
1848.00, 
1849.00, 
1850.00, 
1851.00, 
1852.00, 
1853.00, 
1854.00, 
1855.00, 
1856.00, 
1857.00, 
1858.00, 
1859.00, 
1860.00, 
1861.00, 
1862.00, 
1863.00, 
1864.00, 
1865.00, 
1866.00, 
1867.00, 
1868.00, 
1869.00, 
1870.00, 
1871.00, 
1872.00, 
1873.00, 
1874.00, 
1875.00, 
1876.00, 
1877.00, 
1878.00, 
1879.00, 
1880.00, 
1881.00, 
1882.00, 
1883.00, 
1884.00, 
1885.00, 
1886.00, 
1887.00, 
1888.00, 
1889.00, 
1890.00, 
1891.00, 
1892.00, 
1893.00, 
1894.00, 
1895.00, 
1896.00, 
1897.00, 
1898.00, 
1899.00, 
1900.00, 
1901.00, 
1902.00, 
1903.00, 
1904.00, 
1905.00, 
1906.00, 
1907.00, 
1908.00, 
1909.00, 
1910.00, 
1911.00, 
1912.00, 
1913.00, 
1914.00, 
1915.00, 
1916.00, 
1917.00, 
1918.00, 
1919.00, 
1920.00, 
1921.00, 
1922.00, 
1923.00, 
1924.00, 
1925.00, 
1926.00, 
1927.00, 
1928.00, 
1929.00, 
1930.00, 
1931.00, 
1932.00, 
1933.00, 
1934.00, 
1935.00, 
1936.00, 
1937.00, 
1938.00, 
1939.00, 
1940.00, 
1941.00, 
1942.00, 
1943.00, 
1944.00, 
1945.00, 
1946.00, 
1947.00, 
1948.00, 
1949.00, 
1950.00, 
1951.00, 
1952.00, 
1953.00, 
1954.00, 
1955.00, 
1956.00, 
1957.00, 
1958.00, 
1959.00, 
1960.00, 
1961.00, 
1962.00, 
1963.00, 
1964.00, 
1965.00, 
1966.00, 
1967.00, 
1968.00, 
1969.00, 
1970.00, 
1971.00, 
1972.00, 
1973.00, 
1974.00, 
1975.00, 
1976.00, 
1977.00, 
1978.00, 
1979.00, 
1980.00, 
1981.00, 
1982.00, 
1983.00, 
1984.00, 
1985.00, 
1986.00, 
1987.00, 
1988.00, 
1989.00, 
1990.00, 
1991.00, 
1992.00, 
1993.00, 
1994.00, 
1995.00, 
1996.00, 
1997.00, 
1998.00, 
1999.00, 
2000.00, 
2001.00, 
2002.00, 
2003.00, 
2004.00, 
2005.00, 
2006.00, 
2007.00, 
2008.00, 
2009.00, 
2010.00, 
2011.00, 
2012.00, 
2013.00, 
2014.00, 
2015.00, 
2016.00, 
2017.00, 
2018.00, 
2019.00, 
2020.00, 
2021.00, 
2022.00, 
2023.00, 
2024.00, 
2025.00, 
2026.00, 
2027.00, 
2028.00, 
2029.00, 
2030.00, 
2031.00, 
2032.00, 
2033.00, 
2034.00, 
2035.00, 
2036.00, 
2037.00, 
2038.00, 
2039.00, 
2040.00, 
2041.00, 
2042.00, 
2043.00, 
2044.00, 
2045.00, 
2046.00, 
2047.00, 
2048.00, 
2049.00, 
2050.00, 
2051.00, 
2052.00, 
2053.00, 
2054.00, 
2055.00, 
2056.00, 
2057.00, 
2058.00, 
2059.00, 
2060.00, 
2061.00, 
2062.00, 
2063.00, 
2064.00, 
2065.00, 
2066.00, 
2067.00, 
2068.00, 
2069.00, 
2070.00, 
2071.00, 
2072.00, 
2073.00, 
2074.00, 
2075.00, 
2076.00, 
2077.00, 
2078.00, 
2079.00, 
2080.00, 
2081.00, 
2082.00, 
2083.00, 
2084.00, 
2085.00, 
2086.00, 
2087.00, 
2088.00, 
2089.00, 
2090.00, 
2091.00, 
2092.00, 
2093.00, 
2094.00, 
2095.00, 
2096.00, 
2097.00, 
2098.00, 
2099.00, 
2100.00, 
2101.00, 
2102.00, 
2103.00, 
2104.00, 
2105.00, 
2106.00, 
2107.00, 
2108.00, 
2109.00, 
2110.00, 
2111.00, 
2112.00, 
2113.00, 
2114.00, 
2115.00, 
2116.00, 
2117.00, 
2118.00, 
2119.00, 
2120.00, 
2121.00, 
2122.00, 
2123.00, 
2124.00, 
2125.00, 
2126.00, 
2127.00, 
2128.00, 
2129.00, 
2130.00, 
2131.00, 
2132.00, 
2133.00, 
2134.00, 
2135.00, 
2136.00, 
2137.00, 
2138.00, 
2139.00, 
2140.00, 
2141.00, 
2142.00, 
2143.00, 
2144.00, 
2145.00, 
2146.00, 
2147.00, 
2148.00, 
2149.00, 
2150.00, 
2151.00, 
2152.00, 
2153.00, 
2154.00, 
2155.00, 
2156.00, 
2157.00, 
2158.00, 
2159.00, 
2160.00, 
2161.00, 
2162.00, 
2163.00, 
2164.00, 
2165.00, 
2166.00, 
2167.00, 
2168.00, 
2169.00, 
2170.00, 
2171.00, 
2172.00, 
2173.00, 
2174.00, 
2175.00, 
2176.00, 
2177.00, 
2178.00, 
2179.00, 
2180.00, 
2181.00, 
2182.00, 
2183.00, 
2184.00, 
2185.00, 
2186.00, 
2187.00, 
2188.00, 
2189.00, 
2190.00, 
2191.00, 
2192.00, 
2193.00, 
2194.00, 
2195.00, 
2196.00, 
2197.00, 
2198.00, 
2199.00, 
2200.00, 
2201.00, 
2202.00, 
2203.00, 
2204.00, 
2205.00, 
2206.00, 
2207.00, 
2208.00, 
2209.00, 
2210.00, 
2211.00, 
2212.00, 
2213.00, 
2214.00, 
2215.00, 
2216.00, 
2217.00, 
2218.00, 
2219.00, 
2220.00, 
2221.00, 
2222.00, 
2223.00, 
2224.00, 
2225.00, 
2226.00, 
2227.00, 
2228.00, 
2229.00, 
2230.00, 
2231.00, 
2232.00, 
2233.00, 
2234.00, 
2235.00, 
2236.00, 
2237.00, 
2238.00, 
2239.00, 
2240.00, 
2241.00, 
2242.00, 
2243.00, 
2244.00, 
2245.00, 
2246.00, 
2247.00, 
2248.00, 
2249.00, 
2250.00, 
2251.00, 
2252.00, 
2253.00, 
2254.00, 
2255.00, 
2256.00, 
2257.00, 
2258.00, 
2259.00, 
2260.00, 
2261.00, 
2262.00, 
2263.00, 
2264.00, 
2265.00, 
2266.00, 
2267.00, 
2268.00, 
2269.00, 
2270.00, 
2271.00, 
2272.00, 
2273.00, 
2274.00, 
2275.00, 
2276.00, 
2277.00, 
2278.00, 
2279.00, 
2280.00, 
2281.00, 
2282.00, 
2283.00, 
2284.00, 
2285.00, 
2286.00, 
2287.00, 
2288.00, 
2289.00, 
2290.00, 
2291.00, 
2292.00, 
2293.00, 
2294.00, 
2295.00, 
2296.00, 
2297.00, 
2298.00, 
2299.00, 
2300.00, 
2301.00, 
2302.00, 
2303.00, 
2304.00, 
2305.00, 
2306.00, 
2307.00, 
2308.00, 
2309.00, 
2310.00, 
2311.00, 
2312.00, 
2313.00, 
2314.00, 
2315.00, 
2316.00, 
2317.00, 
2318.00, 
2319.00, 
2320.00, 
2321.00, 
2322.00, 
2323.00, 
2324.00, 
2325.00, 
2326.00, 
2327.00, 
2328.00, 
2329.00, 
2330.00, 
2331.00, 
2332.00, 
2333.00, 
2334.00, 
2335.00, 
2336.00, 
2337.00, 
2338.00, 
2339.00, 
2340.00, 
2341.00, 
2342.00, 
2343.00, 
2344.00, 
2345.00, 
2346.00, 
2347.00, 
2348.00, 
2349.00, 
2350.00, 
2351.00, 
2352.00, 
2353.00, 
2354.00, 
2355.00, 
2356.00, 
2357.00, 
2358.00, 
2359.00, 
2360.00, 
2361.00, 
2362.00, 
2363.00, 
2364.00, 
2365.00, 
2366.00, 
2367.00, 
2368.00, 
2369.00, 
2370.00, 
2371.00, 
2372.00, 
2373.00, 
2374.00, 
2375.00, 
2376.00, 
2377.00, 
2378.00, 
2379.00, 
2380.00, 
2381.00, 
2382.00, 
2383.00, 
2384.00, 
2385.00, 
2386.00, 
2387.00, 
2388.00, 
2389.00, 
2390.00, 
2391.00, 
2392.00, 
2393.00, 
2394.00, 
2395.00, 
2396.00, 
2397.00, 
2398.00, 
2399.00, 
2400.00, 
2401.00, 
2402.00, 
2403.00, 
2404.00, 
2405.00, 
2406.00, 
2407.00, 
2408.00, 
2409.00, 
2410.00, 
2411.00, 
2412.00, 
2413.00, 
2414.00, 
2415.00, 
2416.00, 
2417.00, 
2418.00, 
2419.00, 
2420.00, 
2421.00, 
2422.00, 
2423.00, 
2424.00, 
2425.00, 
2426.00, 
2427.00, 
2428.00, 
2429.00, 
2430.00, 
2431.00, 
2432.00, 
2433.00, 
2434.00, 
2435.00, 
2436.00, 
2437.00, 
2438.00, 
2439.00, 
2440.00, 
2441.00, 
2442.00, 
2443.00, 
2444.00, 
2445.00, 
2446.00, 
2447.00, 
2448.00, 
2449.00, 
2450.00, 
2451.00, 
2452.00, 
2453.00, 
2454.00, 
2455.00, 
2456.00, 
2457.00, 
2458.00, 
2459.00, 
2460.00, 
2461.00, 
2462.00, 
2463.00, 
2464.00, 
2465.00, 
2466.00, 
2467.00, 
2468.00, 
2469.00, 
2470.00, 
2471.00, 
2472.00, 
2473.00, 
2474.00, 
2475.00, 
2476.00, 
2477.00, 
2478.00, 
2479.00, 
2480.00, 
2481.00, 
2482.00, 
2483.00, 
2484.00, 
2485.00, 
2486.00, 
2487.00, 
2488.00, 
2489.00, 
2490.00, 
2491.00, 
2492.00, 
2493.00, 
2494.00, 
2495.00, 
2496.00, 
2497.00, 
2498.00, 
2499.00, 
2500.00, 
2501.00, 
2502.00, 
2503.00, 
2504.00, 
2505.00, 
2506.00, 
2507.00, 
2508.00, 
2509.00, 
2510.00, 
2511.00, 
2512.00, 
2513.00, 
2514.00, 
2515.00, 
2516.00, 
2517.00, 
2518.00, 
2519.00, 
2520.00, 
2521.00, 
2522.00, 
2523.00, 
2524.00, 
2525.00, 
2526.00, 
2527.00, 
2528.00, 
2529.00, 
2530.00, 
2531.00, 
2532.00, 
2533.00, 
2534.00, 
2535.00, 
2536.00, 
2537.00, 
2538.00, 
2539.00, 
2540.00, 
2541.00, 
2542.00, 
2543.00, 
2544.00, 
2545.00, 
2546.00, 
2547.00, 
2548.00, 
2549.00, 
2550.00, 
2551.00, 
2552.00, 
2553.00, 
2554.00, 
2555.00, 
2556.00, 
2557.00, 
2558.00, 
2559.00, 
2560.00, 
2561.00, 
2562.00, 
2563.00, 
2564.00, 
2565.00, 
2566.00, 
2567.00, 
2568.00, 
2569.00, 
2570.00, 
2571.00, 
2572.00, 
2573.00, 
2574.00, 
2575.00, 
2576.00, 
2577.00, 
2578.00, 
2579.00, 
2580.00, 
2581.00, 
2582.00, 
2583.00, 
2584.00, 
2585.00, 
2586.00, 
2587.00, 
2588.00, 
2589.00, 
2590.00, 
2591.00, 
2592.00, 
2593.00, 
2594.00, 
2595.00, 
2596.00, 
2597.00, 
2598.00, 
2599.00, 
2600.00, 
