"2cP2 - RawData"
"Wavelength nm.","T%"
200.00,0.004
201.00,0.003
202.00,0.003
203.00,-0.000
204.00,0.002
205.00,0.002
206.00,0.003
207.00,0.002
208.00,0.001
209.00,0.000
210.00,0.003
211.00,0.003
212.00,0.003
213.00,0.003
214.00,0.001
215.00,0.000
216.00,0.003
217.00,0.005
218.00,0.001
219.00,0.002
220.00,0.000
221.00,-0.001
222.00,0.004
223.00,0.002
224.00,0.001
225.00,0.001
226.00,0.002
227.00,-0.001
228.00,-0.000
229.00,0.002
230.00,0.002
231.00,0.001
232.00,0.003
233.00,0.000
234.00,0.001
235.00,0.001
236.00,0.002
237.00,0.001
238.00,-0.000
239.00,0.000
240.00,0.002
241.00,-0.001
242.00,0.001
243.00,0.001
244.00,-0.000
245.00,0.001
246.00,0.002
247.00,0.001
248.00,0.001
249.00,0.002
250.00,0.000
251.00,-0.000
252.00,0.000
253.00,-0.001
254.00,-0.001
255.00,0.000
256.00,0.002
257.00,0.000
258.00,-0.002
259.00,0.001
260.00,0.000
261.00,0.002
262.00,0.000
263.00,0.001
264.00,0.000
265.00,-0.000
266.00,-0.000
267.00,0.001
268.00,0.000
269.00,0.000
270.00,-0.000
271.00,-0.000
272.00,0.001
273.00,0.001
274.00,-0.000
275.00,0.001
276.00,0.001
277.00,0.001
278.00,0.001
279.00,-0.001
280.00,-0.000
281.00,-0.001
282.00,-0.000
283.00,-0.000
284.00,-0.001
285.00,-0.001
286.00,0.001
287.00,-0.001
288.00,-0.001
289.00,0.001
290.00,0.001
291.00,0.001
292.00,0.001
293.00,0.002
294.00,0.003
295.00,0.002
296.00,-0.001
297.00,0.000
298.00,0.000
299.00,0.002
300.00,0.006
301.00,0.008
302.00,0.008
303.00,0.012
304.00,0.021
305.00,0.033
306.00,0.050
307.00,0.075
308.00,0.118
309.00,0.186
310.00,0.263
311.00,0.361
312.00,0.489
313.00,0.641
314.00,0.874
315.00,1.136
316.00,1.453
317.00,1.835
318.00,2.272
319.00,2.796
320.00,3.424
321.00,4.092
322.00,4.799
323.00,5.599
324.00,6.430
325.00,7.468
326.00,8.429
327.00,9.536
328.00,10.672
329.00,11.778
330.00,12.988
331.00,14.172
332.00,15.383
333.00,16.697
334.00,17.908
335.00,19.184
336.00,20.483
337.00,21.757
338.00,23.027
339.00,24.166
340.00,25.348
341.00,26.514
342.00,27.620
343.00,28.688
344.00,29.708
345.00,30.739
346.00,31.536
347.00,32.396
348.00,33.288
349.00,34.071
350.00,34.955
351.00,35.595
352.00,36.233
353.00,36.867
354.00,37.447
355.00,38.103
356.00,38.643
357.00,39.199
358.00,39.686
359.00,40.106
360.00,40.551
361.00,40.930
362.00,41.310
363.00,41.643
364.00,42.029
365.00,42.337
366.00,42.635
367.00,42.809
368.00,43.062
369.00,43.219
370.00,43.366
371.00,43.555
372.00,43.664
373.00,43.717
374.00,43.766
375.00,43.777
376.00,43.849
377.00,43.810
378.00,43.795
379.00,43.828
380.00,43.824
381.00,43.857
382.00,43.957
383.00,44.067
384.00,44.190
385.00,44.367
386.00,44.420
387.00,44.656
388.00,44.809
389.00,44.917
390.00,45.001
391.00,45.167
392.00,45.275
393.00,45.348
394.00,45.466
395.00,45.544
396.00,45.656
397.00,45.735
398.00,45.837
399.00,45.846
400.00,45.888
401.00,45.955
402.00,45.995
403.00,46.014
404.00,46.028
405.00,46.074
406.00,46.056
407.00,46.064
408.00,46.012
409.00,45.979
410.00,45.938
411.00,45.910
412.00,45.881
413.00,45.889
414.00,45.886
415.00,45.871
416.00,45.931
417.00,45.937
418.00,45.929
419.00,45.979
420.00,45.998
421.00,46.120
422.00,46.117
423.00,46.156
424.00,46.204
425.00,46.230
426.00,46.225
427.00,46.230
428.00,46.296
429.00,46.294
430.00,46.333
431.00,46.285
432.00,46.298
433.00,46.363
434.00,46.315
435.00,46.449
436.00,46.420
437.00,46.492
438.00,46.521
439.00,46.561
440.00,46.547
441.00,46.585
442.00,46.633
443.00,46.665
444.00,46.696
445.00,46.757
446.00,46.821
447.00,46.845
448.00,46.931
449.00,46.956
450.00,46.880
451.00,47.119
452.00,47.158
453.00,47.167
454.00,47.185
455.00,47.256
456.00,47.341
457.00,47.401
458.00,47.406
459.00,47.462
460.00,47.537
461.00,47.591
462.00,47.616
463.00,47.695
464.00,47.539
465.00,47.816
466.00,47.841
467.00,47.954
468.00,47.945
469.00,47.981
470.00,47.940
471.00,47.996
472.00,48.012
473.00,48.031
474.00,48.017
475.00,48.050
476.00,48.033
477.00,48.078
478.00,48.195
479.00,48.204
480.00,48.287
481.00,48.356
482.00,48.415
483.00,48.463
484.00,48.527
485.00,48.665
486.00,48.641
487.00,48.770
488.00,48.811
489.00,48.912
490.00,48.968
491.00,49.014
492.00,49.102
493.00,49.148
494.00,49.194
495.00,49.172
496.00,49.203
497.00,49.190
498.00,49.311
499.00,49.377
500.00,49.331
501.00,49.447
502.00,49.560
503.00,49.545
504.00,49.537
505.00,49.568
506.00,49.705
507.00,49.666
508.00,49.690
509.00,49.785
510.00,49.831
511.00,49.823
512.00,49.869
513.00,49.965
514.00,50.042
515.00,50.053
516.00,50.141
517.00,50.192
518.00,50.223
519.00,50.229
520.00,50.259
521.00,50.278
522.00,50.306
523.00,50.251
524.00,50.284
525.00,50.348
526.00,50.404
527.00,50.363
528.00,50.422
529.00,50.449
530.00,50.445
531.00,50.668
532.00,50.642
533.00,50.683
534.00,50.747
535.00,50.662
536.00,50.782
537.00,50.832
538.00,50.878
539.00,50.889
540.00,50.920
541.00,50.946
542.00,50.909
543.00,50.967
544.00,50.943
545.00,51.024
546.00,51.007
547.00,51.012
548.00,51.094
549.00,51.099
550.00,51.220
551.00,51.210
552.00,51.245
553.00,51.318
554.00,51.338
555.00,51.332
556.00,51.364
557.00,51.394
558.00,51.388
559.00,51.404
560.00,51.416
561.00,51.481
562.00,51.508
563.00,51.463
564.00,51.496
565.00,51.535
566.00,51.500
567.00,51.511
568.00,51.477
569.00,51.485
570.00,51.461
571.00,51.496
572.00,51.493
573.00,51.482
574.00,51.557
575.00,51.527
576.00,51.522
577.00,51.564
578.00,51.660
579.00,51.638
580.00,51.687
581.00,51.775
582.00,51.800
583.00,51.857
584.00,51.931
585.00,51.927
586.00,51.978
587.00,52.054
588.00,51.999
589.00,52.009
590.00,52.048
591.00,52.021
592.00,52.043
593.00,51.969
594.00,52.016
595.00,52.057
596.00,52.039
597.00,52.116
598.00,52.204
599.00,52.151
600.00,52.237
601.00,52.270
602.00,52.197
603.00,52.221
604.00,52.184
605.00,52.215
606.00,52.262
607.00,52.246
608.00,52.232
609.00,52.212
610.00,52.187
611.00,52.210
612.00,52.294
613.00,52.220
614.00,52.222
615.00,52.241
616.00,52.278
617.00,52.231
618.00,52.264
619.00,52.278
620.00,52.260
621.00,52.252
622.00,52.232
623.00,52.334
624.00,52.368
625.00,52.298
626.00,52.270
627.00,52.331
628.00,52.304
629.00,52.335
630.00,52.336
631.00,52.325
632.00,52.259
633.00,52.272
634.00,52.332
635.00,52.309
636.00,52.313
637.00,52.308
638.00,52.330
639.00,52.406
640.00,52.389
641.00,52.391
642.00,52.391
643.00,52.381
644.00,52.421
645.00,52.392
646.00,52.485
647.00,52.379
648.00,52.392
649.00,52.394
650.00,52.345
651.00,52.355
652.00,52.460
653.00,52.379
654.00,52.381
655.00,52.413
656.00,52.451
657.00,52.507
658.00,52.506
659.00,52.471
660.00,52.571
661.00,52.473
662.00,52.518
663.00,52.517
664.00,52.500
665.00,52.469
666.00,52.596
667.00,52.671
668.00,52.064
669.00,52.643
670.00,52.546
671.00,52.584
672.00,52.428
673.00,52.444
674.00,52.516
675.00,52.507
676.00,52.550
677.00,52.530
678.00,52.394
679.00,52.436
680.00,52.445
681.00,52.477
682.00,52.398
683.00,52.461
684.00,52.494
685.00,52.429
686.00,52.253
687.00,52.416
688.00,52.490
689.00,52.330
690.00,52.384
691.00,52.454
692.00,52.343
693.00,52.292
694.00,52.303
695.00,52.401
696.00,52.246
697.00,52.382
698.00,52.341
699.00,52.444
700.00,52.325
701.00,52.324
702.00,52.389
703.00,52.313
704.00,52.285
705.00,52.177
706.00,52.245
707.00,52.254
708.00,52.183
709.00,52.262
710.00,52.320
711.00,52.162
712.00,52.125
713.00,52.210
714.00,52.081
715.00,52.225
716.00,52.099
717.00,52.028
718.00,52.177
719.00,52.051
720.00,52.062
721.00,56.443
722.00,56.338
723.00,56.268
724.00,56.273
725.00,56.197
726.00,56.128
727.00,56.152
728.00,56.021
729.00,55.923
730.00,55.939
731.00,55.837
732.00,55.760
733.00,55.693
734.00,55.691
735.00,55.718
736.00,55.637
737.00,55.530
738.00,55.487
739.00,55.512
740.00,55.467
741.00,55.389
742.00,55.388
743.00,55.390
744.00,55.314
745.00,55.243
746.00,55.171
747.00,55.055
748.00,54.953
749.00,54.943
750.00,54.909
751.00,54.768
752.00,54.700
753.00,54.738
754.00,54.612
755.00,54.660
756.00,54.716
757.00,54.517
758.00,54.560
759.00,54.462
760.00,54.494
761.00,54.326
762.00,54.316
763.00,54.295
764.00,54.279
765.00,54.250
766.00,54.185
767.00,54.172
768.00,54.163
769.00,54.076
770.00,54.173
771.00,54.106
772.00,54.093
773.00,54.068
774.00,54.050
775.00,53.926
776.00,53.855
777.00,53.867
778.00,53.867
779.00,53.743
780.00,53.786
781.00,53.740
782.00,53.716
783.00,53.669
784.00,53.631
785.00,53.576
786.00,53.526
787.00,53.528
788.00,53.482
789.00,53.392
790.00,53.340
791.00,53.359
792.00,53.245
793.00,53.269
794.00,53.227
795.00,53.205
796.00,53.169
797.00,53.065
798.00,53.072
799.00,53.054
800.00,52.970
801.00,53.012
802.00,52.965
803.00,52.893
804.00,52.777
805.00,52.815
806.00,52.780
807.00,52.698
808.00,52.724
809.00,52.662
810.00,52.628
811.00,52.584
812.00,52.554
813.00,52.453
814.00,52.588
815.00,52.543
816.00,52.503
817.00,52.421
818.00,52.423
819.00,52.288
820.00,52.270
821.00,52.223
822.00,52.330
823.00,52.237
824.00,52.198
825.00,52.136
826.00,52.089
827.00,52.203
828.00,52.085
829.00,52.097
830.00,52.050
831.00,54.618
832.00,54.600
833.00,54.527
834.00,54.547
835.00,54.478
836.00,54.448
837.00,54.406
838.00,54.396
839.00,54.386
840.00,54.306
841.00,54.255
842.00,54.377
843.00,54.237
844.00,54.197
845.00,54.128
846.00,54.157
847.00,54.154
848.00,54.091
849.00,54.011
850.00,54.006
851.00,53.937
852.00,53.899
853.00,53.866
854.00,53.795
855.00,53.778
856.00,53.724
857.00,53.704
858.00,53.663
859.00,53.692
860.00,53.529
861.00,53.663
862.00,53.538
863.00,53.544
864.00,53.512
865.00,53.519
866.00,53.497
867.00,53.488
868.00,53.429
869.00,53.425
870.00,53.409
871.00,53.380
872.00,53.358
873.00,53.333
874.00,53.349
875.00,53.315
876.00,53.269
877.00,53.247
878.00,53.276
879.00,53.218
880.00,53.212
881.00,53.218
882.00,53.220
883.00,53.130
884.00,53.092
885.00,53.087
886.00,53.083
887.00,53.034
888.00,53.017
889.00,52.980
890.00,52.962
891.00,52.920
892.00,52.921
893.00,52.889
894.00,52.891
895.00,52.825
896.00,52.823
897.00,52.809
898.00,52.760
899.00,52.760
900.00,52.747
901.00,52.716
902.00,52.718
903.00,52.667
904.00,52.685
905.00,52.621
906.00,52.625
907.00,52.601
908.00,52.572
909.00,52.532
910.00,52.496
911.00,52.511
912.00,52.519
913.00,52.463
914.00,52.383
915.00,52.471
916.00,52.372
917.00,52.342
918.00,52.310
919.00,52.292
920.00,52.282
921.00,52.278
922.00,52.205
923.00,52.241
924.00,52.210
925.00,52.171
926.00,52.126
927.00,52.117
928.00,52.104
929.00,52.112
930.00,52.070
931.00,52.055
932.00,52.044
933.00,52.005
934.00,51.996
935.00,51.965
936.00,51.951
937.00,51.943
938.00,51.898
939.00,51.897
940.00,51.843
941.00,51.869
942.00,51.813
943.00,51.806
944.00,51.776
945.00,51.771
946.00,51.756
947.00,51.724
948.00,51.698
949.00,51.666
950.00,51.657
951.00,51.621
952.00,51.607
953.00,51.578
954.00,51.563
955.00,51.511
956.00,51.507
957.00,51.459
958.00,51.470
959.00,51.414
960.00,51.408
961.00,51.371
962.00,51.388
963.00,51.341
964.00,51.335
965.00,51.313
966.00,51.314
967.00,51.302
968.00,51.285
969.00,51.300
970.00,51.273
971.00,51.299
972.00,51.261
973.00,51.285
974.00,51.318
975.00,51.265
976.00,51.297
977.00,51.256
978.00,51.300
979.00,51.245
980.00,51.279
981.00,51.285
982.00,51.253
983.00,51.264
984.00,51.253
985.00,51.266
986.00,51.214
987.00,51.235
988.00,51.211
989.00,51.187
990.00,51.190
991.00,51.154
992.00,51.170
993.00,51.142
994.00,51.123
995.00,51.108
996.00,51.095
997.00,51.091
998.00,51.051
999.00,51.082
1000.00,51.036
1001.00,51.038
1002.00,51.023
1003.00,51.013
1004.00,51.008
1005.00,50.977
1006.00,50.987
1007.00,50.956
1008.00,50.945
1009.00,50.932
1010.00,50.912
1011.00,50.900
1012.00,50.865
1013.00,50.889
1014.00,50.851
1015.00,50.857
1016.00,50.812
1017.00,50.819
1018.00,50.809
1019.00,50.770
1020.00,50.770
1021.00,50.750
1022.00,50.743
1023.00,50.696
1024.00,50.698
1025.00,50.676
1026.00,50.671
1027.00,50.649
1028.00,50.635
1029.00,50.632
1030.00,50.615
1031.00,50.603
1032.00,50.564
1033.00,50.566
1034.00,50.532
1035.00,50.500
1036.00,50.479
1037.00,50.465
1038.00,50.441
1039.00,50.399
1040.00,50.419
1041.00,50.388
1042.00,50.380
1043.00,50.350
1044.00,50.381
1045.00,50.362
1046.00,50.351
1047.00,50.358
1048.00,50.370
1049.00,50.370
1050.00,50.365
1051.00,50.412
1052.00,50.411
1053.00,50.425
1054.00,50.414
1055.00,50.426
1056.00,50.433
1057.00,50.439
1058.00,50.431
1059.00,50.443
1060.00,50.440
1061.00,50.443
1062.00,50.415
1063.00,50.416
1064.00,50.400
1065.00,50.393
1066.00,50.386
1067.00,50.377
1068.00,50.394
1069.00,50.348
1070.00,50.334
1071.00,50.319
1072.00,50.339
1073.00,50.319
1074.00,50.311
1075.00,50.295
1076.00,50.305
1077.00,50.287
1078.00,50.276
1079.00,50.265
1080.00,50.260
1081.00,50.251
1082.00,50.242
1083.00,50.231
1084.00,50.229
1085.00,50.217
1086.00,50.209
1087.00,50.202
1088.00,50.181
1089.00,50.177
1090.00,50.170
1091.00,50.161
1092.00,50.157
1093.00,50.143
1094.00,50.128
1095.00,50.114
1096.00,50.088
1097.00,50.075
1098.00,50.080
1099.00,50.075
1100.00,50.063
1101.00,50.089
1102.00,50.040
1103.00,50.044
1104.00,50.032
1105.00,50.011
1106.00,50.025
1107.00,50.002
1108.00,49.998
1109.00,49.985
1110.00,49.980
1111.00,49.968
1112.00,49.948
1113.00,49.940
1114.00,49.957
1115.00,49.949
1116.00,49.935
1117.00,49.930
1118.00,49.927
1119.00,49.910
1120.00,49.931
1121.00,49.931
1122.00,49.951
1123.00,49.891
1124.00,49.887
1125.00,49.871
1126.00,49.882
1127.00,49.865
1128.00,49.859
1129.00,49.810
1130.00,49.825
1131.00,49.825
1132.00,49.816
1133.00,49.807
1134.00,49.804
1135.00,49.777
1136.00,49.785
1137.00,49.815
1138.00,49.793
1139.00,49.802
1140.00,49.788
1141.00,49.773
1142.00,49.777
1143.00,49.788
1144.00,49.752
1145.00,49.750
1146.00,49.759
1147.00,49.739
1148.00,49.735
1149.00,49.737
1150.00,49.741
1151.00,49.743
1152.00,49.729
1153.00,49.727
1154.00,49.717
1155.00,49.728
1156.00,49.715
1157.00,49.716
1158.00,49.716
1159.00,49.710
1160.00,49.694
1161.00,49.715
1162.00,49.701
1163.00,49.698
1164.00,49.692
1165.00,49.678
1166.00,49.680
1167.00,49.676
1168.00,49.694
1169.00,49.691
1170.00,49.688
1171.00,49.668
1172.00,49.673
1173.00,49.665
1174.00,49.668
1175.00,49.674
1176.00,49.674
1177.00,49.663
1178.00,49.667
1179.00,49.664
1180.00,49.664
1181.00,49.671
1182.00,49.674
1183.00,49.680
1184.00,49.642
1185.00,49.663
1186.00,49.646
1187.00,49.643
1188.00,49.637
1189.00,49.638
1190.00,49.641
1191.00,49.622
1192.00,49.637
1193.00,49.638
1194.00,49.644
1195.00,49.609
1196.00,49.639
1197.00,49.636
1198.00,49.622
1199.00,49.620
1200.00,49.619
1201.00,49.627
1202.00,49.625
1203.00,49.638
1204.00,49.611
1205.00,49.625
1206.00,49.617
1207.00,49.626
1208.00,49.612
1209.00,49.602
1210.00,49.618
1211.00,49.600
1212.00,49.614
1213.00,49.594
1214.00,49.616
1215.00,49.586
1216.00,49.597
1217.00,49.619
1218.00,49.600
1219.00,49.618
1220.00,49.591
1221.00,49.611
1222.00,49.589
1223.00,49.614
1224.00,49.616
1225.00,49.592
1226.00,49.595
1227.00,49.588
1228.00,49.611
1229.00,49.610
1230.00,49.653
1231.00,49.635
1232.00,49.651
1233.00,49.645
1234.00,49.651
1235.00,49.657
1236.00,49.658
1237.00,49.640
1238.00,49.648
1239.00,49.661
1240.00,49.652
1241.00,49.652
1242.00,49.657
1243.00,49.684
1244.00,49.664
1245.00,49.667
1246.00,49.688
1247.00,49.674
1248.00,49.659
1249.00,49.675
1250.00,49.691
1251.00,49.675
1252.00,49.697
1253.00,49.681
1254.00,49.707
1255.00,49.700
1256.00,49.664
1257.00,49.666
1258.00,49.718
1259.00,49.717
1260.00,49.721
1261.00,49.724
1262.00,49.716
1263.00,49.711
1264.00,49.721
1265.00,49.730
1266.00,49.731
1267.00,49.741
1268.00,49.756
1269.00,49.748
1270.00,49.745
1271.00,49.759
1272.00,49.768
1273.00,49.782
1274.00,49.777
1275.00,49.769
1276.00,49.777
1277.00,49.779
1278.00,49.792
1279.00,49.794
1280.00,49.800
1281.00,49.796
1282.00,49.821
1283.00,49.812
1284.00,49.799
1285.00,49.793
1286.00,49.803
1287.00,49.808
1288.00,49.800
1289.00,49.799
1290.00,49.841
1291.00,49.817
1292.00,49.819
1293.00,49.817
1294.00,49.841
1295.00,49.853
1296.00,49.832
1297.00,49.853
1298.00,49.889
1299.00,49.862
1300.00,49.870
1301.00,49.871
1302.00,49.876
1303.00,49.884
1304.00,49.890
1305.00,49.898
1306.00,49.899
1307.00,49.911
1308.00,49.909
1309.00,49.914
1310.00,49.916
1311.00,49.911
1312.00,49.919
1313.00,49.912
1314.00,49.944
1315.00,49.955
1316.00,49.958
1317.00,49.962
1318.00,49.976
1319.00,49.989
1320.00,49.997
1321.00,50.151
1322.00,50.158
1323.00,50.136
1324.00,50.128
1325.00,50.117
1326.00,50.152
1327.00,50.128
1328.00,50.126
1329.00,50.125
1330.00,50.110
1331.00,50.140
1332.00,50.133
1333.00,50.122
1334.00,50.154
1335.00,50.166
1336.00,50.204
1337.00,50.244
1338.00,50.287
1339.00,50.346
1340.00,50.414
1341.00,50.455
1342.00,50.548
1343.00,50.577
1344.00,50.615
1345.00,50.690
1346.00,50.693
1347.00,50.723
1348.00,50.772
1349.00,50.761
1350.00,50.816
1351.00,50.838
1352.00,50.818
1353.00,50.852
1354.00,50.848
1355.00,50.800
1356.00,50.862
1357.00,50.855
1358.00,50.886
1359.00,50.901
1360.00,51.004
1361.00,51.052
1362.00,50.795
1363.00,50.907
1364.00,50.881
1365.00,50.886
1366.00,50.898
1367.00,50.842
1368.00,50.839
1369.00,50.933
1370.00,50.841
1371.00,50.824
1372.00,50.855
1373.00,50.859
1374.00,50.849
1375.00,50.844
1376.00,50.844
1377.00,50.813
1378.00,50.870
1379.00,50.831
1380.00,50.841
1381.00,50.872
1382.00,50.823
1383.00,50.837
1384.00,50.785
1385.00,50.748
1386.00,50.823
1387.00,50.769
1388.00,50.739
1389.00,50.807
1390.00,50.799
1391.00,50.797
1392.00,50.820
1393.00,50.934
1394.00,50.987
1395.00,50.735
1396.00,50.745
1397.00,50.755
1398.00,50.883
1399.00,50.827
1400.00,50.750
1401.00,50.748
1402.00,50.884
1403.00,50.804
1404.00,50.816
1405.00,50.881
1406.00,50.834
1407.00,50.888
1408.00,50.898
1409.00,50.804
1410.00,50.885
1411.00,50.877
1412.00,50.925
1413.00,50.839
1414.00,50.868
1415.00,50.911
1416.00,50.949
1417.00,50.974
1418.00,50.921
1419.00,50.932
1420.00,50.967
1421.00,51.003
1422.00,50.990
1423.00,50.976
1424.00,51.011
1425.00,51.024
1426.00,51.030
1427.00,51.059
1428.00,51.057
1429.00,51.066
1430.00,51.102
1431.00,51.108
1432.00,51.110
1433.00,51.139
1434.00,51.123
1435.00,51.187
1436.00,51.179
1437.00,51.166
1438.00,51.197
1439.00,51.231
1440.00,51.224
1441.00,51.242
1442.00,51.246
1443.00,51.272
1444.00,51.312
1445.00,51.276
1446.00,51.286
1447.00,51.339
1448.00,51.352
1449.00,51.375
1450.00,51.369
1451.00,51.371
1452.00,51.397
1453.00,51.418
1454.00,51.419
1455.00,51.448
1456.00,51.463
1457.00,51.467
1458.00,51.490
1459.00,51.504
1460.00,51.530
1461.00,51.534
1462.00,51.531
1463.00,51.568
1464.00,51.573
1465.00,51.581
1466.00,51.594
1467.00,51.599
1468.00,51.642
1469.00,51.650
1470.00,51.655
1471.00,51.716
1472.00,51.683
1473.00,51.661
1474.00,51.716
1475.00,51.713
1476.00,51.722
1477.00,51.736
1478.00,51.733
1479.00,51.761
1480.00,51.767
1481.00,51.754
1482.00,51.809
1483.00,51.817
1484.00,51.808
1485.00,51.835
1486.00,51.830
1487.00,51.852
1488.00,51.865
1489.00,51.864
1490.00,51.874
1491.00,51.889
1492.00,51.893
1493.00,51.914
1494.00,51.937
1495.00,51.917
1496.00,51.943
1497.00,51.953
1498.00,51.940
1499.00,51.980
1500.00,51.990
1501.00, 
1502.00, 
1503.00, 
1504.00, 
1505.00, 
1506.00, 
1507.00, 
1508.00, 
1509.00, 
1510.00, 
1511.00, 
1512.00, 
1513.00, 
1514.00, 
1515.00, 
1516.00, 
1517.00, 
1518.00, 
1519.00, 
1520.00, 
1521.00, 
1522.00, 
1523.00, 
1524.00, 
1525.00, 
1526.00, 
1527.00, 
1528.00, 
1529.00, 
1530.00, 
1531.00, 
1532.00, 
1533.00, 
1534.00, 
1535.00, 
1536.00, 
1537.00, 
1538.00, 
1539.00, 
1540.00, 
1541.00, 
1542.00, 
1543.00, 
1544.00, 
1545.00, 
1546.00, 
1547.00, 
1548.00, 
1549.00, 
1550.00, 
1551.00, 
1552.00, 
1553.00, 
1554.00, 
1555.00, 
1556.00, 
1557.00, 
1558.00, 
1559.00, 
1560.00, 
1561.00, 
1562.00, 
1563.00, 
1564.00, 
1565.00, 
1566.00, 
1567.00, 
1568.00, 
1569.00, 
1570.00, 
1571.00, 
1572.00, 
1573.00, 
1574.00, 
1575.00, 
1576.00, 
1577.00, 
1578.00, 
1579.00, 
1580.00, 
1581.00, 
1582.00, 
1583.00, 
1584.00, 
1585.00, 
1586.00, 
1587.00, 
1588.00, 
1589.00, 
1590.00, 
1591.00, 
1592.00, 
1593.00, 
1594.00, 
1595.00, 
1596.00, 
1597.00, 
1598.00, 
1599.00, 
1600.00, 
1601.00, 
1602.00, 
1603.00, 
1604.00, 
1605.00, 
1606.00, 
1607.00, 
1608.00, 
1609.00, 
1610.00, 
1611.00, 
1612.00, 
1613.00, 
1614.00, 
1615.00, 
1616.00, 
1617.00, 
1618.00, 
1619.00, 
1620.00, 
1621.00, 
1622.00, 
1623.00, 
1624.00, 
1625.00, 
1626.00, 
1627.00, 
1628.00, 
1629.00, 
1630.00, 
1631.00, 
1632.00, 
1633.00, 
1634.00, 
1635.00, 
1636.00, 
1637.00, 
1638.00, 
1639.00, 
1640.00, 
1641.00, 
1642.00, 
1643.00, 
1644.00, 
1645.00, 
1646.00, 
1647.00, 
1648.00, 
1649.00, 
1650.00, 
1651.00, 
1652.00, 
1653.00, 
1654.00, 
1655.00, 
1656.00, 
1657.00, 
1658.00, 
1659.00, 
1660.00, 
1661.00, 
1662.00, 
1663.00, 
1664.00, 
1665.00, 
1666.00, 
1667.00, 
1668.00, 
1669.00, 
1670.00, 
1671.00, 
1672.00, 
1673.00, 
1674.00, 
1675.00, 
1676.00, 
1677.00, 
1678.00, 
1679.00, 
1680.00, 
1681.00, 
1682.00, 
1683.00, 
1684.00, 
1685.00, 
1686.00, 
1687.00, 
1688.00, 
1689.00, 
1690.00, 
1691.00, 
1692.00, 
1693.00, 
1694.00, 
1695.00, 
1696.00, 
1697.00, 
1698.00, 
1699.00, 
1700.00, 
1701.00, 
1702.00, 
1703.00, 
1704.00, 
1705.00, 
1706.00, 
1707.00, 
1708.00, 
1709.00, 
1710.00, 
1711.00, 
1712.00, 
1713.00, 
1714.00, 
1715.00, 
1716.00, 
1717.00, 
1718.00, 
1719.00, 
1720.00, 
1721.00, 
1722.00, 
1723.00, 
1724.00, 
1725.00, 
1726.00, 
1727.00, 
1728.00, 
1729.00, 
1730.00, 
1731.00, 
1732.00, 
1733.00, 
1734.00, 
1735.00, 
1736.00, 
1737.00, 
1738.00, 
1739.00, 
1740.00, 
1741.00, 
1742.00, 
1743.00, 
1744.00, 
1745.00, 
1746.00, 
1747.00, 
1748.00, 
1749.00, 
1750.00, 
1751.00, 
1752.00, 
1753.00, 
1754.00, 
1755.00, 
1756.00, 
1757.00, 
1758.00, 
1759.00, 
1760.00, 
1761.00, 
1762.00, 
1763.00, 
1764.00, 
1765.00, 
1766.00, 
1767.00, 
1768.00, 
1769.00, 
1770.00, 
1771.00, 
1772.00, 
1773.00, 
1774.00, 
1775.00, 
1776.00, 
1777.00, 
1778.00, 
1779.00, 
1780.00, 
1781.00, 
1782.00, 
1783.00, 
1784.00, 
1785.00, 
1786.00, 
1787.00, 
1788.00, 
1789.00, 
1790.00, 
1791.00, 
1792.00, 
1793.00, 
1794.00, 
1795.00, 
1796.00, 
1797.00, 
1798.00, 
1799.00, 
1800.00, 
1801.00, 
1802.00, 
1803.00, 
1804.00, 
1805.00, 
1806.00, 
1807.00, 
1808.00, 
1809.00, 
1810.00, 
1811.00, 
1812.00, 
1813.00, 
1814.00, 
1815.00, 
1816.00, 
1817.00, 
1818.00, 
1819.00, 
1820.00, 
1821.00, 
1822.00, 
1823.00, 
1824.00, 
1825.00, 
1826.00, 
1827.00, 
1828.00, 
1829.00, 
1830.00, 
1831.00, 
1832.00, 
1833.00, 
1834.00, 
1835.00, 
1836.00, 
1837.00, 
1838.00, 
1839.00, 
1840.00, 
1841.00, 
1842.00, 
1843.00, 
1844.00, 
1845.00, 
1846.00, 
1847.00, 
1848.00, 
1849.00, 
1850.00, 
1851.00, 
1852.00, 
1853.00, 
1854.00, 
1855.00, 
1856.00, 
1857.00, 
1858.00, 
1859.00, 
1860.00, 
1861.00, 
1862.00, 
1863.00, 
1864.00, 
1865.00, 
1866.00, 
1867.00, 
1868.00, 
1869.00, 
1870.00, 
1871.00, 
1872.00, 
1873.00, 
1874.00, 
1875.00, 
1876.00, 
1877.00, 
1878.00, 
1879.00, 
1880.00, 
1881.00, 
1882.00, 
1883.00, 
1884.00, 
1885.00, 
1886.00, 
1887.00, 
1888.00, 
1889.00, 
1890.00, 
1891.00, 
1892.00, 
1893.00, 
1894.00, 
1895.00, 
1896.00, 
1897.00, 
1898.00, 
1899.00, 
1900.00, 
1901.00, 
1902.00, 
1903.00, 
1904.00, 
1905.00, 
1906.00, 
1907.00, 
1908.00, 
1909.00, 
1910.00, 
1911.00, 
1912.00, 
1913.00, 
1914.00, 
1915.00, 
1916.00, 
1917.00, 
1918.00, 
1919.00, 
1920.00, 
1921.00, 
1922.00, 
1923.00, 
1924.00, 
1925.00, 
1926.00, 
1927.00, 
1928.00, 
1929.00, 
1930.00, 
1931.00, 
1932.00, 
1933.00, 
1934.00, 
1935.00, 
1936.00, 
1937.00, 
1938.00, 
1939.00, 
1940.00, 
1941.00, 
1942.00, 
1943.00, 
1944.00, 
1945.00, 
1946.00, 
1947.00, 
1948.00, 
1949.00, 
1950.00, 
1951.00, 
1952.00, 
1953.00, 
1954.00, 
1955.00, 
1956.00, 
1957.00, 
1958.00, 
1959.00, 
1960.00, 
1961.00, 
1962.00, 
1963.00, 
1964.00, 
1965.00, 
1966.00, 
1967.00, 
1968.00, 
1969.00, 
1970.00, 
1971.00, 
1972.00, 
1973.00, 
1974.00, 
1975.00, 
1976.00, 
1977.00, 
1978.00, 
1979.00, 
1980.00, 
1981.00, 
1982.00, 
1983.00, 
1984.00, 
1985.00, 
1986.00, 
1987.00, 
1988.00, 
1989.00, 
1990.00, 
1991.00, 
1992.00, 
1993.00, 
1994.00, 
1995.00, 
1996.00, 
1997.00, 
1998.00, 
1999.00, 
2000.00, 
2001.00, 
2002.00, 
2003.00, 
2004.00, 
2005.00, 
2006.00, 
2007.00, 
2008.00, 
2009.00, 
2010.00, 
2011.00, 
2012.00, 
2013.00, 
2014.00, 
2015.00, 
2016.00, 
2017.00, 
2018.00, 
2019.00, 
2020.00, 
2021.00, 
2022.00, 
2023.00, 
2024.00, 
2025.00, 
2026.00, 
2027.00, 
2028.00, 
2029.00, 
2030.00, 
2031.00, 
2032.00, 
2033.00, 
2034.00, 
2035.00, 
2036.00, 
2037.00, 
2038.00, 
2039.00, 
2040.00, 
2041.00, 
2042.00, 
2043.00, 
2044.00, 
2045.00, 
2046.00, 
2047.00, 
2048.00, 
2049.00, 
2050.00, 
2051.00, 
2052.00, 
2053.00, 
2054.00, 
2055.00, 
2056.00, 
2057.00, 
2058.00, 
2059.00, 
2060.00, 
2061.00, 
2062.00, 
2063.00, 
2064.00, 
2065.00, 
2066.00, 
2067.00, 
2068.00, 
2069.00, 
2070.00, 
2071.00, 
2072.00, 
2073.00, 
2074.00, 
2075.00, 
2076.00, 
2077.00, 
2078.00, 
2079.00, 
2080.00, 
2081.00, 
2082.00, 
2083.00, 
2084.00, 
2085.00, 
2086.00, 
2087.00, 
2088.00, 
2089.00, 
2090.00, 
2091.00, 
2092.00, 
2093.00, 
2094.00, 
2095.00, 
2096.00, 
2097.00, 
2098.00, 
2099.00, 
2100.00, 
2101.00, 
2102.00, 
2103.00, 
2104.00, 
2105.00, 
2106.00, 
2107.00, 
2108.00, 
2109.00, 
2110.00, 
2111.00, 
2112.00, 
2113.00, 
2114.00, 
2115.00, 
2116.00, 
2117.00, 
2118.00, 
2119.00, 
2120.00, 
2121.00, 
2122.00, 
2123.00, 
2124.00, 
2125.00, 
2126.00, 
2127.00, 
2128.00, 
2129.00, 
2130.00, 
2131.00, 
2132.00, 
2133.00, 
2134.00, 
2135.00, 
2136.00, 
2137.00, 
2138.00, 
2139.00, 
2140.00, 
2141.00, 
2142.00, 
2143.00, 
2144.00, 
2145.00, 
2146.00, 
2147.00, 
2148.00, 
2149.00, 
2150.00, 
2151.00, 
2152.00, 
2153.00, 
2154.00, 
2155.00, 
2156.00, 
2157.00, 
2158.00, 
2159.00, 
2160.00, 
2161.00, 
2162.00, 
2163.00, 
2164.00, 
2165.00, 
2166.00, 
2167.00, 
2168.00, 
2169.00, 
2170.00, 
2171.00, 
2172.00, 
2173.00, 
2174.00, 
2175.00, 
2176.00, 
2177.00, 
2178.00, 
2179.00, 
2180.00, 
2181.00, 
2182.00, 
2183.00, 
2184.00, 
2185.00, 
2186.00, 
2187.00, 
2188.00, 
2189.00, 
2190.00, 
2191.00, 
2192.00, 
2193.00, 
2194.00, 
2195.00, 
2196.00, 
2197.00, 
2198.00, 
2199.00, 
2200.00, 
2201.00, 
2202.00, 
2203.00, 
2204.00, 
2205.00, 
2206.00, 
2207.00, 
2208.00, 
2209.00, 
2210.00, 
2211.00, 
2212.00, 
2213.00, 
2214.00, 
2215.00, 
2216.00, 
2217.00, 
2218.00, 
2219.00, 
2220.00, 
2221.00, 
2222.00, 
2223.00, 
2224.00, 
2225.00, 
2226.00, 
2227.00, 
2228.00, 
2229.00, 
2230.00, 
2231.00, 
2232.00, 
2233.00, 
2234.00, 
2235.00, 
2236.00, 
2237.00, 
2238.00, 
2239.00, 
2240.00, 
2241.00, 
2242.00, 
2243.00, 
2244.00, 
2245.00, 
2246.00, 
2247.00, 
2248.00, 
2249.00, 
2250.00, 
2251.00, 
2252.00, 
2253.00, 
2254.00, 
2255.00, 
2256.00, 
2257.00, 
2258.00, 
2259.00, 
2260.00, 
2261.00, 
2262.00, 
2263.00, 
2264.00, 
2265.00, 
2266.00, 
2267.00, 
2268.00, 
2269.00, 
2270.00, 
2271.00, 
2272.00, 
2273.00, 
2274.00, 
2275.00, 
2276.00, 
2277.00, 
2278.00, 
2279.00, 
2280.00, 
2281.00, 
2282.00, 
2283.00, 
2284.00, 
2285.00, 
2286.00, 
2287.00, 
2288.00, 
2289.00, 
2290.00, 
2291.00, 
2292.00, 
2293.00, 
2294.00, 
2295.00, 
2296.00, 
2297.00, 
2298.00, 
2299.00, 
2300.00, 
2301.00, 
2302.00, 
2303.00, 
2304.00, 
2305.00, 
2306.00, 
2307.00, 
2308.00, 
2309.00, 
2310.00, 
2311.00, 
2312.00, 
2313.00, 
2314.00, 
2315.00, 
2316.00, 
2317.00, 
2318.00, 
2319.00, 
2320.00, 
2321.00, 
2322.00, 
2323.00, 
2324.00, 
2325.00, 
2326.00, 
2327.00, 
2328.00, 
2329.00, 
2330.00, 
2331.00, 
2332.00, 
2333.00, 
2334.00, 
2335.00, 
2336.00, 
2337.00, 
2338.00, 
2339.00, 
2340.00, 
2341.00, 
2342.00, 
2343.00, 
2344.00, 
2345.00, 
2346.00, 
2347.00, 
2348.00, 
2349.00, 
2350.00, 
2351.00, 
2352.00, 
2353.00, 
2354.00, 
2355.00, 
2356.00, 
2357.00, 
2358.00, 
2359.00, 
2360.00, 
2361.00, 
2362.00, 
2363.00, 
2364.00, 
2365.00, 
2366.00, 
2367.00, 
2368.00, 
2369.00, 
2370.00, 
2371.00, 
2372.00, 
2373.00, 
2374.00, 
2375.00, 
2376.00, 
2377.00, 
2378.00, 
2379.00, 
2380.00, 
2381.00, 
2382.00, 
2383.00, 
2384.00, 
2385.00, 
2386.00, 
2387.00, 
2388.00, 
2389.00, 
2390.00, 
2391.00, 
2392.00, 
2393.00, 
2394.00, 
2395.00, 
2396.00, 
2397.00, 
2398.00, 
2399.00, 
2400.00, 
2401.00, 
2402.00, 
2403.00, 
2404.00, 
2405.00, 
2406.00, 
2407.00, 
2408.00, 
2409.00, 
2410.00, 
2411.00, 
2412.00, 
2413.00, 
2414.00, 
2415.00, 
2416.00, 
2417.00, 
2418.00, 
2419.00, 
2420.00, 
2421.00, 
2422.00, 
2423.00, 
2424.00, 
2425.00, 
2426.00, 
2427.00, 
2428.00, 
2429.00, 
2430.00, 
2431.00, 
2432.00, 
2433.00, 
2434.00, 
2435.00, 
2436.00, 
2437.00, 
2438.00, 
2439.00, 
2440.00, 
2441.00, 
2442.00, 
2443.00, 
2444.00, 
2445.00, 
2446.00, 
2447.00, 
2448.00, 
2449.00, 
2450.00, 
2451.00, 
2452.00, 
2453.00, 
2454.00, 
2455.00, 
2456.00, 
2457.00, 
2458.00, 
2459.00, 
2460.00, 
2461.00, 
2462.00, 
2463.00, 
2464.00, 
2465.00, 
2466.00, 
2467.00, 
2468.00, 
2469.00, 
2470.00, 
2471.00, 
2472.00, 
2473.00, 
2474.00, 
2475.00, 
2476.00, 
2477.00, 
2478.00, 
2479.00, 
2480.00, 
2481.00, 
2482.00, 
2483.00, 
2484.00, 
2485.00, 
2486.00, 
2487.00, 
2488.00, 
2489.00, 
2490.00, 
2491.00, 
2492.00, 
2493.00, 
2494.00, 
2495.00, 
2496.00, 
2497.00, 
2498.00, 
2499.00, 
2500.00, 
2501.00, 
2502.00, 
2503.00, 
2504.00, 
2505.00, 
2506.00, 
2507.00, 
2508.00, 
2509.00, 
2510.00, 
2511.00, 
2512.00, 
2513.00, 
2514.00, 
2515.00, 
2516.00, 
2517.00, 
2518.00, 
2519.00, 
2520.00, 
2521.00, 
2522.00, 
2523.00, 
2524.00, 
2525.00, 
2526.00, 
2527.00, 
2528.00, 
2529.00, 
2530.00, 
2531.00, 
2532.00, 
2533.00, 
2534.00, 
2535.00, 
2536.00, 
2537.00, 
2538.00, 
2539.00, 
2540.00, 
2541.00, 
2542.00, 
2543.00, 
2544.00, 
2545.00, 
2546.00, 
2547.00, 
2548.00, 
2549.00, 
2550.00, 
2551.00, 
2552.00, 
2553.00, 
2554.00, 
2555.00, 
2556.00, 
2557.00, 
2558.00, 
2559.00, 
2560.00, 
2561.00, 
2562.00, 
2563.00, 
2564.00, 
2565.00, 
2566.00, 
2567.00, 
2568.00, 
2569.00, 
2570.00, 
2571.00, 
2572.00, 
2573.00, 
2574.00, 
2575.00, 
2576.00, 
2577.00, 
2578.00, 
2579.00, 
2580.00, 
2581.00, 
2582.00, 
2583.00, 
2584.00, 
2585.00, 
2586.00, 
2587.00, 
2588.00, 
2589.00, 
2590.00, 
2591.00, 
2592.00, 
2593.00, 
2594.00, 
2595.00, 
2596.00, 
2597.00, 
2598.00, 
2599.00, 
2600.00, 
