"1aP2 - RawData"
"Wavelength nm.","T%"
200.00,0.003
201.00,-0.000
202.00,-0.002
203.00,-0.001
204.00,0.002
205.00,0.002
206.00,-0.001
207.00,-0.000
208.00,0.000
209.00,0.002
210.00,0.004
211.00,0.002
212.00,-0.000
213.00,0.001
214.00,0.001
215.00,0.001
216.00,0.002
217.00,0.003
218.00,0.004
219.00,0.003
220.00,-0.001
221.00,-0.002
222.00,0.001
223.00,-0.000
224.00,0.001
225.00,0.001
226.00,-0.000
227.00,-0.002
228.00,0.001
229.00,0.002
230.00,0.001
231.00,0.001
232.00,0.001
233.00,0.001
234.00,0.000
235.00,-0.000
236.00,-0.000
237.00,0.001
238.00,0.001
239.00,0.000
240.00,0.001
241.00,-0.000
242.00,0.000
243.00,-0.000
244.00,0.001
245.00,0.000
246.00,0.000
247.00,-0.001
248.00,0.001
249.00,0.001
250.00,0.001
251.00,0.001
252.00,0.000
253.00,0.001
254.00,0.001
255.00,-0.000
256.00,0.001
257.00,-0.000
258.00,-0.001
259.00,-0.001
260.00,-0.000
261.00,0.000
262.00,0.001
263.00,0.000
264.00,0.001
265.00,0.001
266.00,0.001
267.00,0.000
268.00,-0.001
269.00,-0.000
270.00,0.001
271.00,-0.000
272.00,0.001
273.00,0.000
274.00,-0.000
275.00,0.001
276.00,0.002
277.00,-0.001
278.00,-0.001
279.00,0.000
280.00,0.001
281.00,-0.001
282.00,0.000
283.00,-0.000
284.00,-0.002
285.00,0.001
286.00,-0.000
287.00,-0.001
288.00,0.002
289.00,0.001
290.00,0.001
291.00,0.000
292.00,-0.001
293.00,-0.000
294.00,-0.000
295.00,0.003
296.00,0.000
297.00,0.001
298.00,0.002
299.00,0.003
300.00,0.002
301.00,0.008
302.00,0.008
303.00,0.015
304.00,0.020
305.00,0.034
306.00,0.050
307.00,0.073
308.00,0.115
309.00,0.174
310.00,0.240
311.00,0.329
312.00,0.446
313.00,0.608
314.00,0.795
315.00,1.024
316.00,1.285
317.00,1.578
318.00,1.966
319.00,2.391
320.00,2.908
321.00,3.472
322.00,4.064
323.00,4.744
324.00,5.462
325.00,6.159
326.00,6.891
327.00,7.747
328.00,8.574
329.00,9.454
330.00,10.374
331.00,11.245
332.00,12.171
333.00,13.067
334.00,13.937
335.00,14.868
336.00,15.669
337.00,16.573
338.00,17.472
339.00,18.245
340.00,19.099
341.00,19.864
342.00,20.575
343.00,21.287
344.00,21.927
345.00,22.627
346.00,23.188
347.00,23.718
348.00,24.306
349.00,24.737
350.00,25.228
351.00,25.702
352.00,26.069
353.00,26.460
354.00,26.785
355.00,27.065
356.00,27.456
357.00,27.678
358.00,28.001
359.00,28.278
360.00,28.518
361.00,28.655
362.00,28.874
363.00,29.091
364.00,29.257
365.00,29.404
366.00,29.501
367.00,29.572
368.00,29.564
369.00,29.691
370.00,29.736
371.00,29.820
372.00,29.735
373.00,29.718
374.00,29.769
375.00,29.745
376.00,29.752
377.00,29.677
378.00,29.591
379.00,29.523
380.00,29.494
381.00,29.490
382.00,29.467
383.00,29.490
384.00,29.519
385.00,29.618
386.00,29.608
387.00,29.686
388.00,29.795
389.00,29.791
390.00,29.858
391.00,29.877
392.00,29.951
393.00,29.928
394.00,29.947
395.00,30.045
396.00,30.036
397.00,30.071
398.00,30.083
399.00,30.076
400.00,30.088
401.00,30.050
402.00,30.066
403.00,30.091
404.00,30.062
405.00,30.063
406.00,30.045
407.00,29.986
408.00,30.019
409.00,29.942
410.00,29.873
411.00,29.884
412.00,29.865
413.00,29.869
414.00,29.880
415.00,29.870
416.00,29.923
417.00,29.923
418.00,29.928
419.00,30.030
420.00,30.043
421.00,30.126
422.00,30.101
423.00,30.084
424.00,30.229
425.00,30.246
426.00,30.260
427.00,30.336
428.00,30.386
429.00,30.430
430.00,30.475
431.00,30.487
432.00,30.542
433.00,30.615
434.00,30.675
435.00,30.794
436.00,30.808
437.00,30.869
438.00,30.955
439.00,30.984
440.00,31.089
441.00,31.149
442.00,31.227
443.00,31.296
444.00,31.419
445.00,31.463
446.00,31.567
447.00,31.660
448.00,31.759
449.00,31.892
450.00,31.982
451.00,32.006
452.00,32.133
453.00,32.183
454.00,32.250
455.00,32.436
456.00,32.596
457.00,32.731
458.00,32.796
459.00,32.937
460.00,33.032
461.00,33.169
462.00,33.314
463.00,33.417
464.00,33.542
465.00,33.665
466.00,33.809
467.00,33.896
468.00,33.998
469.00,34.134
470.00,34.183
471.00,34.315
472.00,34.441
473.00,34.486
474.00,34.555
475.00,34.730
476.00,34.784
477.00,34.914
478.00,34.991
479.00,35.147
480.00,35.325
481.00,35.350
482.00,35.536
483.00,35.554
484.00,35.757
485.00,35.957
486.00,36.075
487.00,36.243
488.00,36.326
489.00,36.500
490.00,36.601
491.00,36.745
492.00,36.955
493.00,37.058
494.00,37.075
495.00,37.243
496.00,37.321
497.00,37.441
498.00,37.559
499.00,37.725
500.00,37.796
501.00,37.896
502.00,38.023
503.00,38.138
504.00,38.244
505.00,38.314
506.00,38.423
507.00,38.489
508.00,38.574
509.00,38.744
510.00,38.815
511.00,38.906
512.00,39.097
513.00,39.177
514.00,39.272
515.00,39.449
516.00,39.532
517.00,39.637
518.00,39.744
519.00,39.760
520.00,39.859
521.00,39.890
522.00,39.946
523.00,40.022
524.00,40.081
525.00,40.159
526.00,40.226
527.00,40.325
528.00,40.397
529.00,40.458
530.00,40.544
531.00,40.754
532.00,40.850
533.00,40.929
534.00,41.031
535.00,41.056
536.00,41.150
537.00,41.149
538.00,41.249
539.00,41.280
540.00,41.337
541.00,41.341
542.00,41.388
543.00,41.433
544.00,41.556
545.00,41.531
546.00,41.600
547.00,41.722
548.00,41.758
549.00,41.798
550.00,41.896
551.00,41.957
552.00,41.990
553.00,42.092
554.00,42.167
555.00,42.228
556.00,42.211
557.00,42.246
558.00,42.305
559.00,42.347
560.00,42.440
561.00,42.483
562.00,42.454
563.00,42.577
564.00,42.591
565.00,42.629
566.00,42.591
567.00,42.637
568.00,42.692
569.00,42.697
570.00,42.714
571.00,42.772
572.00,42.779
573.00,42.790
574.00,42.769
575.00,42.820
576.00,42.800
577.00,42.869
578.00,42.920
579.00,42.945
580.00,43.010
581.00,43.134
582.00,43.155
583.00,43.224
584.00,43.268
585.00,43.358
586.00,43.391
587.00,43.424
588.00,43.443
589.00,43.423
590.00,43.462
591.00,43.488
592.00,43.416
593.00,43.510
594.00,43.579
595.00,43.632
596.00,43.682
597.00,43.754
598.00,43.931
599.00,43.913
600.00,43.906
601.00,43.934
602.00,43.942
603.00,43.889
604.00,43.934
605.00,43.978
606.00,43.952
607.00,44.027
608.00,44.066
609.00,43.979
610.00,43.945
611.00,44.234
612.00,44.183
613.00,44.184
614.00,44.264
615.00,44.307
616.00,44.389
617.00,44.447
618.00,44.427
619.00,44.502
620.00,44.448
621.00,44.499
622.00,44.593
623.00,44.708
624.00,44.720
625.00,44.740
626.00,44.818
627.00,44.808
628.00,44.828
629.00,44.849
630.00,44.878
631.00,44.913
632.00,44.930
633.00,45.076
634.00,45.133
635.00,45.155
636.00,45.323
637.00,45.354
638.00,45.339
639.00,45.345
640.00,45.345
641.00,45.391
642.00,45.553
643.00,45.575
644.00,45.677
645.00,45.724
646.00,45.833
647.00,45.837
648.00,45.848
649.00,45.977
650.00,45.989
651.00,46.003
652.00,46.046
653.00,46.152
654.00,46.232
655.00,46.231
656.00,46.420
657.00,46.533
658.00,46.494
659.00,46.553
660.00,46.496
661.00,46.518
662.00,46.799
663.00,46.734
664.00,46.826
665.00,47.006
666.00,47.019
667.00,47.134
668.00,47.111
669.00,47.186
670.00,47.321
671.00,47.343
672.00,47.505
673.00,47.357
674.00,47.582
675.00,47.974
676.00,47.713
677.00,47.794
678.00,47.769
679.00,47.903
680.00,48.010
681.00,48.046
682.00,48.137
683.00,48.184
684.00,48.196
685.00,48.343
686.00,48.261
687.00,48.361
688.00,48.405
689.00,48.350
690.00,48.530
691.00,48.703
692.00,48.569
693.00,48.709
694.00,48.762
695.00,48.819
696.00,48.852
697.00,48.985
698.00,48.942
699.00,49.103
700.00,49.242
701.00,49.307
702.00,49.355
703.00,49.411
704.00,49.357
705.00,49.413
706.00,49.394
707.00,49.626
708.00,49.424
709.00,49.604
710.00,49.901
711.00,49.518
712.00,49.656
713.00,49.791
714.00,49.820
715.00,49.902
716.00,49.960
717.00,49.955
718.00,50.053
719.00,50.056
720.00,50.091
721.00,54.507
722.00,54.479
723.00,54.472
724.00,54.472
725.00,54.452
726.00,54.427
727.00,54.470
728.00,54.386
729.00,54.438
730.00,54.459
731.00,54.425
732.00,54.472
733.00,54.552
734.00,54.505
735.00,54.607
736.00,54.553
737.00,54.551
738.00,54.561
739.00,54.616
740.00,54.583
741.00,54.620
742.00,54.607
743.00,54.644
744.00,54.598
745.00,54.619
746.00,54.634
747.00,54.660
748.00,54.460
749.00,54.595
750.00,54.558
751.00,54.537
752.00,54.551
753.00,54.480
754.00,54.566
755.00,54.458
756.00,54.537
757.00,54.452
758.00,54.440
759.00,54.434
760.00,54.527
761.00,54.474
762.00,54.470
763.00,54.518
764.00,54.424
765.00,54.387
766.00,54.494
767.00,54.552
768.00,54.447
769.00,54.503
770.00,54.554
771.00,54.487
772.00,54.430
773.00,54.440
774.00,54.452
775.00,54.547
776.00,54.412
777.00,54.449
778.00,54.385
779.00,54.438
780.00,54.410
781.00,54.377
782.00,54.412
783.00,54.375
784.00,54.380
785.00,54.344
786.00,54.398
787.00,54.318
788.00,54.233
789.00,54.352
790.00,54.228
791.00,54.351
792.00,54.219
793.00,54.307
794.00,54.234
795.00,54.160
796.00,54.233
797.00,54.155
798.00,54.173
799.00,54.086
800.00,54.039
801.00,54.048
802.00,54.007
803.00,54.062
804.00,54.057
805.00,54.046
806.00,53.969
807.00,53.963
808.00,53.967
809.00,53.942
810.00,53.868
811.00,53.943
812.00,53.925
813.00,53.905
814.00,53.900
815.00,53.882
816.00,53.853
817.00,53.759
818.00,53.680
819.00,53.698
820.00,53.673
821.00,53.748
822.00,53.787
823.00,53.605
824.00,53.768
825.00,53.608
826.00,53.658
827.00,53.712
828.00,53.773
829.00,53.593
830.00,53.626
831.00,56.077
832.00,56.134
833.00,56.010
834.00,56.005
835.00,55.981
836.00,56.001
837.00,55.950
838.00,55.945
839.00,55.944
840.00,55.871
841.00,55.917
842.00,55.856
843.00,55.858
844.00,55.830
845.00,55.827
846.00,55.835
847.00,55.788
848.00,55.746
849.00,55.702
850.00,55.698
851.00,55.657
852.00,55.684
853.00,55.567
854.00,55.520
855.00,55.511
856.00,55.576
857.00,55.482
858.00,55.502
859.00,55.439
860.00,55.454
861.00,55.462
862.00,55.411
863.00,55.449
864.00,55.387
865.00,55.409
866.00,55.359
867.00,55.347
868.00,55.344
869.00,55.331
870.00,55.327
871.00,55.313
872.00,55.290
873.00,55.250
874.00,55.287
875.00,55.259
876.00,55.237
877.00,55.258
878.00,55.280
879.00,55.235
880.00,55.204
881.00,55.250
882.00,55.239
883.00,55.158
884.00,55.149
885.00,55.138
886.00,55.088
887.00,55.263
888.00,55.062
889.00,55.066
890.00,55.069
891.00,55.038
892.00,55.006
893.00,55.009
894.00,54.979
895.00,54.960
896.00,54.947
897.00,54.877
898.00,54.877
899.00,54.871
900.00,54.841
901.00,54.873
902.00,54.833
903.00,54.814
904.00,54.812
905.00,54.781
906.00,54.780
907.00,54.763
908.00,54.721
909.00,54.701
910.00,54.691
911.00,54.707
912.00,54.644
913.00,54.596
914.00,54.592
915.00,54.618
916.00,54.525
917.00,54.581
918.00,54.586
919.00,54.547
920.00,54.482
921.00,54.503
922.00,54.479
923.00,54.468
924.00,54.399
925.00,54.396
926.00,54.388
927.00,54.453
928.00,54.365
929.00,54.384
930.00,54.349
931.00,54.314
932.00,54.278
933.00,54.294
934.00,54.279
935.00,54.245
936.00,54.211
937.00,54.202
938.00,54.202
939.00,54.203
940.00,54.159
941.00,54.150
942.00,54.250
943.00,54.135
944.00,54.078
945.00,54.076
946.00,54.077
947.00,54.091
948.00,54.033
949.00,54.012
950.00,53.990
951.00,53.995
952.00,53.971
953.00,53.937
954.00,53.936
955.00,53.872
956.00,53.854
957.00,53.818
958.00,53.830
959.00,53.779
960.00,53.775
961.00,53.757
962.00,53.775
963.00,53.713
964.00,53.728
965.00,53.725
966.00,53.714
967.00,53.711
968.00,53.686
969.00,53.702
970.00,53.685
971.00,53.696
972.00,53.641
973.00,53.700
974.00,53.719
975.00,53.663
976.00,53.688
977.00,53.675
978.00,53.712
979.00,53.675
980.00,53.691
981.00,53.692
982.00,53.647
983.00,53.662
984.00,53.671
985.00,53.676
986.00,53.614
987.00,53.690
988.00,53.733
989.00,53.619
990.00,53.615
991.00,53.608
992.00,53.633
993.00,53.564
994.00,53.564
995.00,53.555
996.00,53.546
997.00,53.523
998.00,53.526
999.00,53.546
1000.00,53.493
1001.00,53.485
1002.00,53.485
1003.00,53.495
1004.00,53.457
1005.00,53.444
1006.00,53.474
1007.00,53.436
1008.00,53.409
1009.00,53.401
1010.00,53.397
1011.00,53.370
1012.00,53.360
1013.00,53.375
1014.00,53.350
1015.00,53.336
1016.00,53.303
1017.00,53.298
1018.00,53.283
1019.00,53.253
1020.00,53.262
1021.00,53.241
1022.00,53.232
1023.00,53.188
1024.00,53.196
1025.00,53.188
1026.00,53.157
1027.00,53.128
1028.00,53.142
1029.00,53.112
1030.00,53.093
1031.00,53.105
1032.00,53.058
1033.00,53.073
1034.00,53.043
1035.00,53.019
1036.00,53.012
1037.00,52.982
1038.00,52.952
1039.00,52.924
1040.00,52.907
1041.00,52.883
1042.00,52.888
1043.00,52.862
1044.00,52.893
1045.00,52.872
1046.00,52.894
1047.00,52.909
1048.00,52.924
1049.00,52.922
1050.00,52.921
1051.00,52.949
1052.00,52.937
1053.00,52.966
1054.00,52.956
1055.00,52.964
1056.00,52.980
1057.00,52.982
1058.00,52.983
1059.00,52.970
1060.00,52.979
1061.00,52.980
1062.00,52.949
1063.00,52.966
1064.00,52.996
1065.00,52.933
1066.00,52.926
1067.00,52.933
1068.00,52.949
1069.00,52.911
1070.00,52.890
1071.00,52.882
1072.00,52.914
1073.00,52.898
1074.00,52.885
1075.00,52.878
1076.00,52.884
1077.00,52.858
1078.00,52.841
1079.00,52.849
1080.00,52.873
1081.00,52.844
1082.00,52.846
1083.00,52.840
1084.00,52.836
1085.00,52.823
1086.00,52.822
1087.00,52.826
1088.00,52.814
1089.00,52.784
1090.00,52.789
1091.00,52.790
1092.00,52.779
1093.00,52.763
1094.00,52.764
1095.00,52.752
1096.00,52.730
1097.00,52.732
1098.00,52.730
1099.00,52.718
1100.00,52.706
1101.00,52.696
1102.00,52.694
1103.00,52.696
1104.00,52.690
1105.00,52.652
1106.00,52.654
1107.00,52.638
1108.00,52.633
1109.00,52.646
1110.00,52.650
1111.00,52.620
1112.00,52.606
1113.00,52.601
1114.00,52.580
1115.00,52.584
1116.00,52.596
1117.00,52.573
1118.00,52.564
1119.00,52.566
1120.00,52.565
1121.00,52.568
1122.00,52.554
1123.00,52.522
1124.00,52.577
1125.00,52.584
1126.00,52.527
1127.00,52.540
1128.00,52.515
1129.00,52.492
1130.00,52.481
1131.00,52.474
1132.00,52.471
1133.00,52.464
1134.00,52.480
1135.00,52.491
1136.00,52.471
1137.00,52.458
1138.00,52.477
1139.00,52.477
1140.00,52.458
1141.00,52.452
1142.00,52.439
1143.00,52.463
1144.00,52.430
1145.00,52.430
1146.00,52.450
1147.00,52.422
1148.00,52.411
1149.00,52.450
1150.00,52.441
1151.00,52.449
1152.00,52.441
1153.00,52.442
1154.00,52.424
1155.00,52.425
1156.00,52.418
1157.00,52.430
1158.00,52.404
1159.00,52.406
1160.00,52.411
1161.00,52.409
1162.00,52.390
1163.00,52.400
1164.00,52.400
1165.00,52.403
1166.00,52.399
1167.00,52.397
1168.00,52.421
1169.00,52.398
1170.00,52.398
1171.00,52.392
1172.00,52.389
1173.00,52.390
1174.00,52.399
1175.00,52.391
1176.00,52.391
1177.00,52.374
1178.00,52.391
1179.00,52.410
1180.00,52.379
1181.00,52.402
1182.00,52.404
1183.00,52.388
1184.00,52.362
1185.00,52.408
1186.00,52.404
1187.00,52.381
1188.00,52.371
1189.00,52.390
1190.00,52.383
1191.00,52.375
1192.00,52.386
1193.00,52.391
1194.00,52.376
1195.00,52.354
1196.00,52.387
1197.00,52.389
1198.00,52.382
1199.00,52.382
1200.00,52.405
1201.00,52.418
1202.00,52.387
1203.00,52.398
1204.00,52.396
1205.00,52.394
1206.00,52.381
1207.00,52.389
1208.00,52.369
1209.00,52.386
1210.00,52.384
1211.00,52.396
1212.00,52.427
1213.00,52.381
1214.00,52.393
1215.00,52.401
1216.00,52.410
1217.00,52.394
1218.00,52.395
1219.00,52.402
1220.00,52.388
1221.00,52.406
1222.00,52.397
1223.00,52.421
1224.00,52.395
1225.00,52.388
1226.00,52.412
1227.00,52.400
1228.00,52.402
1229.00,52.410
1230.00,52.454
1231.00,52.428
1232.00,52.440
1233.00,52.443
1234.00,52.453
1235.00,52.460
1236.00,52.454
1237.00,52.456
1238.00,52.435
1239.00,52.434
1240.00,52.436
1241.00,52.442
1242.00,52.465
1243.00,52.467
1244.00,52.461
1245.00,52.507
1246.00,52.482
1247.00,52.489
1248.00,52.509
1249.00,52.486
1250.00,52.485
1251.00,52.486
1252.00,52.496
1253.00,52.491
1254.00,52.510
1255.00,52.502
1256.00,52.478
1257.00,52.478
1258.00,52.539
1259.00,52.526
1260.00,52.542
1261.00,52.532
1262.00,52.533
1263.00,52.510
1264.00,52.526
1265.00,52.542
1266.00,52.538
1267.00,52.547
1268.00,52.569
1269.00,52.547
1270.00,52.577
1271.00,52.560
1272.00,52.571
1273.00,52.595
1274.00,52.585
1275.00,52.592
1276.00,52.596
1277.00,52.614
1278.00,52.631
1279.00,52.605
1280.00,52.591
1281.00,52.616
1282.00,52.617
1283.00,52.603
1284.00,52.625
1285.00,52.613
1286.00,52.619
1287.00,52.625
1288.00,52.634
1289.00,52.646
1290.00,52.669
1291.00,52.660
1292.00,52.673
1293.00,52.665
1294.00,52.673
1295.00,52.676
1296.00,52.670
1297.00,52.700
1298.00,52.721
1299.00,52.711
1300.00,52.733
1301.00,52.729
1302.00,52.749
1303.00,52.756
1304.00,52.730
1305.00,52.748
1306.00,52.751
1307.00,52.749
1308.00,52.752
1309.00,52.749
1310.00,52.747
1311.00,52.741
1312.00,52.766
1313.00,52.769
1314.00,52.806
1315.00,52.817
1316.00,52.824
1317.00,52.821
1318.00,52.837
1319.00,52.856
1320.00,52.832
1321.00,52.983
1322.00,52.977
1323.00,52.974
1324.00,52.979
1325.00,52.958
1326.00,52.966
1327.00,52.962
1328.00,52.974
1329.00,52.935
1330.00,52.973
1331.00,52.985
1332.00,52.962
1333.00,52.963
1334.00,52.991
1335.00,53.022
1336.00,53.055
1337.00,53.055
1338.00,53.133
1339.00,53.191
1340.00,53.232
1341.00,53.306
1342.00,53.369
1343.00,53.413
1344.00,53.485
1345.00,53.517
1346.00,53.547
1347.00,53.569
1348.00,53.568
1349.00,53.596
1350.00,53.624
1351.00,53.649
1352.00,53.642
1353.00,53.499
1354.00,53.636
1355.00,53.624
1356.00,53.693
1357.00,53.678
1358.00,53.693
1359.00,53.667
1360.00,53.657
1361.00,53.656
1362.00,53.617
1363.00,53.754
1364.00,53.877
1365.00,53.699
1366.00,53.813
1367.00,53.698
1368.00,53.608
1369.00,53.720
1370.00,53.680
1371.00,53.659
1372.00,53.696
1373.00,53.690
1374.00,53.713
1375.00,53.720
1376.00,53.665
1377.00,53.680
1378.00,53.723
1379.00,53.714
1380.00,53.737
1381.00,53.730
1382.00,53.628
1383.00,53.770
1384.00,53.655
1385.00,53.658
1386.00,53.693
1387.00,53.648
1388.00,53.683
1389.00,53.653
1390.00,53.616
1391.00,53.718
1392.00,53.691
1393.00,53.649
1394.00,53.701
1395.00,53.649
1396.00,53.642
1397.00,53.667
1398.00,53.687
1399.00,53.718
1400.00,53.660
1401.00,53.681
1402.00,53.743
1403.00,53.688
1404.00,53.708
1405.00,53.742
1406.00,53.742
1407.00,53.740
1408.00,53.783
1409.00,53.718
1410.00,53.764
1411.00,53.701
1412.00,53.809
1413.00,53.745
1414.00,53.732
1415.00,53.742
1416.00,53.801
1417.00,53.793
1418.00,53.765
1419.00,53.814
1420.00,53.816
1421.00,53.876
1422.00,53.847
1423.00,53.849
1424.00,53.874
1425.00,53.862
1426.00,53.884
1427.00,53.928
1428.00,53.914
1429.00,53.952
1430.00,53.955
1431.00,53.960
1432.00,53.979
1433.00,53.978
1434.00,53.978
1435.00,54.040
1436.00,54.022
1437.00,54.022
1438.00,54.050
1439.00,54.078
1440.00,54.101
1441.00,54.120
1442.00,54.106
1443.00,54.136
1444.00,54.231
1445.00,54.179
1446.00,54.154
1447.00,54.175
1448.00,54.221
1449.00,54.235
1450.00,54.219
1451.00,54.232
1452.00,54.240
1453.00,54.257
1454.00,54.281
1455.00,54.306
1456.00,54.313
1457.00,54.329
1458.00,54.324
1459.00,54.344
1460.00,54.348
1461.00,54.365
1462.00,54.417
1463.00,54.426
1464.00,54.424
1465.00,54.453
1466.00,54.426
1467.00,54.456
1468.00,54.534
1469.00,54.493
1470.00,54.520
1471.00,54.544
1472.00,54.528
1473.00,54.561
1474.00,54.580
1475.00,54.575
1476.00,54.604
1477.00,54.598
1478.00,54.609
1479.00,54.644
1480.00,54.623
1481.00,54.644
1482.00,54.673
1483.00,54.675
1484.00,54.686
1485.00,54.690
1486.00,54.698
1487.00,54.723
1488.00,54.720
1489.00,54.724
1490.00,54.739
1491.00,54.742
1492.00,54.761
1493.00,54.760
1494.00,54.780
1495.00,54.778
1496.00,54.817
1497.00,54.797
1498.00,54.819
1499.00,54.831
1500.00,54.839
1501.00, 
1502.00, 
1503.00, 
1504.00, 
1505.00, 
1506.00, 
1507.00, 
1508.00, 
1509.00, 
1510.00, 
1511.00, 
1512.00, 
1513.00, 
1514.00, 
1515.00, 
1516.00, 
1517.00, 
1518.00, 
1519.00, 
1520.00, 
1521.00, 
1522.00, 
1523.00, 
1524.00, 
1525.00, 
1526.00, 
1527.00, 
1528.00, 
1529.00, 
1530.00, 
1531.00, 
1532.00, 
1533.00, 
1534.00, 
1535.00, 
1536.00, 
1537.00, 
1538.00, 
1539.00, 
1540.00, 
1541.00, 
1542.00, 
1543.00, 
1544.00, 
1545.00, 
1546.00, 
1547.00, 
1548.00, 
1549.00, 
1550.00, 
1551.00, 
1552.00, 
1553.00, 
1554.00, 
1555.00, 
1556.00, 
1557.00, 
1558.00, 
1559.00, 
1560.00, 
1561.00, 
1562.00, 
1563.00, 
1564.00, 
1565.00, 
1566.00, 
1567.00, 
1568.00, 
1569.00, 
1570.00, 
1571.00, 
1572.00, 
1573.00, 
1574.00, 
1575.00, 
1576.00, 
1577.00, 
1578.00, 
1579.00, 
1580.00, 
1581.00, 
1582.00, 
1583.00, 
1584.00, 
1585.00, 
1586.00, 
1587.00, 
1588.00, 
1589.00, 
1590.00, 
1591.00, 
1592.00, 
1593.00, 
1594.00, 
1595.00, 
1596.00, 
1597.00, 
1598.00, 
1599.00, 
1600.00, 
1601.00, 
1602.00, 
1603.00, 
1604.00, 
1605.00, 
1606.00, 
1607.00, 
1608.00, 
1609.00, 
1610.00, 
1611.00, 
1612.00, 
1613.00, 
1614.00, 
1615.00, 
1616.00, 
1617.00, 
1618.00, 
1619.00, 
1620.00, 
1621.00, 
1622.00, 
1623.00, 
1624.00, 
1625.00, 
1626.00, 
1627.00, 
1628.00, 
1629.00, 
1630.00, 
1631.00, 
1632.00, 
1633.00, 
1634.00, 
1635.00, 
1636.00, 
1637.00, 
1638.00, 
1639.00, 
1640.00, 
1641.00, 
1642.00, 
1643.00, 
1644.00, 
1645.00, 
1646.00, 
1647.00, 
1648.00, 
1649.00, 
1650.00, 
1651.00, 
1652.00, 
1653.00, 
1654.00, 
1655.00, 
1656.00, 
1657.00, 
1658.00, 
1659.00, 
1660.00, 
1661.00, 
1662.00, 
1663.00, 
1664.00, 
1665.00, 
1666.00, 
1667.00, 
1668.00, 
1669.00, 
1670.00, 
1671.00, 
1672.00, 
1673.00, 
1674.00, 
1675.00, 
1676.00, 
1677.00, 
1678.00, 
1679.00, 
1680.00, 
1681.00, 
1682.00, 
1683.00, 
1684.00, 
1685.00, 
1686.00, 
1687.00, 
1688.00, 
1689.00, 
1690.00, 
1691.00, 
1692.00, 
1693.00, 
1694.00, 
1695.00, 
1696.00, 
1697.00, 
1698.00, 
1699.00, 
1700.00, 
1701.00, 
1702.00, 
1703.00, 
1704.00, 
1705.00, 
1706.00, 
1707.00, 
1708.00, 
1709.00, 
1710.00, 
1711.00, 
1712.00, 
1713.00, 
1714.00, 
1715.00, 
1716.00, 
1717.00, 
1718.00, 
1719.00, 
1720.00, 
1721.00, 
1722.00, 
1723.00, 
1724.00, 
1725.00, 
1726.00, 
1727.00, 
1728.00, 
1729.00, 
1730.00, 
1731.00, 
1732.00, 
1733.00, 
1734.00, 
1735.00, 
1736.00, 
1737.00, 
1738.00, 
1739.00, 
1740.00, 
1741.00, 
1742.00, 
1743.00, 
1744.00, 
1745.00, 
1746.00, 
1747.00, 
1748.00, 
1749.00, 
1750.00, 
1751.00, 
1752.00, 
1753.00, 
1754.00, 
1755.00, 
1756.00, 
1757.00, 
1758.00, 
1759.00, 
1760.00, 
1761.00, 
1762.00, 
1763.00, 
1764.00, 
1765.00, 
1766.00, 
1767.00, 
1768.00, 
1769.00, 
1770.00, 
1771.00, 
1772.00, 
1773.00, 
1774.00, 
1775.00, 
1776.00, 
1777.00, 
1778.00, 
1779.00, 
1780.00, 
1781.00, 
1782.00, 
1783.00, 
1784.00, 
1785.00, 
1786.00, 
1787.00, 
1788.00, 
1789.00, 
1790.00, 
1791.00, 
1792.00, 
1793.00, 
1794.00, 
1795.00, 
1796.00, 
1797.00, 
1798.00, 
1799.00, 
1800.00, 
1801.00, 
1802.00, 
1803.00, 
1804.00, 
1805.00, 
1806.00, 
1807.00, 
1808.00, 
1809.00, 
1810.00, 
1811.00, 
1812.00, 
1813.00, 
1814.00, 
1815.00, 
1816.00, 
1817.00, 
1818.00, 
1819.00, 
1820.00, 
1821.00, 
1822.00, 
1823.00, 
1824.00, 
1825.00, 
1826.00, 
1827.00, 
1828.00, 
1829.00, 
1830.00, 
1831.00, 
1832.00, 
1833.00, 
1834.00, 
1835.00, 
1836.00, 
1837.00, 
1838.00, 
1839.00, 
1840.00, 
1841.00, 
1842.00, 
1843.00, 
1844.00, 
1845.00, 
1846.00, 
1847.00, 
1848.00, 
1849.00, 
1850.00, 
1851.00, 
1852.00, 
1853.00, 
1854.00, 
1855.00, 
1856.00, 
1857.00, 
1858.00, 
1859.00, 
1860.00, 
1861.00, 
1862.00, 
1863.00, 
1864.00, 
1865.00, 
1866.00, 
1867.00, 
1868.00, 
1869.00, 
1870.00, 
1871.00, 
1872.00, 
1873.00, 
1874.00, 
1875.00, 
1876.00, 
1877.00, 
1878.00, 
1879.00, 
1880.00, 
1881.00, 
1882.00, 
1883.00, 
1884.00, 
1885.00, 
1886.00, 
1887.00, 
1888.00, 
1889.00, 
1890.00, 
1891.00, 
1892.00, 
1893.00, 
1894.00, 
1895.00, 
1896.00, 
1897.00, 
1898.00, 
1899.00, 
1900.00, 
1901.00, 
1902.00, 
1903.00, 
1904.00, 
1905.00, 
1906.00, 
1907.00, 
1908.00, 
1909.00, 
1910.00, 
1911.00, 
1912.00, 
1913.00, 
1914.00, 
1915.00, 
1916.00, 
1917.00, 
1918.00, 
1919.00, 
1920.00, 
1921.00, 
1922.00, 
1923.00, 
1924.00, 
1925.00, 
1926.00, 
1927.00, 
1928.00, 
1929.00, 
1930.00, 
1931.00, 
1932.00, 
1933.00, 
1934.00, 
1935.00, 
1936.00, 
1937.00, 
1938.00, 
1939.00, 
1940.00, 
1941.00, 
1942.00, 
1943.00, 
1944.00, 
1945.00, 
1946.00, 
1947.00, 
1948.00, 
1949.00, 
1950.00, 
1951.00, 
1952.00, 
1953.00, 
1954.00, 
1955.00, 
1956.00, 
1957.00, 
1958.00, 
1959.00, 
1960.00, 
1961.00, 
1962.00, 
1963.00, 
1964.00, 
1965.00, 
1966.00, 
1967.00, 
1968.00, 
1969.00, 
1970.00, 
1971.00, 
1972.00, 
1973.00, 
1974.00, 
1975.00, 
1976.00, 
1977.00, 
1978.00, 
1979.00, 
1980.00, 
1981.00, 
1982.00, 
1983.00, 
1984.00, 
1985.00, 
1986.00, 
1987.00, 
1988.00, 
1989.00, 
1990.00, 
1991.00, 
1992.00, 
1993.00, 
1994.00, 
1995.00, 
1996.00, 
1997.00, 
1998.00, 
1999.00, 
2000.00, 
2001.00, 
2002.00, 
2003.00, 
2004.00, 
2005.00, 
2006.00, 
2007.00, 
2008.00, 
2009.00, 
2010.00, 
2011.00, 
2012.00, 
2013.00, 
2014.00, 
2015.00, 
2016.00, 
2017.00, 
2018.00, 
2019.00, 
2020.00, 
2021.00, 
2022.00, 
2023.00, 
2024.00, 
2025.00, 
2026.00, 
2027.00, 
2028.00, 
2029.00, 
2030.00, 
2031.00, 
2032.00, 
2033.00, 
2034.00, 
2035.00, 
2036.00, 
2037.00, 
2038.00, 
2039.00, 
2040.00, 
2041.00, 
2042.00, 
2043.00, 
2044.00, 
2045.00, 
2046.00, 
2047.00, 
2048.00, 
2049.00, 
2050.00, 
2051.00, 
2052.00, 
2053.00, 
2054.00, 
2055.00, 
2056.00, 
2057.00, 
2058.00, 
2059.00, 
2060.00, 
2061.00, 
2062.00, 
2063.00, 
2064.00, 
2065.00, 
2066.00, 
2067.00, 
2068.00, 
2069.00, 
2070.00, 
2071.00, 
2072.00, 
2073.00, 
2074.00, 
2075.00, 
2076.00, 
2077.00, 
2078.00, 
2079.00, 
2080.00, 
2081.00, 
2082.00, 
2083.00, 
2084.00, 
2085.00, 
2086.00, 
2087.00, 
2088.00, 
2089.00, 
2090.00, 
2091.00, 
2092.00, 
2093.00, 
2094.00, 
2095.00, 
2096.00, 
2097.00, 
2098.00, 
2099.00, 
2100.00, 
2101.00, 
2102.00, 
2103.00, 
2104.00, 
2105.00, 
2106.00, 
2107.00, 
2108.00, 
2109.00, 
2110.00, 
2111.00, 
2112.00, 
2113.00, 
2114.00, 
2115.00, 
2116.00, 
2117.00, 
2118.00, 
2119.00, 
2120.00, 
2121.00, 
2122.00, 
2123.00, 
2124.00, 
2125.00, 
2126.00, 
2127.00, 
2128.00, 
2129.00, 
2130.00, 
2131.00, 
2132.00, 
2133.00, 
2134.00, 
2135.00, 
2136.00, 
2137.00, 
2138.00, 
2139.00, 
2140.00, 
2141.00, 
2142.00, 
2143.00, 
2144.00, 
2145.00, 
2146.00, 
2147.00, 
2148.00, 
2149.00, 
2150.00, 
2151.00, 
2152.00, 
2153.00, 
2154.00, 
2155.00, 
2156.00, 
2157.00, 
2158.00, 
2159.00, 
2160.00, 
2161.00, 
2162.00, 
2163.00, 
2164.00, 
2165.00, 
2166.00, 
2167.00, 
2168.00, 
2169.00, 
2170.00, 
2171.00, 
2172.00, 
2173.00, 
2174.00, 
2175.00, 
2176.00, 
2177.00, 
2178.00, 
2179.00, 
2180.00, 
2181.00, 
2182.00, 
2183.00, 
2184.00, 
2185.00, 
2186.00, 
2187.00, 
2188.00, 
2189.00, 
2190.00, 
2191.00, 
2192.00, 
2193.00, 
2194.00, 
2195.00, 
2196.00, 
2197.00, 
2198.00, 
2199.00, 
2200.00, 
2201.00, 
2202.00, 
2203.00, 
2204.00, 
2205.00, 
2206.00, 
2207.00, 
2208.00, 
2209.00, 
2210.00, 
2211.00, 
2212.00, 
2213.00, 
2214.00, 
2215.00, 
2216.00, 
2217.00, 
2218.00, 
2219.00, 
2220.00, 
2221.00, 
2222.00, 
2223.00, 
2224.00, 
2225.00, 
2226.00, 
2227.00, 
2228.00, 
2229.00, 
2230.00, 
2231.00, 
2232.00, 
2233.00, 
2234.00, 
2235.00, 
2236.00, 
2237.00, 
2238.00, 
2239.00, 
2240.00, 
2241.00, 
2242.00, 
2243.00, 
2244.00, 
2245.00, 
2246.00, 
2247.00, 
2248.00, 
2249.00, 
2250.00, 
2251.00, 
2252.00, 
2253.00, 
2254.00, 
2255.00, 
2256.00, 
2257.00, 
2258.00, 
2259.00, 
2260.00, 
2261.00, 
2262.00, 
2263.00, 
2264.00, 
2265.00, 
2266.00, 
2267.00, 
2268.00, 
2269.00, 
2270.00, 
2271.00, 
2272.00, 
2273.00, 
2274.00, 
2275.00, 
2276.00, 
2277.00, 
2278.00, 
2279.00, 
2280.00, 
2281.00, 
2282.00, 
2283.00, 
2284.00, 
2285.00, 
2286.00, 
2287.00, 
2288.00, 
2289.00, 
2290.00, 
2291.00, 
2292.00, 
2293.00, 
2294.00, 
2295.00, 
2296.00, 
2297.00, 
2298.00, 
2299.00, 
2300.00, 
2301.00, 
2302.00, 
2303.00, 
2304.00, 
2305.00, 
2306.00, 
2307.00, 
2308.00, 
2309.00, 
2310.00, 
2311.00, 
2312.00, 
2313.00, 
2314.00, 
2315.00, 
2316.00, 
2317.00, 
2318.00, 
2319.00, 
2320.00, 
2321.00, 
2322.00, 
2323.00, 
2324.00, 
2325.00, 
2326.00, 
2327.00, 
2328.00, 
2329.00, 
2330.00, 
2331.00, 
2332.00, 
2333.00, 
2334.00, 
2335.00, 
2336.00, 
2337.00, 
2338.00, 
2339.00, 
2340.00, 
2341.00, 
2342.00, 
2343.00, 
2344.00, 
2345.00, 
2346.00, 
2347.00, 
2348.00, 
2349.00, 
2350.00, 
2351.00, 
2352.00, 
2353.00, 
2354.00, 
2355.00, 
2356.00, 
2357.00, 
2358.00, 
2359.00, 
2360.00, 
2361.00, 
2362.00, 
2363.00, 
2364.00, 
2365.00, 
2366.00, 
2367.00, 
2368.00, 
2369.00, 
2370.00, 
2371.00, 
2372.00, 
2373.00, 
2374.00, 
2375.00, 
2376.00, 
2377.00, 
2378.00, 
2379.00, 
2380.00, 
2381.00, 
2382.00, 
2383.00, 
2384.00, 
2385.00, 
2386.00, 
2387.00, 
2388.00, 
2389.00, 
2390.00, 
2391.00, 
2392.00, 
2393.00, 
2394.00, 
2395.00, 
2396.00, 
2397.00, 
2398.00, 
2399.00, 
2400.00, 
2401.00, 
2402.00, 
2403.00, 
2404.00, 
2405.00, 
2406.00, 
2407.00, 
2408.00, 
2409.00, 
2410.00, 
2411.00, 
2412.00, 
2413.00, 
2414.00, 
2415.00, 
2416.00, 
2417.00, 
2418.00, 
2419.00, 
2420.00, 
2421.00, 
2422.00, 
2423.00, 
2424.00, 
2425.00, 
2426.00, 
2427.00, 
2428.00, 
2429.00, 
2430.00, 
2431.00, 
2432.00, 
2433.00, 
2434.00, 
2435.00, 
2436.00, 
2437.00, 
2438.00, 
2439.00, 
2440.00, 
2441.00, 
2442.00, 
2443.00, 
2444.00, 
2445.00, 
2446.00, 
2447.00, 
2448.00, 
2449.00, 
2450.00, 
2451.00, 
2452.00, 
2453.00, 
2454.00, 
2455.00, 
2456.00, 
2457.00, 
2458.00, 
2459.00, 
2460.00, 
2461.00, 
2462.00, 
2463.00, 
2464.00, 
2465.00, 
2466.00, 
2467.00, 
2468.00, 
2469.00, 
2470.00, 
2471.00, 
2472.00, 
2473.00, 
2474.00, 
2475.00, 
2476.00, 
2477.00, 
2478.00, 
2479.00, 
2480.00, 
2481.00, 
2482.00, 
2483.00, 
2484.00, 
2485.00, 
2486.00, 
2487.00, 
2488.00, 
2489.00, 
2490.00, 
2491.00, 
2492.00, 
2493.00, 
2494.00, 
2495.00, 
2496.00, 
2497.00, 
2498.00, 
2499.00, 
2500.00, 
2501.00, 
2502.00, 
2503.00, 
2504.00, 
2505.00, 
2506.00, 
2507.00, 
2508.00, 
2509.00, 
2510.00, 
2511.00, 
2512.00, 
2513.00, 
2514.00, 
2515.00, 
2516.00, 
2517.00, 
2518.00, 
2519.00, 
2520.00, 
2521.00, 
2522.00, 
2523.00, 
2524.00, 
2525.00, 
2526.00, 
2527.00, 
2528.00, 
2529.00, 
2530.00, 
2531.00, 
2532.00, 
2533.00, 
2534.00, 
2535.00, 
2536.00, 
2537.00, 
2538.00, 
2539.00, 
2540.00, 
2541.00, 
2542.00, 
2543.00, 
2544.00, 
2545.00, 
2546.00, 
2547.00, 
2548.00, 
2549.00, 
2550.00, 
2551.00, 
2552.00, 
2553.00, 
2554.00, 
2555.00, 
2556.00, 
2557.00, 
2558.00, 
2559.00, 
2560.00, 
2561.00, 
2562.00, 
2563.00, 
2564.00, 
2565.00, 
2566.00, 
2567.00, 
2568.00, 
2569.00, 
2570.00, 
2571.00, 
2572.00, 
2573.00, 
2574.00, 
2575.00, 
2576.00, 
2577.00, 
2578.00, 
2579.00, 
2580.00, 
2581.00, 
2582.00, 
2583.00, 
2584.00, 
2585.00, 
2586.00, 
2587.00, 
2588.00, 
2589.00, 
2590.00, 
2591.00, 
2592.00, 
2593.00, 
2594.00, 
2595.00, 
2596.00, 
2597.00, 
2598.00, 
2599.00, 
2600.00, 
