"1aP2 - RawData"
"Wavelength nm.","T%"
200.00,-0.001
201.00,0.004
202.00,0.001
203.00,0.000
204.00,0.004
205.00,0.003
206.00,0.001
207.00,0.002
208.00,0.002
209.00,-0.001
210.00,0.001
211.00,0.003
212.00,0.002
213.00,0.003
214.00,0.001
215.00,-0.000
216.00,-0.002
217.00,0.001
218.00,0.002
219.00,0.002
220.00,0.001
221.00,-0.000
222.00,-0.001
223.00,0.004
224.00,0.001
225.00,-0.002
226.00,0.003
227.00,0.001
228.00,0.001
229.00,0.001
230.00,-0.001
231.00,0.000
232.00,-0.001
233.00,-0.000
234.00,0.001
235.00,0.001
236.00,0.000
237.00,0.002
238.00,-0.001
239.00,-0.001
240.00,0.000
241.00,0.000
242.00,0.000
243.00,-0.000
244.00,0.000
245.00,0.001
246.00,0.001
247.00,0.001
248.00,-0.001
249.00,-0.000
250.00,0.001
251.00,0.001
252.00,0.001
253.00,-0.002
254.00,0.001
255.00,0.001
256.00,-0.001
257.00,0.001
258.00,-0.001
259.00,0.001
260.00,-0.001
261.00,0.000
262.00,0.001
263.00,-0.001
264.00,-0.000
265.00,0.001
266.00,-0.002
267.00,-0.000
268.00,0.001
269.00,0.000
270.00,0.001
271.00,0.001
272.00,-0.002
273.00,0.001
274.00,0.001
275.00,0.001
276.00,-0.002
277.00,0.000
278.00,-0.001
279.00,-0.002
280.00,-0.000
281.00,-0.000
282.00,0.000
283.00,0.001
284.00,-0.000
285.00,-0.002
286.00,0.000
287.00,0.002
288.00,0.001
289.00,-0.000
290.00,-0.001
291.00,0.002
292.00,-0.000
293.00,0.003
294.00,0.000
295.00,-0.000
296.00,0.001
297.00,-0.000
298.00,0.001
299.00,0.002
300.00,0.002
301.00,0.004
302.00,0.006
303.00,0.010
304.00,0.015
305.00,0.023
306.00,0.032
307.00,0.048
308.00,0.077
309.00,0.117
310.00,0.157
311.00,0.219
312.00,0.293
313.00,0.391
314.00,0.507
315.00,0.649
316.00,0.839
317.00,1.033
318.00,1.257
319.00,1.543
320.00,1.845
321.00,2.187
322.00,2.561
323.00,2.992
324.00,3.439
325.00,3.888
326.00,4.336
327.00,4.855
328.00,5.351
329.00,5.895
330.00,6.429
331.00,6.956
332.00,7.512
333.00,8.105
334.00,8.633
335.00,9.158
336.00,9.665
337.00,10.223
338.00,10.698
339.00,11.201
340.00,11.694
341.00,12.177
342.00,12.580
343.00,12.955
344.00,13.410
345.00,13.784
346.00,14.107
347.00,14.405
348.00,14.670
349.00,14.994
350.00,15.221
351.00,15.491
352.00,15.687
353.00,15.897
354.00,16.085
355.00,16.258
356.00,16.400
357.00,16.562
358.00,16.643
359.00,16.842
360.00,16.972
361.00,16.995
362.00,17.084
363.00,17.153
364.00,17.181
365.00,17.203
366.00,17.228
367.00,17.291
368.00,17.296
369.00,17.300
370.00,17.313
371.00,17.297
372.00,17.247
373.00,17.287
374.00,17.234
375.00,17.137
376.00,17.095
377.00,17.029
378.00,16.924
379.00,16.863
380.00,16.829
381.00,16.781
382.00,16.774
383.00,16.756
384.00,16.736
385.00,16.710
386.00,16.694
387.00,16.712
388.00,16.732
389.00,16.711
390.00,16.707
391.00,16.681
392.00,16.705
393.00,16.609
394.00,16.661
395.00,16.605
396.00,16.624
397.00,16.628
398.00,16.584
399.00,16.601
400.00,16.581
401.00,16.531
402.00,16.580
403.00,16.583
404.00,16.474
405.00,16.528
406.00,16.464
407.00,16.452
408.00,16.440
409.00,16.401
410.00,16.331
411.00,16.369
412.00,16.318
413.00,16.325
414.00,16.338
415.00,16.326
416.00,16.343
417.00,16.314
418.00,16.343
419.00,16.431
420.00,16.450
421.00,16.382
422.00,16.381
423.00,16.407
424.00,16.469
425.00,16.485
426.00,16.518
427.00,16.570
428.00,16.594
429.00,16.643
430.00,16.683
431.00,16.721
432.00,16.736
433.00,16.816
434.00,16.829
435.00,16.922
436.00,16.998
437.00,17.044
438.00,17.117
439.00,17.172
440.00,17.267
441.00,17.375
442.00,17.403
443.00,17.450
444.00,17.567
445.00,17.613
446.00,17.719
447.00,17.781
448.00,17.893
449.00,17.985
450.00,18.101
451.00,18.174
452.00,18.295
453.00,18.378
454.00,18.483
455.00,18.601
456.00,18.694
457.00,18.826
458.00,18.901
459.00,19.054
460.00,19.153
461.00,19.295
462.00,19.409
463.00,19.544
464.00,19.662
465.00,19.806
466.00,19.945
467.00,20.063
468.00,20.151
469.00,20.269
470.00,20.367
471.00,20.470
472.00,20.630
473.00,20.735
474.00,20.842
475.00,20.978
476.00,21.093
477.00,21.264
478.00,21.335
479.00,21.567
480.00,21.634
481.00,21.824
482.00,21.960
483.00,22.122
484.00,22.282
485.00,22.468
486.00,22.623
487.00,22.742
488.00,22.903
489.00,23.066
490.00,23.226
491.00,23.381
492.00,23.540
493.00,23.786
494.00,23.922
495.00,23.939
496.00,24.032
497.00,24.179
498.00,24.339
499.00,24.545
500.00,24.650
501.00,24.771
502.00,24.948
503.00,25.062
504.00,25.126
505.00,25.316
506.00,25.461
507.00,25.573
508.00,25.700
509.00,25.859
510.00,25.997
511.00,26.072
512.00,26.293
513.00,26.439
514.00,26.507
515.00,26.667
516.00,26.817
517.00,26.872
518.00,27.060
519.00,27.122
520.00,27.194
521.00,27.328
522.00,27.472
523.00,27.508
524.00,27.628
525.00,27.776
526.00,27.883
527.00,27.970
528.00,28.059
529.00,28.260
530.00,28.414
531.00,28.494
532.00,28.531
533.00,28.666
534.00,28.812
535.00,28.859
536.00,28.942
537.00,29.053
538.00,29.145
539.00,29.233
540.00,29.294
541.00,29.385
542.00,29.422
543.00,29.474
544.00,29.579
545.00,29.657
546.00,29.683
547.00,29.865
548.00,29.942
549.00,29.990
550.00,30.066
551.00,30.211
552.00,30.257
553.00,30.292
554.00,30.391
555.00,30.446
556.00,30.513
557.00,30.599
558.00,30.638
559.00,30.713
560.00,30.821
561.00,30.918
562.00,30.948
563.00,30.957
564.00,31.063
565.00,31.078
566.00,31.111
567.00,31.161
568.00,31.229
569.00,31.312
570.00,31.367
571.00,31.379
572.00,31.420
573.00,31.401
574.00,31.471
575.00,31.501
576.00,31.504
577.00,31.560
578.00,31.666
579.00,31.744
580.00,31.774
581.00,31.944
582.00,32.019
583.00,32.006
584.00,32.137
585.00,32.206
586.00,32.201
587.00,32.294
588.00,32.328
589.00,32.279
590.00,32.393
591.00,32.446
592.00,32.448
593.00,32.469
594.00,32.546
595.00,32.652
596.00,32.735
597.00,32.781
598.00,32.884
599.00,32.880
600.00,32.936
601.00,33.005
602.00,32.988
603.00,33.088
604.00,33.140
605.00,33.175
606.00,33.293
607.00,33.378
608.00,33.415
609.00,33.364
610.00,33.473
611.00,33.711
612.00,33.535
613.00,33.586
614.00,33.670
615.00,33.735
616.00,33.853
617.00,33.851
618.00,33.867
619.00,34.000
620.00,33.978
621.00,34.060
622.00,34.194
623.00,34.248
624.00,34.357
625.00,34.424
626.00,34.426
627.00,34.526
628.00,34.559
629.00,34.645
630.00,34.762
631.00,34.780
632.00,34.948
633.00,35.013
634.00,35.097
635.00,35.166
636.00,35.262
637.00,35.345
638.00,35.397
639.00,35.510
640.00,35.579
641.00,35.665
642.00,35.768
643.00,35.895
644.00,36.016
645.00,35.995
646.00,36.210
647.00,36.271
648.00,36.280
649.00,36.464
650.00,36.487
651.00,36.600
652.00,36.660
653.00,36.749
654.00,36.849
655.00,37.157
656.00,37.357
657.00,37.299
658.00,37.371
659.00,37.438
660.00,37.597
661.00,37.669
662.00,37.781
663.00,37.953
664.00,38.235
665.00,38.421
666.00,38.376
667.00,38.444
668.00,38.562
669.00,38.886
670.00,39.038
671.00,39.009
672.00,39.209
673.00,39.142
674.00,39.358
675.00,39.462
676.00,39.542
677.00,39.909
678.00,39.891
679.00,39.979
680.00,40.088
681.00,40.199
682.00,40.258
683.00,40.323
684.00,40.583
685.00,40.673
686.00,40.685
687.00,40.917
688.00,40.903
689.00,40.906
690.00,41.301
691.00,41.590
692.00,41.340
693.00,41.522
694.00,41.676
695.00,41.839
696.00,41.955
697.00,41.928
698.00,42.020
699.00,42.380
700.00,42.573
701.00,42.479
702.00,42.618
703.00,42.860
704.00,42.924
705.00,42.811
706.00,42.991
707.00,42.940
708.00,43.186
709.00,43.883
710.00,43.955
711.00,43.601
712.00,43.644
713.00,43.895
714.00,44.003
715.00,44.080
716.00,44.212
717.00,44.105
718.00,44.371
719.00,44.478
720.00,44.502
721.00,48.805
722.00,48.971
723.00,48.906
724.00,48.976
725.00,49.021
726.00,49.108
727.00,49.160
728.00,49.247
729.00,49.296
730.00,49.439
731.00,49.416
732.00,49.494
733.00,49.548
734.00,49.615
735.00,49.707
736.00,49.759
737.00,49.844
738.00,49.936
739.00,49.934
740.00,50.016
741.00,50.079
742.00,50.216
743.00,50.185
744.00,50.210
745.00,50.272
746.00,50.322
747.00,50.357
748.00,50.311
749.00,50.428
750.00,50.449
751.00,50.439
752.00,50.532
753.00,50.530
754.00,50.556
755.00,50.669
756.00,50.625
757.00,50.696
758.00,50.760
759.00,50.834
760.00,50.807
761.00,50.873
762.00,50.925
763.00,50.969
764.00,51.039
765.00,51.016
766.00,51.013
767.00,51.051
768.00,51.131
769.00,51.202
770.00,51.229
771.00,51.217
772.00,51.312
773.00,51.292
774.00,51.349
775.00,51.357
776.00,51.320
777.00,51.370
778.00,51.429
779.00,51.407
780.00,51.448
781.00,51.487
782.00,51.528
783.00,51.459
784.00,51.518
785.00,51.511
786.00,51.603
787.00,51.584
788.00,51.589
789.00,51.570
790.00,51.530
791.00,51.736
792.00,51.619
793.00,51.604
794.00,51.619
795.00,51.671
796.00,51.671
797.00,51.541
798.00,51.603
799.00,51.557
800.00,51.560
801.00,51.682
802.00,51.620
803.00,51.687
804.00,51.563
805.00,51.705
806.00,51.658
807.00,51.689
808.00,51.690
809.00,51.687
810.00,51.689
811.00,51.663
812.00,51.665
813.00,51.652
814.00,51.770
815.00,51.635
816.00,51.658
817.00,51.647
818.00,51.600
819.00,51.636
820.00,51.581
821.00,51.615
822.00,51.634
823.00,51.523
824.00,51.639
825.00,51.583
826.00,51.572
827.00,51.589
828.00,51.676
829.00,51.661
830.00,51.638
831.00,54.304
832.00,54.349
833.00,54.276
834.00,54.302
835.00,54.306
836.00,54.301
837.00,54.259
838.00,54.271
839.00,54.249
840.00,54.208
841.00,54.286
842.00,54.260
843.00,54.278
844.00,54.243
845.00,54.177
846.00,54.305
847.00,54.157
848.00,54.397
849.00,54.103
850.00,54.113
851.00,54.088
852.00,54.140
853.00,54.049
854.00,54.059
855.00,54.017
856.00,54.049
857.00,54.028
858.00,53.993
859.00,53.982
860.00,53.985
861.00,54.021
862.00,53.866
863.00,54.042
864.00,53.963
865.00,53.974
866.00,53.940
867.00,53.943
868.00,53.917
869.00,53.901
870.00,53.965
871.00,53.923
872.00,53.943
873.00,53.908
874.00,53.976
875.00,53.870
876.00,53.952
877.00,53.876
878.00,53.950
879.00,53.887
880.00,53.904
881.00,53.860
882.00,53.937
883.00,53.864
884.00,53.813
885.00,53.817
886.00,53.846
887.00,53.794
888.00,53.781
889.00,53.792
890.00,53.782
891.00,53.752
892.00,53.732
893.00,53.698
894.00,53.726
895.00,53.701
896.00,53.683
897.00,53.688
898.00,53.647
899.00,53.680
900.00,53.639
901.00,53.621
902.00,53.664
903.00,53.636
904.00,53.609
905.00,53.597
906.00,53.583
907.00,53.740
908.00,53.536
909.00,53.547
910.00,53.493
911.00,53.516
912.00,53.476
913.00,53.469
914.00,53.460
915.00,53.466
916.00,53.405
917.00,53.423
918.00,53.405
919.00,53.388
920.00,53.358
921.00,53.376
922.00,53.362
923.00,53.351
924.00,53.254
925.00,53.299
926.00,53.281
927.00,53.267
928.00,53.195
929.00,53.281
930.00,53.204
931.00,53.229
932.00,53.164
933.00,53.213
934.00,53.153
935.00,53.111
936.00,53.103
937.00,53.111
938.00,53.095
939.00,53.116
940.00,53.061
941.00,53.073
942.00,53.065
943.00,53.058
944.00,53.005
945.00,53.033
946.00,53.023
947.00,52.920
948.00,52.969
949.00,52.927
950.00,52.916
951.00,52.891
952.00,52.880
953.00,52.851
954.00,52.862
955.00,52.796
956.00,52.816
957.00,52.742
958.00,52.776
959.00,52.713
960.00,52.719
961.00,52.732
962.00,52.691
963.00,52.627
964.00,52.678
965.00,52.691
966.00,52.644
967.00,52.668
968.00,52.606
969.00,52.654
970.00,52.613
971.00,52.631
972.00,52.585
973.00,52.652
974.00,52.665
975.00,52.600
976.00,52.665
977.00,52.708
978.00,52.708
979.00,52.668
980.00,52.671
981.00,52.693
982.00,52.624
983.00,52.679
984.00,52.636
985.00,52.660
986.00,52.633
987.00,52.658
988.00,52.612
989.00,52.615
990.00,52.624
991.00,52.601
992.00,52.623
993.00,52.575
994.00,52.554
995.00,52.558
996.00,52.526
997.00,52.538
998.00,52.512
999.00,52.529
1000.00,52.497
1001.00,52.483
1002.00,52.497
1003.00,52.463
1004.00,52.453
1005.00,52.416
1006.00,52.477
1007.00,52.432
1008.00,52.418
1009.00,52.424
1010.00,52.387
1011.00,52.398
1012.00,52.357
1013.00,52.380
1014.00,52.343
1015.00,52.363
1016.00,52.336
1017.00,52.319
1018.00,52.312
1019.00,52.278
1020.00,52.296
1021.00,52.265
1022.00,52.273
1023.00,52.215
1024.00,52.230
1025.00,52.262
1026.00,52.184
1027.00,52.167
1028.00,52.165
1029.00,52.147
1030.00,52.107
1031.00,52.140
1032.00,52.072
1033.00,52.099
1034.00,52.075
1035.00,52.034
1036.00,52.008
1037.00,51.966
1038.00,51.954
1039.00,51.940
1040.00,51.933
1041.00,51.907
1042.00,51.921
1043.00,51.898
1044.00,51.940
1045.00,51.904
1046.00,51.899
1047.00,51.940
1048.00,51.922
1049.00,51.947
1050.00,51.937
1051.00,51.995
1052.00,51.966
1053.00,51.984
1054.00,51.977
1055.00,52.017
1056.00,52.021
1057.00,52.012
1058.00,52.010
1059.00,52.002
1060.00,52.035
1061.00,52.005
1062.00,51.978
1063.00,51.987
1064.00,51.982
1065.00,51.931
1066.00,51.965
1067.00,51.952
1068.00,51.992
1069.00,51.957
1070.00,51.947
1071.00,51.940
1072.00,51.971
1073.00,51.907
1074.00,51.902
1075.00,51.900
1076.00,51.899
1077.00,51.891
1078.00,51.858
1079.00,51.876
1080.00,51.876
1081.00,51.860
1082.00,51.876
1083.00,51.871
1084.00,51.858
1085.00,51.882
1086.00,51.855
1087.00,51.840
1088.00,51.832
1089.00,51.840
1090.00,51.825
1091.00,51.852
1092.00,51.808
1093.00,51.810
1094.00,51.785
1095.00,51.784
1096.00,51.767
1097.00,51.785
1098.00,51.764
1099.00,51.768
1100.00,51.748
1101.00,51.754
1102.00,51.726
1103.00,51.733
1104.00,51.708
1105.00,51.710
1106.00,51.673
1107.00,51.685
1108.00,51.671
1109.00,51.663
1110.00,51.657
1111.00,51.650
1112.00,51.642
1113.00,51.653
1114.00,51.629
1115.00,51.646
1116.00,51.634
1117.00,51.619
1118.00,51.614
1119.00,51.636
1120.00,51.609
1121.00,51.629
1122.00,51.600
1123.00,51.585
1124.00,51.597
1125.00,51.594
1126.00,51.583
1127.00,51.596
1128.00,51.556
1129.00,51.567
1130.00,51.547
1131.00,51.544
1132.00,51.541
1133.00,51.541
1134.00,51.522
1135.00,51.526
1136.00,51.501
1137.00,51.524
1138.00,51.511
1139.00,51.499
1140.00,51.494
1141.00,51.514
1142.00,51.486
1143.00,51.518
1144.00,51.500
1145.00,51.485
1146.00,51.477
1147.00,51.477
1148.00,51.455
1149.00,51.481
1150.00,51.462
1151.00,51.475
1152.00,51.471
1153.00,51.458
1154.00,51.457
1155.00,51.467
1156.00,51.444
1157.00,51.484
1158.00,51.472
1159.00,51.481
1160.00,51.463
1161.00,51.484
1162.00,51.494
1163.00,51.462
1164.00,51.468
1165.00,51.466
1166.00,51.469
1167.00,51.443
1168.00,51.481
1169.00,51.447
1170.00,51.446
1171.00,51.447
1172.00,51.427
1173.00,51.442
1174.00,51.459
1175.00,51.443
1176.00,51.453
1177.00,51.425
1178.00,51.436
1179.00,51.454
1180.00,51.421
1181.00,51.463
1182.00,51.436
1183.00,51.429
1184.00,51.430
1185.00,51.446
1186.00,51.421
1187.00,51.431
1188.00,51.442
1189.00,51.420
1190.00,51.421
1191.00,51.406
1192.00,51.451
1193.00,51.432
1194.00,51.417
1195.00,51.398
1196.00,51.426
1197.00,51.420
1198.00,51.410
1199.00,51.415
1200.00,51.419
1201.00,51.448
1202.00,51.417
1203.00,51.421
1204.00,51.414
1205.00,51.430
1206.00,51.435
1207.00,51.417
1208.00,51.401
1209.00,51.428
1210.00,51.421
1211.00,51.421
1212.00,51.454
1213.00,51.395
1214.00,51.432
1215.00,51.415
1216.00,51.416
1217.00,51.411
1218.00,51.401
1219.00,51.428
1220.00,51.401
1221.00,51.425
1222.00,51.417
1223.00,51.455
1224.00,51.431
1225.00,51.406
1226.00,51.416
1227.00,51.404
1228.00,51.441
1229.00,51.432
1230.00,51.468
1231.00,51.462
1232.00,51.465
1233.00,51.471
1234.00,51.493
1235.00,51.476
1236.00,51.466
1237.00,51.489
1238.00,51.457
1239.00,51.483
1240.00,51.460
1241.00,51.473
1242.00,51.486
1243.00,51.485
1244.00,51.470
1245.00,51.508
1246.00,51.502
1247.00,51.491
1248.00,51.498
1249.00,51.503
1250.00,51.515
1251.00,51.505
1252.00,51.509
1253.00,51.504
1254.00,51.528
1255.00,51.510
1256.00,51.523
1257.00,51.514
1258.00,51.549
1259.00,51.538
1260.00,51.560
1261.00,51.549
1262.00,51.538
1263.00,51.528
1264.00,51.550
1265.00,51.562
1266.00,51.538
1267.00,51.581
1268.00,51.561
1269.00,51.591
1270.00,51.619
1271.00,51.603
1272.00,51.609
1273.00,51.625
1274.00,51.618
1275.00,51.651
1276.00,51.623
1277.00,51.625
1278.00,51.648
1279.00,51.638
1280.00,51.613
1281.00,51.649
1282.00,51.646
1283.00,51.671
1284.00,51.646
1285.00,51.649
1286.00,51.675
1287.00,51.669
1288.00,51.677
1289.00,51.671
1290.00,51.702
1291.00,51.689
1292.00,51.694
1293.00,51.685
1294.00,51.704
1295.00,51.739
1296.00,51.719
1297.00,51.732
1298.00,51.775
1299.00,51.718
1300.00,51.761
1301.00,51.721
1302.00,51.769
1303.00,51.765
1304.00,51.729
1305.00,51.781
1306.00,51.781
1307.00,51.782
1308.00,51.796
1309.00,51.797
1310.00,51.778
1311.00,51.763
1312.00,51.777
1313.00,51.803
1314.00,51.822
1315.00,51.815
1316.00,51.827
1317.00,51.859
1318.00,51.840
1319.00,51.867
1320.00,51.827
1321.00,52.039
1322.00,52.017
1323.00,52.002
1324.00,51.993
1325.00,51.983
1326.00,51.999
1327.00,51.983
1328.00,51.983
1329.00,51.965
1330.00,51.997
1331.00,51.987
1332.00,51.955
1333.00,51.983
1334.00,51.999
1335.00,52.010
1336.00,52.052
1337.00,52.056
1338.00,52.147
1339.00,52.171
1340.00,52.239
1341.00,52.327
1342.00,52.385
1343.00,52.405
1344.00,52.473
1345.00,52.535
1346.00,52.560
1347.00,52.559
1348.00,52.619
1349.00,52.605
1350.00,52.645
1351.00,52.643
1352.00,52.688
1353.00,52.598
1354.00,52.656
1355.00,52.628
1356.00,52.666
1357.00,52.705
1358.00,52.718
1359.00,52.695
1360.00,52.685
1361.00,52.710
1362.00,52.673
1363.00,52.767
1364.00,52.834
1365.00,52.725
1366.00,52.792
1367.00,52.726
1368.00,52.654
1369.00,52.900
1370.00,52.613
1371.00,52.827
1372.00,52.723
1373.00,52.709
1374.00,52.704
1375.00,52.661
1376.00,52.674
1377.00,52.625
1378.00,52.760
1379.00,52.675
1380.00,52.725
1381.00,52.737
1382.00,52.654
1383.00,52.739
1384.00,52.626
1385.00,52.644
1386.00,52.689
1387.00,52.712
1388.00,52.595
1389.00,52.666
1390.00,52.618
1391.00,52.670
1392.00,52.645
1393.00,52.694
1394.00,52.699
1395.00,52.580
1396.00,52.569
1397.00,52.624
1398.00,52.655
1399.00,52.654
1400.00,52.692
1401.00,52.608
1402.00,52.714
1403.00,52.662
1404.00,52.681
1405.00,52.692
1406.00,52.698
1407.00,52.680
1408.00,52.731
1409.00,52.680
1410.00,52.733
1411.00,52.683
1412.00,52.822
1413.00,52.725
1414.00,52.664
1415.00,52.731
1416.00,52.801
1417.00,52.827
1418.00,52.754
1419.00,52.795
1420.00,52.800
1421.00,52.878
1422.00,52.837
1423.00,52.863
1424.00,52.856
1425.00,52.882
1426.00,52.888
1427.00,52.926
1428.00,52.892
1429.00,52.916
1430.00,52.944
1431.00,52.927
1432.00,52.941
1433.00,52.960
1434.00,52.926
1435.00,53.024
1436.00,52.990
1437.00,52.976
1438.00,52.992
1439.00,53.030
1440.00,53.063
1441.00,53.050
1442.00,53.053
1443.00,53.117
1444.00,53.207
1445.00,53.115
1446.00,53.146
1447.00,53.154
1448.00,53.219
1449.00,53.202
1450.00,53.197
1451.00,53.209
1452.00,53.238
1453.00,53.242
1454.00,53.269
1455.00,53.279
1456.00,53.299
1457.00,53.291
1458.00,53.320
1459.00,53.338
1460.00,53.362
1461.00,53.340
1462.00,53.397
1463.00,53.389
1464.00,53.398
1465.00,53.421
1466.00,53.417
1467.00,53.442
1468.00,53.519
1469.00,53.464
1470.00,53.496
1471.00,53.500
1472.00,53.511
1473.00,53.536
1474.00,53.561
1475.00,53.581
1476.00,53.597
1477.00,53.571
1478.00,53.584
1479.00,53.605
1480.00,53.582
1481.00,53.601
1482.00,53.627
1483.00,53.631
1484.00,53.654
1485.00,53.656
1486.00,53.677
1487.00,53.690
1488.00,53.719
1489.00,53.692
1490.00,53.720
1491.00,53.703
1492.00,53.723
1493.00,53.734
1494.00,53.743
1495.00,53.754
1496.00,53.811
1497.00,53.742
1498.00,53.767
1499.00,53.778
1500.00,53.783
1501.00, 
1502.00, 
1503.00, 
1504.00, 
1505.00, 
1506.00, 
1507.00, 
1508.00, 
1509.00, 
1510.00, 
1511.00, 
1512.00, 
1513.00, 
1514.00, 
1515.00, 
1516.00, 
1517.00, 
1518.00, 
1519.00, 
1520.00, 
1521.00, 
1522.00, 
1523.00, 
1524.00, 
1525.00, 
1526.00, 
1527.00, 
1528.00, 
1529.00, 
1530.00, 
1531.00, 
1532.00, 
1533.00, 
1534.00, 
1535.00, 
1536.00, 
1537.00, 
1538.00, 
1539.00, 
1540.00, 
1541.00, 
1542.00, 
1543.00, 
1544.00, 
1545.00, 
1546.00, 
1547.00, 
1548.00, 
1549.00, 
1550.00, 
1551.00, 
1552.00, 
1553.00, 
1554.00, 
1555.00, 
1556.00, 
1557.00, 
1558.00, 
1559.00, 
1560.00, 
1561.00, 
1562.00, 
1563.00, 
1564.00, 
1565.00, 
1566.00, 
1567.00, 
1568.00, 
1569.00, 
1570.00, 
1571.00, 
1572.00, 
1573.00, 
1574.00, 
1575.00, 
1576.00, 
1577.00, 
1578.00, 
1579.00, 
1580.00, 
1581.00, 
1582.00, 
1583.00, 
1584.00, 
1585.00, 
1586.00, 
1587.00, 
1588.00, 
1589.00, 
1590.00, 
1591.00, 
1592.00, 
1593.00, 
1594.00, 
1595.00, 
1596.00, 
1597.00, 
1598.00, 
1599.00, 
1600.00, 
1601.00, 
1602.00, 
1603.00, 
1604.00, 
1605.00, 
1606.00, 
1607.00, 
1608.00, 
1609.00, 
1610.00, 
1611.00, 
1612.00, 
1613.00, 
1614.00, 
1615.00, 
1616.00, 
1617.00, 
1618.00, 
1619.00, 
1620.00, 
1621.00, 
1622.00, 
1623.00, 
1624.00, 
1625.00, 
1626.00, 
1627.00, 
1628.00, 
1629.00, 
1630.00, 
1631.00, 
1632.00, 
1633.00, 
1634.00, 
1635.00, 
1636.00, 
1637.00, 
1638.00, 
1639.00, 
1640.00, 
1641.00, 
1642.00, 
1643.00, 
1644.00, 
1645.00, 
1646.00, 
1647.00, 
1648.00, 
1649.00, 
1650.00, 
1651.00, 
1652.00, 
1653.00, 
1654.00, 
1655.00, 
1656.00, 
1657.00, 
1658.00, 
1659.00, 
1660.00, 
1661.00, 
1662.00, 
1663.00, 
1664.00, 
1665.00, 
1666.00, 
1667.00, 
1668.00, 
1669.00, 
1670.00, 
1671.00, 
1672.00, 
1673.00, 
1674.00, 
1675.00, 
1676.00, 
1677.00, 
1678.00, 
1679.00, 
1680.00, 
1681.00, 
1682.00, 
1683.00, 
1684.00, 
1685.00, 
1686.00, 
1687.00, 
1688.00, 
1689.00, 
1690.00, 
1691.00, 
1692.00, 
1693.00, 
1694.00, 
1695.00, 
1696.00, 
1697.00, 
1698.00, 
1699.00, 
1700.00, 
1701.00, 
1702.00, 
1703.00, 
1704.00, 
1705.00, 
1706.00, 
1707.00, 
1708.00, 
1709.00, 
1710.00, 
1711.00, 
1712.00, 
1713.00, 
1714.00, 
1715.00, 
1716.00, 
1717.00, 
1718.00, 
1719.00, 
1720.00, 
1721.00, 
1722.00, 
1723.00, 
1724.00, 
1725.00, 
1726.00, 
1727.00, 
1728.00, 
1729.00, 
1730.00, 
1731.00, 
1732.00, 
1733.00, 
1734.00, 
1735.00, 
1736.00, 
1737.00, 
1738.00, 
1739.00, 
1740.00, 
1741.00, 
1742.00, 
1743.00, 
1744.00, 
1745.00, 
1746.00, 
1747.00, 
1748.00, 
1749.00, 
1750.00, 
1751.00, 
1752.00, 
1753.00, 
1754.00, 
1755.00, 
1756.00, 
1757.00, 
1758.00, 
1759.00, 
1760.00, 
1761.00, 
1762.00, 
1763.00, 
1764.00, 
1765.00, 
1766.00, 
1767.00, 
1768.00, 
1769.00, 
1770.00, 
1771.00, 
1772.00, 
1773.00, 
1774.00, 
1775.00, 
1776.00, 
1777.00, 
1778.00, 
1779.00, 
1780.00, 
1781.00, 
1782.00, 
1783.00, 
1784.00, 
1785.00, 
1786.00, 
1787.00, 
1788.00, 
1789.00, 
1790.00, 
1791.00, 
1792.00, 
1793.00, 
1794.00, 
1795.00, 
1796.00, 
1797.00, 
1798.00, 
1799.00, 
1800.00, 
1801.00, 
1802.00, 
1803.00, 
1804.00, 
1805.00, 
1806.00, 
1807.00, 
1808.00, 
1809.00, 
1810.00, 
1811.00, 
1812.00, 
1813.00, 
1814.00, 
1815.00, 
1816.00, 
1817.00, 
1818.00, 
1819.00, 
1820.00, 
1821.00, 
1822.00, 
1823.00, 
1824.00, 
1825.00, 
1826.00, 
1827.00, 
1828.00, 
1829.00, 
1830.00, 
1831.00, 
1832.00, 
1833.00, 
1834.00, 
1835.00, 
1836.00, 
1837.00, 
1838.00, 
1839.00, 
1840.00, 
1841.00, 
1842.00, 
1843.00, 
1844.00, 
1845.00, 
1846.00, 
1847.00, 
1848.00, 
1849.00, 
1850.00, 
1851.00, 
1852.00, 
1853.00, 
1854.00, 
1855.00, 
1856.00, 
1857.00, 
1858.00, 
1859.00, 
1860.00, 
1861.00, 
1862.00, 
1863.00, 
1864.00, 
1865.00, 
1866.00, 
1867.00, 
1868.00, 
1869.00, 
1870.00, 
1871.00, 
1872.00, 
1873.00, 
1874.00, 
1875.00, 
1876.00, 
1877.00, 
1878.00, 
1879.00, 
1880.00, 
1881.00, 
1882.00, 
1883.00, 
1884.00, 
1885.00, 
1886.00, 
1887.00, 
1888.00, 
1889.00, 
1890.00, 
1891.00, 
1892.00, 
1893.00, 
1894.00, 
1895.00, 
1896.00, 
1897.00, 
1898.00, 
1899.00, 
1900.00, 
1901.00, 
1902.00, 
1903.00, 
1904.00, 
1905.00, 
1906.00, 
1907.00, 
1908.00, 
1909.00, 
1910.00, 
1911.00, 
1912.00, 
1913.00, 
1914.00, 
1915.00, 
1916.00, 
1917.00, 
1918.00, 
1919.00, 
1920.00, 
1921.00, 
1922.00, 
1923.00, 
1924.00, 
1925.00, 
1926.00, 
1927.00, 
1928.00, 
1929.00, 
1930.00, 
1931.00, 
1932.00, 
1933.00, 
1934.00, 
1935.00, 
1936.00, 
1937.00, 
1938.00, 
1939.00, 
1940.00, 
1941.00, 
1942.00, 
1943.00, 
1944.00, 
1945.00, 
1946.00, 
1947.00, 
1948.00, 
1949.00, 
1950.00, 
1951.00, 
1952.00, 
1953.00, 
1954.00, 
1955.00, 
1956.00, 
1957.00, 
1958.00, 
1959.00, 
1960.00, 
1961.00, 
1962.00, 
1963.00, 
1964.00, 
1965.00, 
1966.00, 
1967.00, 
1968.00, 
1969.00, 
1970.00, 
1971.00, 
1972.00, 
1973.00, 
1974.00, 
1975.00, 
1976.00, 
1977.00, 
1978.00, 
1979.00, 
1980.00, 
1981.00, 
1982.00, 
1983.00, 
1984.00, 
1985.00, 
1986.00, 
1987.00, 
1988.00, 
1989.00, 
1990.00, 
1991.00, 
1992.00, 
1993.00, 
1994.00, 
1995.00, 
1996.00, 
1997.00, 
1998.00, 
1999.00, 
2000.00, 
2001.00, 
2002.00, 
2003.00, 
2004.00, 
2005.00, 
2006.00, 
2007.00, 
2008.00, 
2009.00, 
2010.00, 
2011.00, 
2012.00, 
2013.00, 
2014.00, 
2015.00, 
2016.00, 
2017.00, 
2018.00, 
2019.00, 
2020.00, 
2021.00, 
2022.00, 
2023.00, 
2024.00, 
2025.00, 
2026.00, 
2027.00, 
2028.00, 
2029.00, 
2030.00, 
2031.00, 
2032.00, 
2033.00, 
2034.00, 
2035.00, 
2036.00, 
2037.00, 
2038.00, 
2039.00, 
2040.00, 
2041.00, 
2042.00, 
2043.00, 
2044.00, 
2045.00, 
2046.00, 
2047.00, 
2048.00, 
2049.00, 
2050.00, 
2051.00, 
2052.00, 
2053.00, 
2054.00, 
2055.00, 
2056.00, 
2057.00, 
2058.00, 
2059.00, 
2060.00, 
2061.00, 
2062.00, 
2063.00, 
2064.00, 
2065.00, 
2066.00, 
2067.00, 
2068.00, 
2069.00, 
2070.00, 
2071.00, 
2072.00, 
2073.00, 
2074.00, 
2075.00, 
2076.00, 
2077.00, 
2078.00, 
2079.00, 
2080.00, 
2081.00, 
2082.00, 
2083.00, 
2084.00, 
2085.00, 
2086.00, 
2087.00, 
2088.00, 
2089.00, 
2090.00, 
2091.00, 
2092.00, 
2093.00, 
2094.00, 
2095.00, 
2096.00, 
2097.00, 
2098.00, 
2099.00, 
2100.00, 
2101.00, 
2102.00, 
2103.00, 
2104.00, 
2105.00, 
2106.00, 
2107.00, 
2108.00, 
2109.00, 
2110.00, 
2111.00, 
2112.00, 
2113.00, 
2114.00, 
2115.00, 
2116.00, 
2117.00, 
2118.00, 
2119.00, 
2120.00, 
2121.00, 
2122.00, 
2123.00, 
2124.00, 
2125.00, 
2126.00, 
2127.00, 
2128.00, 
2129.00, 
2130.00, 
2131.00, 
2132.00, 
2133.00, 
2134.00, 
2135.00, 
2136.00, 
2137.00, 
2138.00, 
2139.00, 
2140.00, 
2141.00, 
2142.00, 
2143.00, 
2144.00, 
2145.00, 
2146.00, 
2147.00, 
2148.00, 
2149.00, 
2150.00, 
2151.00, 
2152.00, 
2153.00, 
2154.00, 
2155.00, 
2156.00, 
2157.00, 
2158.00, 
2159.00, 
2160.00, 
2161.00, 
2162.00, 
2163.00, 
2164.00, 
2165.00, 
2166.00, 
2167.00, 
2168.00, 
2169.00, 
2170.00, 
2171.00, 
2172.00, 
2173.00, 
2174.00, 
2175.00, 
2176.00, 
2177.00, 
2178.00, 
2179.00, 
2180.00, 
2181.00, 
2182.00, 
2183.00, 
2184.00, 
2185.00, 
2186.00, 
2187.00, 
2188.00, 
2189.00, 
2190.00, 
2191.00, 
2192.00, 
2193.00, 
2194.00, 
2195.00, 
2196.00, 
2197.00, 
2198.00, 
2199.00, 
2200.00, 
2201.00, 
2202.00, 
2203.00, 
2204.00, 
2205.00, 
2206.00, 
2207.00, 
2208.00, 
2209.00, 
2210.00, 
2211.00, 
2212.00, 
2213.00, 
2214.00, 
2215.00, 
2216.00, 
2217.00, 
2218.00, 
2219.00, 
2220.00, 
2221.00, 
2222.00, 
2223.00, 
2224.00, 
2225.00, 
2226.00, 
2227.00, 
2228.00, 
2229.00, 
2230.00, 
2231.00, 
2232.00, 
2233.00, 
2234.00, 
2235.00, 
2236.00, 
2237.00, 
2238.00, 
2239.00, 
2240.00, 
2241.00, 
2242.00, 
2243.00, 
2244.00, 
2245.00, 
2246.00, 
2247.00, 
2248.00, 
2249.00, 
2250.00, 
2251.00, 
2252.00, 
2253.00, 
2254.00, 
2255.00, 
2256.00, 
2257.00, 
2258.00, 
2259.00, 
2260.00, 
2261.00, 
2262.00, 
2263.00, 
2264.00, 
2265.00, 
2266.00, 
2267.00, 
2268.00, 
2269.00, 
2270.00, 
2271.00, 
2272.00, 
2273.00, 
2274.00, 
2275.00, 
2276.00, 
2277.00, 
2278.00, 
2279.00, 
2280.00, 
2281.00, 
2282.00, 
2283.00, 
2284.00, 
2285.00, 
2286.00, 
2287.00, 
2288.00, 
2289.00, 
2290.00, 
2291.00, 
2292.00, 
2293.00, 
2294.00, 
2295.00, 
2296.00, 
2297.00, 
2298.00, 
2299.00, 
2300.00, 
2301.00, 
2302.00, 
2303.00, 
2304.00, 
2305.00, 
2306.00, 
2307.00, 
2308.00, 
2309.00, 
2310.00, 
2311.00, 
2312.00, 
2313.00, 
2314.00, 
2315.00, 
2316.00, 
2317.00, 
2318.00, 
2319.00, 
2320.00, 
2321.00, 
2322.00, 
2323.00, 
2324.00, 
2325.00, 
2326.00, 
2327.00, 
2328.00, 
2329.00, 
2330.00, 
2331.00, 
2332.00, 
2333.00, 
2334.00, 
2335.00, 
2336.00, 
2337.00, 
2338.00, 
2339.00, 
2340.00, 
2341.00, 
2342.00, 
2343.00, 
2344.00, 
2345.00, 
2346.00, 
2347.00, 
2348.00, 
2349.00, 
2350.00, 
2351.00, 
2352.00, 
2353.00, 
2354.00, 
2355.00, 
2356.00, 
2357.00, 
2358.00, 
2359.00, 
2360.00, 
2361.00, 
2362.00, 
2363.00, 
2364.00, 
2365.00, 
2366.00, 
2367.00, 
2368.00, 
2369.00, 
2370.00, 
2371.00, 
2372.00, 
2373.00, 
2374.00, 
2375.00, 
2376.00, 
2377.00, 
2378.00, 
2379.00, 
2380.00, 
2381.00, 
2382.00, 
2383.00, 
2384.00, 
2385.00, 
2386.00, 
2387.00, 
2388.00, 
2389.00, 
2390.00, 
2391.00, 
2392.00, 
2393.00, 
2394.00, 
2395.00, 
2396.00, 
2397.00, 
2398.00, 
2399.00, 
2400.00, 
2401.00, 
2402.00, 
2403.00, 
2404.00, 
2405.00, 
2406.00, 
2407.00, 
2408.00, 
2409.00, 
2410.00, 
2411.00, 
2412.00, 
2413.00, 
2414.00, 
2415.00, 
2416.00, 
2417.00, 
2418.00, 
2419.00, 
2420.00, 
2421.00, 
2422.00, 
2423.00, 
2424.00, 
2425.00, 
2426.00, 
2427.00, 
2428.00, 
2429.00, 
2430.00, 
2431.00, 
2432.00, 
2433.00, 
2434.00, 
2435.00, 
2436.00, 
2437.00, 
2438.00, 
2439.00, 
2440.00, 
2441.00, 
2442.00, 
2443.00, 
2444.00, 
2445.00, 
2446.00, 
2447.00, 
2448.00, 
2449.00, 
2450.00, 
2451.00, 
2452.00, 
2453.00, 
2454.00, 
2455.00, 
2456.00, 
2457.00, 
2458.00, 
2459.00, 
2460.00, 
2461.00, 
2462.00, 
2463.00, 
2464.00, 
2465.00, 
2466.00, 
2467.00, 
2468.00, 
2469.00, 
2470.00, 
2471.00, 
2472.00, 
2473.00, 
2474.00, 
2475.00, 
2476.00, 
2477.00, 
2478.00, 
2479.00, 
2480.00, 
2481.00, 
2482.00, 
2483.00, 
2484.00, 
2485.00, 
2486.00, 
2487.00, 
2488.00, 
2489.00, 
2490.00, 
2491.00, 
2492.00, 
2493.00, 
2494.00, 
2495.00, 
2496.00, 
2497.00, 
2498.00, 
2499.00, 
2500.00, 
2501.00, 
2502.00, 
2503.00, 
2504.00, 
2505.00, 
2506.00, 
2507.00, 
2508.00, 
2509.00, 
2510.00, 
2511.00, 
2512.00, 
2513.00, 
2514.00, 
2515.00, 
2516.00, 
2517.00, 
2518.00, 
2519.00, 
2520.00, 
2521.00, 
2522.00, 
2523.00, 
2524.00, 
2525.00, 
2526.00, 
2527.00, 
2528.00, 
2529.00, 
2530.00, 
2531.00, 
2532.00, 
2533.00, 
2534.00, 
2535.00, 
2536.00, 
2537.00, 
2538.00, 
2539.00, 
2540.00, 
2541.00, 
2542.00, 
2543.00, 
2544.00, 
2545.00, 
2546.00, 
2547.00, 
2548.00, 
2549.00, 
2550.00, 
2551.00, 
2552.00, 
2553.00, 
2554.00, 
2555.00, 
2556.00, 
2557.00, 
2558.00, 
2559.00, 
2560.00, 
2561.00, 
2562.00, 
2563.00, 
2564.00, 
2565.00, 
2566.00, 
2567.00, 
2568.00, 
2569.00, 
2570.00, 
2571.00, 
2572.00, 
2573.00, 
2574.00, 
2575.00, 
2576.00, 
2577.00, 
2578.00, 
2579.00, 
2580.00, 
2581.00, 
2582.00, 
2583.00, 
2584.00, 
2585.00, 
2586.00, 
2587.00, 
2588.00, 
2589.00, 
2590.00, 
2591.00, 
2592.00, 
2593.00, 
2594.00, 
2595.00, 
2596.00, 
2597.00, 
2598.00, 
2599.00, 
2600.00, 
