"2aP2 - RawData"
"Wavelength nm.","T%"
200.00,0.001
201.00,-0.000
202.00,0.000
203.00,0.002
204.00,0.003
205.00,-0.002
206.00,0.001
207.00,0.005
208.00,-0.000
209.00,0.002
210.00,0.003
211.00,0.001
212.00,0.001
213.00,0.002
214.00,0.002
215.00,-0.001
216.00,0.002
217.00,0.001
218.00,0.002
219.00,0.000
220.00,0.005
221.00,0.001
222.00,0.001
223.00,0.000
224.00,0.001
225.00,-0.000
226.00,-0.000
227.00,-0.000
228.00,-0.000
229.00,0.002
230.00,0.000
231.00,0.002
232.00,0.000
233.00,0.002
234.00,0.003
235.00,0.002
236.00,0.001
237.00,0.001
238.00,0.002
239.00,0.002
240.00,0.002
241.00,0.002
242.00,0.000
243.00,0.000
244.00,0.000
245.00,0.001
246.00,0.002
247.00,0.000
248.00,0.000
249.00,0.000
250.00,0.001
251.00,0.001
252.00,0.000
253.00,0.001
254.00,0.000
255.00,-0.001
256.00,0.001
257.00,0.001
258.00,0.002
259.00,0.000
260.00,0.000
261.00,0.000
262.00,-0.001
263.00,0.001
264.00,0.001
265.00,0.000
266.00,-0.002
267.00,0.001
268.00,0.001
269.00,0.000
270.00,-0.001
271.00,-0.001
272.00,-0.000
273.00,0.002
274.00,-0.001
275.00,0.000
276.00,-0.000
277.00,0.000
278.00,0.000
279.00,0.002
280.00,0.001
281.00,-0.001
282.00,0.001
283.00,-0.000
284.00,-0.000
285.00,0.000
286.00,0.002
287.00,0.001
288.00,0.001
289.00,0.001
290.00,-0.001
291.00,-0.001
292.00,0.001
293.00,0.001
294.00,0.001
295.00,-0.000
296.00,0.000
297.00,0.000
298.00,0.000
299.00,-0.001
300.00,0.001
301.00,0.002
302.00,0.001
303.00,0.004
304.00,0.006
305.00,0.008
306.00,0.012
307.00,0.020
308.00,0.033
309.00,0.049
310.00,0.069
311.00,0.090
312.00,0.123
313.00,0.162
314.00,0.211
315.00,0.277
316.00,0.350
317.00,0.444
318.00,0.543
319.00,0.656
320.00,0.802
321.00,0.961
322.00,1.132
323.00,1.329
324.00,1.527
325.00,1.734
326.00,1.947
327.00,2.204
328.00,2.462
329.00,2.689
330.00,2.957
331.00,3.241
332.00,3.503
333.00,3.784
334.00,4.045
335.00,4.311
336.00,4.603
337.00,4.877
338.00,5.126
339.00,5.386
340.00,5.630
341.00,5.861
342.00,6.082
343.00,6.303
344.00,6.522
345.00,6.710
346.00,6.856
347.00,7.044
348.00,7.185
349.00,7.360
350.00,7.498
351.00,7.617
352.00,7.708
353.00,7.823
354.00,7.916
355.00,7.992
356.00,8.085
357.00,8.140
358.00,8.205
359.00,8.294
360.00,8.337
361.00,8.374
362.00,8.405
363.00,8.441
364.00,8.469
365.00,8.452
366.00,8.461
367.00,8.459
368.00,8.470
369.00,8.469
370.00,8.455
371.00,8.437
372.00,8.395
373.00,8.415
374.00,8.391
375.00,8.328
376.00,8.299
377.00,8.256
378.00,8.193
379.00,8.129
380.00,8.122
381.00,8.087
382.00,8.056
383.00,8.045
384.00,8.007
385.00,8.006
386.00,7.964
387.00,7.974
388.00,7.970
389.00,7.935
390.00,7.932
391.00,7.892
392.00,7.892
393.00,7.868
394.00,7.849
395.00,7.850
396.00,7.808
397.00,7.809
398.00,7.791
399.00,7.781
400.00,7.768
401.00,7.734
402.00,7.767
403.00,7.743
404.00,7.712
405.00,7.707
406.00,7.679
407.00,7.659
408.00,7.657
409.00,7.625
410.00,7.606
411.00,7.612
412.00,7.588
413.00,7.587
414.00,7.581
415.00,7.585
416.00,7.603
417.00,7.602
418.00,7.608
419.00,7.641
420.00,7.670
421.00,7.643
422.00,7.655
423.00,7.657
424.00,7.693
425.00,7.705
426.00,7.736
427.00,7.764
428.00,7.785
429.00,7.813
430.00,7.848
431.00,7.888
432.00,7.918
433.00,7.957
434.00,8.001
435.00,8.040
436.00,8.084
437.00,8.139
438.00,8.173
439.00,8.209
440.00,8.296
441.00,8.348
442.00,8.400
443.00,8.444
444.00,8.529
445.00,8.588
446.00,8.645
447.00,8.712
448.00,8.796
449.00,8.856
450.00,8.950
451.00,9.020
452.00,9.104
453.00,9.196
454.00,9.273
455.00,9.350
456.00,9.440
457.00,9.528
458.00,9.601
459.00,9.727
460.00,9.820
461.00,9.915
462.00,10.008
463.00,10.110
464.00,10.222
465.00,10.332
466.00,10.452
467.00,10.548
468.00,10.627
469.00,10.755
470.00,10.869
471.00,10.909
472.00,11.061
473.00,11.165
474.00,11.264
475.00,11.380
476.00,11.505
477.00,11.618
478.00,11.732
479.00,11.880
480.00,11.987
481.00,12.112
482.00,12.245
483.00,12.388
484.00,12.497
485.00,12.653
486.00,12.764
487.00,12.921
488.00,13.065
489.00,13.211
490.00,13.372
491.00,13.491
492.00,13.634
493.00,13.807
494.00,13.969
495.00,13.979
496.00,14.140
497.00,14.271
498.00,14.425
499.00,14.567
500.00,14.698
501.00,14.803
502.00,14.978
503.00,15.106
504.00,15.191
505.00,15.341
506.00,15.483
507.00,15.587
508.00,15.730
509.00,15.896
510.00,16.002
511.00,16.079
512.00,16.310
513.00,16.405
514.00,16.542
515.00,16.708
516.00,16.837
517.00,16.906
518.00,17.080
519.00,17.164
520.00,17.273
521.00,17.418
522.00,17.515
523.00,17.587
524.00,17.733
525.00,17.835
526.00,17.945
527.00,18.030
528.00,18.158
529.00,18.307
530.00,18.450
531.00,18.558
532.00,18.637
533.00,18.773
534.00,18.871
535.00,18.964
536.00,19.075
537.00,19.153
538.00,19.257
539.00,19.341
540.00,19.436
541.00,19.504
542.00,19.596
543.00,19.671
544.00,19.778
545.00,19.852
546.00,19.916
547.00,20.059
548.00,20.167
549.00,20.210
550.00,20.306
551.00,20.424
552.00,20.493
553.00,20.553
554.00,20.645
555.00,20.720
556.00,20.793
557.00,20.864
558.00,20.936
559.00,21.032
560.00,21.084
561.00,21.174
562.00,21.254
563.00,21.282
564.00,21.367
565.00,21.419
566.00,21.475
567.00,21.540
568.00,21.583
569.00,21.682
570.00,21.729
571.00,21.795
572.00,21.855
573.00,21.863
574.00,21.917
575.00,21.957
576.00,21.988
577.00,22.052
578.00,22.151
579.00,22.225
580.00,22.291
581.00,22.412
582.00,22.502
583.00,22.517
584.00,22.618
585.00,22.684
586.00,22.730
587.00,22.810
588.00,22.846
589.00,22.831
590.00,22.940
591.00,23.025
592.00,23.047
593.00,23.074
594.00,23.148
595.00,23.258
596.00,23.310
597.00,23.411
598.00,23.493
599.00,23.488
600.00,23.530
601.00,23.644
602.00,23.683
603.00,23.736
604.00,23.823
605.00,23.888
606.00,24.015
607.00,24.070
608.00,24.126
609.00,24.142
610.00,24.257
611.00,24.456
612.00,24.327
613.00,24.442
614.00,24.484
615.00,24.594
616.00,24.698
617.00,24.722
618.00,24.799
619.00,24.884
620.00,24.908
621.00,25.004
622.00,25.120
623.00,25.161
624.00,25.335
625.00,25.426
626.00,25.451
627.00,25.514
628.00,25.669
629.00,25.761
630.00,25.846
631.00,25.921
632.00,26.055
633.00,26.179
634.00,26.312
635.00,26.408
636.00,26.518
637.00,26.595
638.00,26.670
639.00,26.843
640.00,26.938
641.00,27.000
642.00,27.094
643.00,27.260
644.00,27.407
645.00,27.468
646.00,27.740
647.00,27.846
648.00,27.931
649.00,28.035
650.00,28.153
651.00,28.392
652.00,28.478
653.00,28.566
654.00,28.692
655.00,28.955
656.00,29.170
657.00,29.181
658.00,29.257
659.00,29.299
660.00,29.547
661.00,29.734
662.00,29.844
663.00,30.019
664.00,30.305
665.00,30.440
666.00,30.556
667.00,30.707
668.00,30.812
669.00,31.076
670.00,31.343
671.00,31.416
672.00,31.598
673.00,31.739
674.00,31.903
675.00,32.040
676.00,32.256
677.00,32.506
678.00,32.418
679.00,32.719
680.00,32.907
681.00,33.066
682.00,33.182
683.00,33.321
684.00,33.622
685.00,33.780
686.00,33.840
687.00,33.956
688.00,33.988
689.00,34.354
690.00,34.650
691.00,34.964
692.00,34.889
693.00,35.044
694.00,35.278
695.00,35.451
696.00,35.616
697.00,35.720
698.00,35.916
699.00,36.243
700.00,36.493
701.00,36.507
702.00,36.735
703.00,36.980
704.00,37.070
705.00,37.144
706.00,37.340
707.00,37.554
708.00,37.579
709.00,37.975
710.00,38.384
711.00,38.169
712.00,38.272
713.00,38.514
714.00,38.713
715.00,38.796
716.00,39.035
717.00,39.103
718.00,39.415
719.00,39.523
720.00,39.640
721.00,43.647
722.00,43.820
723.00,43.881
724.00,44.028
725.00,44.158
726.00,44.295
727.00,44.442
728.00,44.561
729.00,44.673
730.00,44.837
731.00,44.891
732.00,45.074
733.00,45.138
734.00,45.276
735.00,45.500
736.00,45.572
737.00,45.713
738.00,45.824
739.00,45.910
740.00,46.080
741.00,46.199
742.00,46.317
743.00,46.412
744.00,46.541
745.00,46.601
746.00,46.754
747.00,46.757
748.00,46.813
749.00,46.937
750.00,47.014
751.00,47.151
752.00,47.158
753.00,47.278
754.00,47.368
755.00,47.487
756.00,47.586
757.00,47.647
758.00,47.752
759.00,47.871
760.00,47.883
761.00,47.924
762.00,48.012
763.00,48.158
764.00,48.175
765.00,48.273
766.00,48.307
767.00,48.384
768.00,48.507
769.00,48.562
770.00,48.629
771.00,48.709
772.00,48.801
773.00,48.882
774.00,48.917
775.00,49.014
776.00,49.090
777.00,49.090
778.00,49.150
779.00,49.234
780.00,49.301
781.00,49.312
782.00,49.395
783.00,49.387
784.00,49.498
785.00,49.566
786.00,49.647
787.00,49.606
788.00,49.679
789.00,49.700
790.00,49.726
791.00,49.896
792.00,49.789
793.00,49.819
794.00,49.916
795.00,49.985
796.00,49.979
797.00,49.927
798.00,50.023
799.00,49.988
800.00,50.042
801.00,50.100
802.00,50.107
803.00,50.146
804.00,50.024
805.00,50.233
806.00,50.190
807.00,50.280
808.00,50.297
809.00,50.312
810.00,50.326
811.00,50.350
812.00,50.340
813.00,50.328
814.00,50.344
815.00,50.335
816.00,50.346
817.00,50.379
818.00,50.370
819.00,50.501
820.00,50.428
821.00,50.414
822.00,50.493
823.00,50.455
824.00,50.492
825.00,50.452
826.00,50.529
827.00,50.527
828.00,50.492
829.00,50.600
830.00,50.580
831.00,52.748
832.00,52.787
833.00,52.731
834.00,52.731
835.00,52.787
836.00,52.779
837.00,52.791
838.00,52.805
839.00,52.779
840.00,52.747
841.00,52.819
842.00,52.813
843.00,52.814
844.00,52.846
845.00,52.802
846.00,52.858
847.00,52.811
848.00,52.819
849.00,52.758
850.00,52.775
851.00,52.748
852.00,52.784
853.00,52.742
854.00,52.726
855.00,52.690
856.00,52.740
857.00,52.730
858.00,52.698
859.00,52.663
860.00,52.809
861.00,52.712
862.00,52.621
863.00,52.689
864.00,52.686
865.00,52.701
866.00,52.671
867.00,52.705
868.00,52.682
869.00,52.659
870.00,52.727
871.00,52.721
872.00,52.740
873.00,52.676
874.00,52.762
875.00,52.707
876.00,52.754
877.00,52.704
878.00,52.768
879.00,52.703
880.00,52.708
881.00,52.673
882.00,52.751
883.00,52.705
884.00,52.632
885.00,52.823
886.00,52.704
887.00,52.653
888.00,52.631
889.00,52.651
890.00,52.662
891.00,52.602
892.00,52.591
893.00,52.568
894.00,52.587
895.00,52.559
896.00,52.537
897.00,52.545
898.00,52.524
899.00,52.535
900.00,52.540
901.00,52.524
902.00,52.557
903.00,52.413
904.00,52.483
905.00,52.485
906.00,52.482
907.00,52.470
908.00,52.417
909.00,52.438
910.00,52.387
911.00,52.416
912.00,52.406
913.00,52.372
914.00,52.416
915.00,52.453
916.00,52.336
917.00,52.323
918.00,52.317
919.00,52.288
920.00,52.252
921.00,52.285
922.00,52.264
923.00,52.257
924.00,52.206
925.00,52.232
926.00,52.210
927.00,52.213
928.00,52.141
929.00,52.214
930.00,52.146
931.00,52.157
932.00,52.104
933.00,52.149
934.00,52.105
935.00,52.066
936.00,52.054
937.00,52.070
938.00,52.034
939.00,52.062
940.00,51.997
941.00,52.001
942.00,52.000
943.00,51.978
944.00,51.913
945.00,51.937
946.00,51.961
947.00,51.895
948.00,51.904
949.00,51.868
950.00,51.871
951.00,51.851
952.00,51.831
953.00,51.793
954.00,51.784
955.00,51.728
956.00,51.740
957.00,51.681
958.00,51.726
959.00,51.668
960.00,51.665
961.00,51.653
962.00,51.661
963.00,51.596
964.00,51.590
965.00,51.618
966.00,51.575
967.00,51.608
968.00,51.544
969.00,51.605
970.00,51.575
971.00,51.584
972.00,51.548
973.00,51.593
974.00,51.620
975.00,51.558
976.00,51.616
977.00,51.584
978.00,51.640
979.00,51.576
980.00,51.584
981.00,51.601
982.00,51.547
983.00,51.601
984.00,51.565
985.00,51.586
986.00,51.548
987.00,51.574
988.00,51.552
989.00,51.534
990.00,51.539
991.00,51.516
992.00,51.549
993.00,51.504
994.00,51.478
995.00,51.489
996.00,51.448
997.00,51.456
998.00,51.419
999.00,51.453
1000.00,51.422
1001.00,51.403
1002.00,51.412
1003.00,51.397
1004.00,51.378
1005.00,51.343
1006.00,51.406
1007.00,51.346
1008.00,51.331
1009.00,51.319
1010.00,51.308
1011.00,51.320
1012.00,51.268
1013.00,51.283
1014.00,51.249
1015.00,51.259
1016.00,51.217
1017.00,51.211
1018.00,51.194
1019.00,51.158
1020.00,51.195
1021.00,51.167
1022.00,51.179
1023.00,51.105
1024.00,51.120
1025.00,51.115
1026.00,51.078
1027.00,51.064
1028.00,51.065
1029.00,51.054
1030.00,51.020
1031.00,51.046
1032.00,50.989
1033.00,51.006
1034.00,50.956
1035.00,50.920
1036.00,50.915
1037.00,50.876
1038.00,50.872
1039.00,50.857
1040.00,50.848
1041.00,50.814
1042.00,50.818
1043.00,50.791
1044.00,50.819
1045.00,50.791
1046.00,50.775
1047.00,50.815
1048.00,50.793
1049.00,50.826
1050.00,50.822
1051.00,50.873
1052.00,50.872
1053.00,50.867
1054.00,50.860
1055.00,50.887
1056.00,50.898
1057.00,50.878
1058.00,50.874
1059.00,50.854
1060.00,50.874
1061.00,50.847
1062.00,50.829
1063.00,50.848
1064.00,50.839
1065.00,50.793
1066.00,50.829
1067.00,50.810
1068.00,50.856
1069.00,50.813
1070.00,50.802
1071.00,50.788
1072.00,50.808
1073.00,50.756
1074.00,50.746
1075.00,50.753
1076.00,50.751
1077.00,50.744
1078.00,50.702
1079.00,50.702
1080.00,50.706
1081.00,50.691
1082.00,50.696
1083.00,50.693
1084.00,50.671
1085.00,50.684
1086.00,50.666
1087.00,50.666
1088.00,50.642
1089.00,50.638
1090.00,50.615
1091.00,50.649
1092.00,50.625
1093.00,50.593
1094.00,50.573
1095.00,50.575
1096.00,50.564
1097.00,50.572
1098.00,50.539
1099.00,50.551
1100.00,50.530
1101.00,50.530
1102.00,50.512
1103.00,50.517
1104.00,50.492
1105.00,50.496
1106.00,50.472
1107.00,50.482
1108.00,50.463
1109.00,50.448
1110.00,50.457
1111.00,50.441
1112.00,50.432
1113.00,50.447
1114.00,50.407
1115.00,50.419
1116.00,50.406
1117.00,50.387
1118.00,50.374
1119.00,50.387
1120.00,50.353
1121.00,50.365
1122.00,50.343
1123.00,50.345
1124.00,50.345
1125.00,50.338
1126.00,50.325
1127.00,50.341
1128.00,50.300
1129.00,50.307
1130.00,50.281
1131.00,50.280
1132.00,50.274
1133.00,50.266
1134.00,50.244
1135.00,50.249
1136.00,50.227
1137.00,50.239
1138.00,50.246
1139.00,50.248
1140.00,50.235
1141.00,50.237
1142.00,50.215
1143.00,50.255
1144.00,50.196
1145.00,50.202
1146.00,50.209
1147.00,50.196
1148.00,50.187
1149.00,50.206
1150.00,50.187
1151.00,50.197
1152.00,50.188
1153.00,50.174
1154.00,50.163
1155.00,50.159
1156.00,50.166
1157.00,50.190
1158.00,50.171
1159.00,50.185
1160.00,50.159
1161.00,50.163
1162.00,50.161
1163.00,50.142
1164.00,50.158
1165.00,50.143
1166.00,50.147
1167.00,50.124
1168.00,50.162
1169.00,50.135
1170.00,50.125
1171.00,50.129
1172.00,50.108
1173.00,50.106
1174.00,50.133
1175.00,50.112
1176.00,50.121
1177.00,50.092
1178.00,50.093
1179.00,50.120
1180.00,50.089
1181.00,50.123
1182.00,50.114
1183.00,50.101
1184.00,50.088
1185.00,50.102
1186.00,50.080
1187.00,50.083
1188.00,50.083
1189.00,50.067
1190.00,50.084
1191.00,50.058
1192.00,50.086
1193.00,50.072
1194.00,50.076
1195.00,50.060
1196.00,50.091
1197.00,50.085
1198.00,50.068
1199.00,50.067
1200.00,50.071
1201.00,50.101
1202.00,50.059
1203.00,50.066
1204.00,50.060
1205.00,50.069
1206.00,50.063
1207.00,50.051
1208.00,50.039
1209.00,50.054
1210.00,50.040
1211.00,50.035
1212.00,50.065
1213.00,50.004
1214.00,50.045
1215.00,50.037
1216.00,50.039
1217.00,50.034
1218.00,50.015
1219.00,50.037
1220.00,50.019
1221.00,50.035
1222.00,50.019
1223.00,50.063
1224.00,50.051
1225.00,50.035
1226.00,50.050
1227.00,50.023
1228.00,50.051
1229.00,50.054
1230.00,50.084
1231.00,50.059
1232.00,50.081
1233.00,50.081
1234.00,50.093
1235.00,50.103
1236.00,50.069
1237.00,50.088
1238.00,50.069
1239.00,50.092
1240.00,50.065
1241.00,50.078
1242.00,50.091
1243.00,50.085
1244.00,50.076
1245.00,50.117
1246.00,50.109
1247.00,50.094
1248.00,50.095
1249.00,50.097
1250.00,50.109
1251.00,50.098
1252.00,50.106
1253.00,50.105
1254.00,50.130
1255.00,50.106
1256.00,50.107
1257.00,50.077
1258.00,50.129
1259.00,50.107
1260.00,50.135
1261.00,50.143
1262.00,50.130
1263.00,50.125
1264.00,50.135
1265.00,50.135
1266.00,50.124
1267.00,50.153
1268.00,50.135
1269.00,50.157
1270.00,50.183
1271.00,50.158
1272.00,50.172
1273.00,50.207
1274.00,50.197
1275.00,50.220
1276.00,50.191
1277.00,50.184
1278.00,50.212
1279.00,50.193
1280.00,50.206
1281.00,50.231
1282.00,50.200
1283.00,50.198
1284.00,50.213
1285.00,50.194
1286.00,50.224
1287.00,50.202
1288.00,50.200
1289.00,50.206
1290.00,50.231
1291.00,50.222
1292.00,50.229
1293.00,50.235
1294.00,50.252
1295.00,50.258
1296.00,50.257
1297.00,50.276
1298.00,50.300
1299.00,50.260
1300.00,50.308
1301.00,50.271
1302.00,50.304
1303.00,50.308
1304.00,50.275
1305.00,50.310
1306.00,50.307
1307.00,50.317
1308.00,50.330
1309.00,50.327
1310.00,50.326
1311.00,50.321
1312.00,50.314
1313.00,50.333
1314.00,50.348
1315.00,50.347
1316.00,50.347
1317.00,50.388
1318.00,50.370
1319.00,50.398
1320.00,50.374
1321.00,50.558
1322.00,50.553
1323.00,50.535
1324.00,50.515
1325.00,50.516
1326.00,50.523
1327.00,50.507
1328.00,50.509
1329.00,50.518
1330.00,50.520
1331.00,50.506
1332.00,50.515
1333.00,50.539
1334.00,50.538
1335.00,50.569
1336.00,50.606
1337.00,50.645
1338.00,50.689
1339.00,50.727
1340.00,50.793
1341.00,50.843
1342.00,50.893
1343.00,50.936
1344.00,50.992
1345.00,51.035
1346.00,51.061
1347.00,51.098
1348.00,51.151
1349.00,51.137
1350.00,51.171
1351.00,51.152
1352.00,51.168
1353.00,51.197
1354.00,51.194
1355.00,51.357
1356.00,51.201
1357.00,51.198
1358.00,51.232
1359.00,51.248
1360.00,51.243
1361.00,51.276
1362.00,51.241
1363.00,51.266
1364.00,51.233
1365.00,51.205
1366.00,51.282
1367.00,51.206
1368.00,51.216
1369.00,51.237
1370.00,51.191
1371.00,51.273
1372.00,51.265
1373.00,51.210
1374.00,51.240
1375.00,51.204
1376.00,51.221
1377.00,51.209
1378.00,51.286
1379.00,51.219
1380.00,51.254
1381.00,51.262
1382.00,51.138
1383.00,51.219
1384.00,51.137
1385.00,51.174
1386.00,51.214
1387.00,51.187
1388.00,51.105
1389.00,51.172
1390.00,51.224
1391.00,51.202
1392.00,51.169
1393.00,51.209
1394.00,51.191
1395.00,51.196
1396.00,51.124
1397.00,51.120
1398.00,51.209
1399.00,51.152
1400.00,50.979
1401.00,51.171
1402.00,51.215
1403.00,51.156
1404.00,51.225
1405.00,51.243
1406.00,51.261
1407.00,51.246
1408.00,51.238
1409.00,51.236
1410.00,51.281
1411.00,51.254
1412.00,51.341
1413.00,51.285
1414.00,51.259
1415.00,51.286
1416.00,51.325
1417.00,51.347
1418.00,51.305
1419.00,51.329
1420.00,51.352
1421.00,51.415
1422.00,51.382
1423.00,51.404
1424.00,51.405
1425.00,51.430
1426.00,51.423
1427.00,51.451
1428.00,51.429
1429.00,51.452
1430.00,51.469
1431.00,51.492
1432.00,51.517
1433.00,51.514
1434.00,51.491
1435.00,51.576
1436.00,51.558
1437.00,51.549
1438.00,51.561
1439.00,51.594
1440.00,51.608
1441.00,51.596
1442.00,51.629
1443.00,51.655
1444.00,51.708
1445.00,51.653
1446.00,51.697
1447.00,51.712
1448.00,51.754
1449.00,51.750
1450.00,51.742
1451.00,51.757
1452.00,51.786
1453.00,51.789
1454.00,51.812
1455.00,51.827
1456.00,51.847
1457.00,51.841
1458.00,51.887
1459.00,51.909
1460.00,51.912
1461.00,51.907
1462.00,51.966
1463.00,51.948
1464.00,51.956
1465.00,51.984
1466.00,51.972
1467.00,51.993
1468.00,52.058
1469.00,52.011
1470.00,52.038
1471.00,52.053
1472.00,52.065
1473.00,52.081
1474.00,52.097
1475.00,52.121
1476.00,52.141
1477.00,52.096
1478.00,52.124
1479.00,52.163
1480.00,52.150
1481.00,52.168
1482.00,52.212
1483.00,52.188
1484.00,52.210
1485.00,52.213
1486.00,52.246
1487.00,52.283
1488.00,52.285
1489.00,52.273
1490.00,52.315
1491.00,52.333
1492.00,52.362
1493.00,52.321
1494.00,52.364
1495.00,52.349
1496.00,52.371
1497.00,52.355
1498.00,52.392
1499.00,52.389
1500.00,52.404
1501.00, 
1502.00, 
1503.00, 
1504.00, 
1505.00, 
1506.00, 
1507.00, 
1508.00, 
1509.00, 
1510.00, 
1511.00, 
1512.00, 
1513.00, 
1514.00, 
1515.00, 
1516.00, 
1517.00, 
1518.00, 
1519.00, 
1520.00, 
1521.00, 
1522.00, 
1523.00, 
1524.00, 
1525.00, 
1526.00, 
1527.00, 
1528.00, 
1529.00, 
1530.00, 
1531.00, 
1532.00, 
1533.00, 
1534.00, 
1535.00, 
1536.00, 
1537.00, 
1538.00, 
1539.00, 
1540.00, 
1541.00, 
1542.00, 
1543.00, 
1544.00, 
1545.00, 
1546.00, 
1547.00, 
1548.00, 
1549.00, 
1550.00, 
1551.00, 
1552.00, 
1553.00, 
1554.00, 
1555.00, 
1556.00, 
1557.00, 
1558.00, 
1559.00, 
1560.00, 
1561.00, 
1562.00, 
1563.00, 
1564.00, 
1565.00, 
1566.00, 
1567.00, 
1568.00, 
1569.00, 
1570.00, 
1571.00, 
1572.00, 
1573.00, 
1574.00, 
1575.00, 
1576.00, 
1577.00, 
1578.00, 
1579.00, 
1580.00, 
1581.00, 
1582.00, 
1583.00, 
1584.00, 
1585.00, 
1586.00, 
1587.00, 
1588.00, 
1589.00, 
1590.00, 
1591.00, 
1592.00, 
1593.00, 
1594.00, 
1595.00, 
1596.00, 
1597.00, 
1598.00, 
1599.00, 
1600.00, 
1601.00, 
1602.00, 
1603.00, 
1604.00, 
1605.00, 
1606.00, 
1607.00, 
1608.00, 
1609.00, 
1610.00, 
1611.00, 
1612.00, 
1613.00, 
1614.00, 
1615.00, 
1616.00, 
1617.00, 
1618.00, 
1619.00, 
1620.00, 
1621.00, 
1622.00, 
1623.00, 
1624.00, 
1625.00, 
1626.00, 
1627.00, 
1628.00, 
1629.00, 
1630.00, 
1631.00, 
1632.00, 
1633.00, 
1634.00, 
1635.00, 
1636.00, 
1637.00, 
1638.00, 
1639.00, 
1640.00, 
1641.00, 
1642.00, 
1643.00, 
1644.00, 
1645.00, 
1646.00, 
1647.00, 
1648.00, 
1649.00, 
1650.00, 
1651.00, 
1652.00, 
1653.00, 
1654.00, 
1655.00, 
1656.00, 
1657.00, 
1658.00, 
1659.00, 
1660.00, 
1661.00, 
1662.00, 
1663.00, 
1664.00, 
1665.00, 
1666.00, 
1667.00, 
1668.00, 
1669.00, 
1670.00, 
1671.00, 
1672.00, 
1673.00, 
1674.00, 
1675.00, 
1676.00, 
1677.00, 
1678.00, 
1679.00, 
1680.00, 
1681.00, 
1682.00, 
1683.00, 
1684.00, 
1685.00, 
1686.00, 
1687.00, 
1688.00, 
1689.00, 
1690.00, 
1691.00, 
1692.00, 
1693.00, 
1694.00, 
1695.00, 
1696.00, 
1697.00, 
1698.00, 
1699.00, 
1700.00, 
1701.00, 
1702.00, 
1703.00, 
1704.00, 
1705.00, 
1706.00, 
1707.00, 
1708.00, 
1709.00, 
1710.00, 
1711.00, 
1712.00, 
1713.00, 
1714.00, 
1715.00, 
1716.00, 
1717.00, 
1718.00, 
1719.00, 
1720.00, 
1721.00, 
1722.00, 
1723.00, 
1724.00, 
1725.00, 
1726.00, 
1727.00, 
1728.00, 
1729.00, 
1730.00, 
1731.00, 
1732.00, 
1733.00, 
1734.00, 
1735.00, 
1736.00, 
1737.00, 
1738.00, 
1739.00, 
1740.00, 
1741.00, 
1742.00, 
1743.00, 
1744.00, 
1745.00, 
1746.00, 
1747.00, 
1748.00, 
1749.00, 
1750.00, 
1751.00, 
1752.00, 
1753.00, 
1754.00, 
1755.00, 
1756.00, 
1757.00, 
1758.00, 
1759.00, 
1760.00, 
1761.00, 
1762.00, 
1763.00, 
1764.00, 
1765.00, 
1766.00, 
1767.00, 
1768.00, 
1769.00, 
1770.00, 
1771.00, 
1772.00, 
1773.00, 
1774.00, 
1775.00, 
1776.00, 
1777.00, 
1778.00, 
1779.00, 
1780.00, 
1781.00, 
1782.00, 
1783.00, 
1784.00, 
1785.00, 
1786.00, 
1787.00, 
1788.00, 
1789.00, 
1790.00, 
1791.00, 
1792.00, 
1793.00, 
1794.00, 
1795.00, 
1796.00, 
1797.00, 
1798.00, 
1799.00, 
1800.00, 
1801.00, 
1802.00, 
1803.00, 
1804.00, 
1805.00, 
1806.00, 
1807.00, 
1808.00, 
1809.00, 
1810.00, 
1811.00, 
1812.00, 
1813.00, 
1814.00, 
1815.00, 
1816.00, 
1817.00, 
1818.00, 
1819.00, 
1820.00, 
1821.00, 
1822.00, 
1823.00, 
1824.00, 
1825.00, 
1826.00, 
1827.00, 
1828.00, 
1829.00, 
1830.00, 
1831.00, 
1832.00, 
1833.00, 
1834.00, 
1835.00, 
1836.00, 
1837.00, 
1838.00, 
1839.00, 
1840.00, 
1841.00, 
1842.00, 
1843.00, 
1844.00, 
1845.00, 
1846.00, 
1847.00, 
1848.00, 
1849.00, 
1850.00, 
1851.00, 
1852.00, 
1853.00, 
1854.00, 
1855.00, 
1856.00, 
1857.00, 
1858.00, 
1859.00, 
1860.00, 
1861.00, 
1862.00, 
1863.00, 
1864.00, 
1865.00, 
1866.00, 
1867.00, 
1868.00, 
1869.00, 
1870.00, 
1871.00, 
1872.00, 
1873.00, 
1874.00, 
1875.00, 
1876.00, 
1877.00, 
1878.00, 
1879.00, 
1880.00, 
1881.00, 
1882.00, 
1883.00, 
1884.00, 
1885.00, 
1886.00, 
1887.00, 
1888.00, 
1889.00, 
1890.00, 
1891.00, 
1892.00, 
1893.00, 
1894.00, 
1895.00, 
1896.00, 
1897.00, 
1898.00, 
1899.00, 
1900.00, 
1901.00, 
1902.00, 
1903.00, 
1904.00, 
1905.00, 
1906.00, 
1907.00, 
1908.00, 
1909.00, 
1910.00, 
1911.00, 
1912.00, 
1913.00, 
1914.00, 
1915.00, 
1916.00, 
1917.00, 
1918.00, 
1919.00, 
1920.00, 
1921.00, 
1922.00, 
1923.00, 
1924.00, 
1925.00, 
1926.00, 
1927.00, 
1928.00, 
1929.00, 
1930.00, 
1931.00, 
1932.00, 
1933.00, 
1934.00, 
1935.00, 
1936.00, 
1937.00, 
1938.00, 
1939.00, 
1940.00, 
1941.00, 
1942.00, 
1943.00, 
1944.00, 
1945.00, 
1946.00, 
1947.00, 
1948.00, 
1949.00, 
1950.00, 
1951.00, 
1952.00, 
1953.00, 
1954.00, 
1955.00, 
1956.00, 
1957.00, 
1958.00, 
1959.00, 
1960.00, 
1961.00, 
1962.00, 
1963.00, 
1964.00, 
1965.00, 
1966.00, 
1967.00, 
1968.00, 
1969.00, 
1970.00, 
1971.00, 
1972.00, 
1973.00, 
1974.00, 
1975.00, 
1976.00, 
1977.00, 
1978.00, 
1979.00, 
1980.00, 
1981.00, 
1982.00, 
1983.00, 
1984.00, 
1985.00, 
1986.00, 
1987.00, 
1988.00, 
1989.00, 
1990.00, 
1991.00, 
1992.00, 
1993.00, 
1994.00, 
1995.00, 
1996.00, 
1997.00, 
1998.00, 
1999.00, 
2000.00, 
2001.00, 
2002.00, 
2003.00, 
2004.00, 
2005.00, 
2006.00, 
2007.00, 
2008.00, 
2009.00, 
2010.00, 
2011.00, 
2012.00, 
2013.00, 
2014.00, 
2015.00, 
2016.00, 
2017.00, 
2018.00, 
2019.00, 
2020.00, 
2021.00, 
2022.00, 
2023.00, 
2024.00, 
2025.00, 
2026.00, 
2027.00, 
2028.00, 
2029.00, 
2030.00, 
2031.00, 
2032.00, 
2033.00, 
2034.00, 
2035.00, 
2036.00, 
2037.00, 
2038.00, 
2039.00, 
2040.00, 
2041.00, 
2042.00, 
2043.00, 
2044.00, 
2045.00, 
2046.00, 
2047.00, 
2048.00, 
2049.00, 
2050.00, 
2051.00, 
2052.00, 
2053.00, 
2054.00, 
2055.00, 
2056.00, 
2057.00, 
2058.00, 
2059.00, 
2060.00, 
2061.00, 
2062.00, 
2063.00, 
2064.00, 
2065.00, 
2066.00, 
2067.00, 
2068.00, 
2069.00, 
2070.00, 
2071.00, 
2072.00, 
2073.00, 
2074.00, 
2075.00, 
2076.00, 
2077.00, 
2078.00, 
2079.00, 
2080.00, 
2081.00, 
2082.00, 
2083.00, 
2084.00, 
2085.00, 
2086.00, 
2087.00, 
2088.00, 
2089.00, 
2090.00, 
2091.00, 
2092.00, 
2093.00, 
2094.00, 
2095.00, 
2096.00, 
2097.00, 
2098.00, 
2099.00, 
2100.00, 
2101.00, 
2102.00, 
2103.00, 
2104.00, 
2105.00, 
2106.00, 
2107.00, 
2108.00, 
2109.00, 
2110.00, 
2111.00, 
2112.00, 
2113.00, 
2114.00, 
2115.00, 
2116.00, 
2117.00, 
2118.00, 
2119.00, 
2120.00, 
2121.00, 
2122.00, 
2123.00, 
2124.00, 
2125.00, 
2126.00, 
2127.00, 
2128.00, 
2129.00, 
2130.00, 
2131.00, 
2132.00, 
2133.00, 
2134.00, 
2135.00, 
2136.00, 
2137.00, 
2138.00, 
2139.00, 
2140.00, 
2141.00, 
2142.00, 
2143.00, 
2144.00, 
2145.00, 
2146.00, 
2147.00, 
2148.00, 
2149.00, 
2150.00, 
2151.00, 
2152.00, 
2153.00, 
2154.00, 
2155.00, 
2156.00, 
2157.00, 
2158.00, 
2159.00, 
2160.00, 
2161.00, 
2162.00, 
2163.00, 
2164.00, 
2165.00, 
2166.00, 
2167.00, 
2168.00, 
2169.00, 
2170.00, 
2171.00, 
2172.00, 
2173.00, 
2174.00, 
2175.00, 
2176.00, 
2177.00, 
2178.00, 
2179.00, 
2180.00, 
2181.00, 
2182.00, 
2183.00, 
2184.00, 
2185.00, 
2186.00, 
2187.00, 
2188.00, 
2189.00, 
2190.00, 
2191.00, 
2192.00, 
2193.00, 
2194.00, 
2195.00, 
2196.00, 
2197.00, 
2198.00, 
2199.00, 
2200.00, 
2201.00, 
2202.00, 
2203.00, 
2204.00, 
2205.00, 
2206.00, 
2207.00, 
2208.00, 
2209.00, 
2210.00, 
2211.00, 
2212.00, 
2213.00, 
2214.00, 
2215.00, 
2216.00, 
2217.00, 
2218.00, 
2219.00, 
2220.00, 
2221.00, 
2222.00, 
2223.00, 
2224.00, 
2225.00, 
2226.00, 
2227.00, 
2228.00, 
2229.00, 
2230.00, 
2231.00, 
2232.00, 
2233.00, 
2234.00, 
2235.00, 
2236.00, 
2237.00, 
2238.00, 
2239.00, 
2240.00, 
2241.00, 
2242.00, 
2243.00, 
2244.00, 
2245.00, 
2246.00, 
2247.00, 
2248.00, 
2249.00, 
2250.00, 
2251.00, 
2252.00, 
2253.00, 
2254.00, 
2255.00, 
2256.00, 
2257.00, 
2258.00, 
2259.00, 
2260.00, 
2261.00, 
2262.00, 
2263.00, 
2264.00, 
2265.00, 
2266.00, 
2267.00, 
2268.00, 
2269.00, 
2270.00, 
2271.00, 
2272.00, 
2273.00, 
2274.00, 
2275.00, 
2276.00, 
2277.00, 
2278.00, 
2279.00, 
2280.00, 
2281.00, 
2282.00, 
2283.00, 
2284.00, 
2285.00, 
2286.00, 
2287.00, 
2288.00, 
2289.00, 
2290.00, 
2291.00, 
2292.00, 
2293.00, 
2294.00, 
2295.00, 
2296.00, 
2297.00, 
2298.00, 
2299.00, 
2300.00, 
2301.00, 
2302.00, 
2303.00, 
2304.00, 
2305.00, 
2306.00, 
2307.00, 
2308.00, 
2309.00, 
2310.00, 
2311.00, 
2312.00, 
2313.00, 
2314.00, 
2315.00, 
2316.00, 
2317.00, 
2318.00, 
2319.00, 
2320.00, 
2321.00, 
2322.00, 
2323.00, 
2324.00, 
2325.00, 
2326.00, 
2327.00, 
2328.00, 
2329.00, 
2330.00, 
2331.00, 
2332.00, 
2333.00, 
2334.00, 
2335.00, 
2336.00, 
2337.00, 
2338.00, 
2339.00, 
2340.00, 
2341.00, 
2342.00, 
2343.00, 
2344.00, 
2345.00, 
2346.00, 
2347.00, 
2348.00, 
2349.00, 
2350.00, 
2351.00, 
2352.00, 
2353.00, 
2354.00, 
2355.00, 
2356.00, 
2357.00, 
2358.00, 
2359.00, 
2360.00, 
2361.00, 
2362.00, 
2363.00, 
2364.00, 
2365.00, 
2366.00, 
2367.00, 
2368.00, 
2369.00, 
2370.00, 
2371.00, 
2372.00, 
2373.00, 
2374.00, 
2375.00, 
2376.00, 
2377.00, 
2378.00, 
2379.00, 
2380.00, 
2381.00, 
2382.00, 
2383.00, 
2384.00, 
2385.00, 
2386.00, 
2387.00, 
2388.00, 
2389.00, 
2390.00, 
2391.00, 
2392.00, 
2393.00, 
2394.00, 
2395.00, 
2396.00, 
2397.00, 
2398.00, 
2399.00, 
2400.00, 
2401.00, 
2402.00, 
2403.00, 
2404.00, 
2405.00, 
2406.00, 
2407.00, 
2408.00, 
2409.00, 
2410.00, 
2411.00, 
2412.00, 
2413.00, 
2414.00, 
2415.00, 
2416.00, 
2417.00, 
2418.00, 
2419.00, 
2420.00, 
2421.00, 
2422.00, 
2423.00, 
2424.00, 
2425.00, 
2426.00, 
2427.00, 
2428.00, 
2429.00, 
2430.00, 
2431.00, 
2432.00, 
2433.00, 
2434.00, 
2435.00, 
2436.00, 
2437.00, 
2438.00, 
2439.00, 
2440.00, 
2441.00, 
2442.00, 
2443.00, 
2444.00, 
2445.00, 
2446.00, 
2447.00, 
2448.00, 
2449.00, 
2450.00, 
2451.00, 
2452.00, 
2453.00, 
2454.00, 
2455.00, 
2456.00, 
2457.00, 
2458.00, 
2459.00, 
2460.00, 
2461.00, 
2462.00, 
2463.00, 
2464.00, 
2465.00, 
2466.00, 
2467.00, 
2468.00, 
2469.00, 
2470.00, 
2471.00, 
2472.00, 
2473.00, 
2474.00, 
2475.00, 
2476.00, 
2477.00, 
2478.00, 
2479.00, 
2480.00, 
2481.00, 
2482.00, 
2483.00, 
2484.00, 
2485.00, 
2486.00, 
2487.00, 
2488.00, 
2489.00, 
2490.00, 
2491.00, 
2492.00, 
2493.00, 
2494.00, 
2495.00, 
2496.00, 
2497.00, 
2498.00, 
2499.00, 
2500.00, 
2501.00, 
2502.00, 
2503.00, 
2504.00, 
2505.00, 
2506.00, 
2507.00, 
2508.00, 
2509.00, 
2510.00, 
2511.00, 
2512.00, 
2513.00, 
2514.00, 
2515.00, 
2516.00, 
2517.00, 
2518.00, 
2519.00, 
2520.00, 
2521.00, 
2522.00, 
2523.00, 
2524.00, 
2525.00, 
2526.00, 
2527.00, 
2528.00, 
2529.00, 
2530.00, 
2531.00, 
2532.00, 
2533.00, 
2534.00, 
2535.00, 
2536.00, 
2537.00, 
2538.00, 
2539.00, 
2540.00, 
2541.00, 
2542.00, 
2543.00, 
2544.00, 
2545.00, 
2546.00, 
2547.00, 
2548.00, 
2549.00, 
2550.00, 
2551.00, 
2552.00, 
2553.00, 
2554.00, 
2555.00, 
2556.00, 
2557.00, 
2558.00, 
2559.00, 
2560.00, 
2561.00, 
2562.00, 
2563.00, 
2564.00, 
2565.00, 
2566.00, 
2567.00, 
2568.00, 
2569.00, 
2570.00, 
2571.00, 
2572.00, 
2573.00, 
2574.00, 
2575.00, 
2576.00, 
2577.00, 
2578.00, 
2579.00, 
2580.00, 
2581.00, 
2582.00, 
2583.00, 
2584.00, 
2585.00, 
2586.00, 
2587.00, 
2588.00, 
2589.00, 
2590.00, 
2591.00, 
2592.00, 
2593.00, 
2594.00, 
2595.00, 
2596.00, 
2597.00, 
2598.00, 
2599.00, 
2600.00, 
