"2cP5 - RawData"
"Wavelength nm.","T%"
200.00,0.001
201.00,-0.002
202.00,0.002
203.00,0.001
204.00,0.003
205.00,-0.001
206.00,0.003
207.00,0.001
208.00,0.006
209.00,-0.001
210.00,0.004
211.00,0.001
212.00,-0.001
213.00,0.001
214.00,0.001
215.00,0.003
216.00,0.002
217.00,-0.000
218.00,0.001
219.00,0.000
220.00,-0.001
221.00,0.002
222.00,0.000
223.00,0.003
224.00,0.001
225.00,0.002
226.00,-0.001
227.00,0.002
228.00,0.001
229.00,-0.002
230.00,0.003
231.00,0.000
232.00,-0.001
233.00,0.002
234.00,0.001
235.00,0.003
236.00,-0.000
237.00,-0.001
238.00,0.000
239.00,0.001
240.00,0.001
241.00,0.001
242.00,-0.000
243.00,-0.001
244.00,0.001
245.00,0.000
246.00,0.000
247.00,0.001
248.00,0.002
249.00,0.000
250.00,-0.000
251.00,0.000
252.00,0.001
253.00,0.001
254.00,0.001
255.00,0.001
256.00,-0.000
257.00,-0.000
258.00,0.000
259.00,0.001
260.00,-0.000
261.00,0.001
262.00,-0.001
263.00,0.000
264.00,-0.000
265.00,0.001
266.00,0.001
267.00,-0.000
268.00,0.002
269.00,-0.002
270.00,0.001
271.00,0.000
272.00,-0.001
273.00,0.001
274.00,0.001
275.00,0.001
276.00,0.000
277.00,-0.000
278.00,-0.000
279.00,-0.001
280.00,0.000
281.00,-0.001
282.00,0.000
283.00,0.000
284.00,0.001
285.00,-0.001
286.00,-0.002
287.00,0.000
288.00,0.001
289.00,-0.000
290.00,-0.001
291.00,-0.001
292.00,-0.001
293.00,-0.002
294.00,-0.000
295.00,0.001
296.00,0.001
297.00,0.000
298.00,0.001
299.00,-0.000
300.00,0.002
301.00,0.003
302.00,0.003
303.00,0.004
304.00,0.007
305.00,0.010
306.00,0.015
307.00,0.021
308.00,0.031
309.00,0.047
310.00,0.067
311.00,0.091
312.00,0.128
313.00,0.163
314.00,0.216
315.00,0.282
316.00,0.359
317.00,0.450
318.00,0.559
319.00,0.681
320.00,0.826
321.00,0.987
322.00,1.164
323.00,1.372
324.00,1.573
325.00,1.794
326.00,2.011
327.00,2.272
328.00,2.543
329.00,2.790
330.00,3.079
331.00,3.345
332.00,3.631
333.00,3.944
334.00,4.191
335.00,4.491
336.00,4.777
337.00,5.074
338.00,5.345
339.00,5.581
340.00,5.854
341.00,6.122
342.00,6.343
343.00,6.568
344.00,6.805
345.00,6.987
346.00,7.160
347.00,7.348
348.00,7.516
349.00,7.679
350.00,7.820
351.00,7.946
352.00,8.057
353.00,8.162
354.00,8.263
355.00,8.353
356.00,8.439
357.00,8.530
358.00,8.580
359.00,8.664
360.00,8.733
361.00,8.758
362.00,8.798
363.00,8.826
364.00,8.851
365.00,8.869
366.00,8.870
367.00,8.866
368.00,8.883
369.00,8.857
370.00,8.869
371.00,8.856
372.00,8.814
373.00,8.801
374.00,8.793
375.00,8.736
376.00,8.667
377.00,8.659
378.00,8.598
379.00,8.529
380.00,8.520
381.00,8.466
382.00,8.456
383.00,8.442
384.00,8.422
385.00,8.409
386.00,8.399
387.00,8.379
388.00,8.370
389.00,8.357
390.00,8.344
391.00,8.308
392.00,8.306
393.00,8.288
394.00,8.271
395.00,8.253
396.00,8.216
397.00,8.227
398.00,8.203
399.00,8.196
400.00,8.189
401.00,8.164
402.00,8.169
403.00,8.170
404.00,8.135
405.00,8.115
406.00,8.104
407.00,8.064
408.00,8.077
409.00,8.048
410.00,8.031
411.00,8.022
412.00,7.999
413.00,8.006
414.00,8.008
415.00,8.005
416.00,8.030
417.00,8.030
418.00,8.035
419.00,8.054
420.00,8.080
421.00,8.075
422.00,8.081
423.00,8.102
424.00,8.125
425.00,8.144
426.00,8.166
427.00,8.199
428.00,8.219
429.00,8.246
430.00,8.284
431.00,8.310
432.00,8.363
433.00,8.392
434.00,8.429
435.00,8.474
436.00,8.506
437.00,8.579
438.00,8.623
439.00,8.671
440.00,8.730
441.00,8.819
442.00,8.851
443.00,8.904
444.00,8.963
445.00,9.014
446.00,9.091
447.00,9.169
448.00,9.236
449.00,9.323
450.00,9.390
451.00,9.465
452.00,9.556
453.00,9.635
454.00,9.714
455.00,9.813
456.00,9.905
457.00,9.998
458.00,10.078
459.00,10.183
460.00,10.292
461.00,10.385
462.00,10.494
463.00,10.593
464.00,10.715
465.00,10.819
466.00,10.917
467.00,11.035
468.00,11.145
469.00,11.251
470.00,11.343
471.00,11.449
472.00,11.555
473.00,11.651
474.00,11.758
475.00,11.876
476.00,11.996
477.00,12.100
478.00,12.237
479.00,12.380
480.00,12.486
481.00,12.594
482.00,12.701
483.00,12.886
484.00,13.021
485.00,13.173
486.00,13.314
487.00,13.442
488.00,13.596
489.00,13.725
490.00,13.863
491.00,14.001
492.00,14.163
493.00,14.310
494.00,14.442
495.00,14.528
496.00,14.658
497.00,14.781
498.00,14.929
499.00,15.078
500.00,15.193
501.00,15.325
502.00,15.463
503.00,15.620
504.00,15.718
505.00,15.858
506.00,15.998
507.00,16.073
508.00,16.192
509.00,16.357
510.00,16.546
511.00,16.649
512.00,16.823
513.00,16.951
514.00,17.082
515.00,17.231
516.00,17.339
517.00,17.458
518.00,17.591
519.00,17.707
520.00,17.796
521.00,17.907
522.00,18.051
523.00,18.125
524.00,18.229
525.00,18.345
526.00,18.458
527.00,18.570
528.00,18.681
529.00,18.797
530.00,18.943
531.00,19.071
532.00,19.155
533.00,19.259
534.00,19.379
535.00,19.495
536.00,19.576
537.00,19.679
538.00,19.796
539.00,19.866
540.00,19.938
541.00,20.041
542.00,20.080
543.00,20.192
544.00,20.281
545.00,20.357
546.00,20.423
547.00,20.562
548.00,20.637
549.00,20.709
550.00,20.812
551.00,20.876
552.00,20.975
553.00,21.069
554.00,21.160
555.00,21.227
556.00,21.310
557.00,21.385
558.00,21.442
559.00,21.557
560.00,21.607
561.00,21.662
562.00,21.756
563.00,21.818
564.00,21.878
565.00,21.927
566.00,21.989
567.00,22.006
568.00,22.062
569.00,22.144
570.00,22.196
571.00,22.264
572.00,22.328
573.00,22.351
574.00,22.409
575.00,22.430
576.00,22.496
577.00,22.515
578.00,22.621
579.00,22.715
580.00,22.773
581.00,22.842
582.00,22.898
583.00,22.947
584.00,23.107
585.00,23.156
586.00,23.189
587.00,23.286
588.00,23.315
589.00,23.360
590.00,23.439
591.00,23.499
592.00,23.525
593.00,23.584
594.00,23.640
595.00,23.714
596.00,23.790
597.00,23.854
598.00,23.987
599.00,24.012
600.00,24.081
601.00,24.142
602.00,24.137
603.00,24.236
604.00,24.308
605.00,24.351
606.00,24.475
607.00,24.530
608.00,24.582
609.00,24.610
610.00,24.682
611.00,24.810
612.00,24.778
613.00,24.856
614.00,24.925
615.00,25.028
616.00,25.132
617.00,25.204
618.00,25.273
619.00,25.326
620.00,25.356
621.00,25.495
622.00,25.602
623.00,25.659
624.00,25.754
625.00,25.844
626.00,25.901
627.00,25.998
628.00,26.063
629.00,26.164
630.00,26.262
631.00,26.330
632.00,26.482
633.00,26.586
634.00,26.677
635.00,26.812
636.00,26.918
637.00,27.030
638.00,27.105
639.00,27.184
640.00,27.298
641.00,27.378
642.00,27.522
643.00,27.623
644.00,27.727
645.00,27.849
646.00,27.990
647.00,28.088
648.00,28.244
649.00,28.292
650.00,28.454
651.00,28.644
652.00,28.761
653.00,28.818
654.00,29.006
655.00,29.021
656.00,29.393
657.00,29.485
658.00,29.646
659.00,29.739
660.00,29.877
661.00,30.006
662.00,30.246
663.00,30.329
664.00,30.565
665.00,30.721
666.00,30.818
667.00,31.013
668.00,31.183
669.00,31.300
670.00,31.491
671.00,31.590
672.00,31.779
673.00,31.974
674.00,32.129
675.00,32.278
676.00,32.468
677.00,32.628
678.00,32.677
679.00,32.828
680.00,33.039
681.00,33.192
682.00,33.396
683.00,33.570
684.00,33.803
685.00,33.947
686.00,34.104
687.00,34.251
688.00,34.412
689.00,34.526
690.00,34.701
691.00,34.938
692.00,35.008
693.00,35.178
694.00,35.303
695.00,35.449
696.00,35.596
697.00,35.892
698.00,36.033
699.00,36.193
700.00,36.560
701.00,36.640
702.00,36.864
703.00,37.078
704.00,37.193
705.00,37.238
706.00,37.440
707.00,37.651
708.00,37.642
709.00,38.034
710.00,38.272
711.00,38.299
712.00,38.411
713.00,38.498
714.00,38.670
715.00,38.824
716.00,39.081
717.00,39.042
718.00,39.302
719.00,39.511
720.00,39.627
721.00,43.616
722.00,43.745
723.00,43.800
724.00,43.917
725.00,44.000
726.00,44.166
727.00,44.285
728.00,44.423
729.00,44.544
730.00,44.680
731.00,44.750
732.00,44.923
733.00,45.005
734.00,45.180
735.00,45.261
736.00,45.367
737.00,45.492
738.00,45.626
739.00,45.777
740.00,45.909
741.00,46.015
742.00,46.121
743.00,46.086
744.00,46.262
745.00,46.374
746.00,46.439
747.00,46.514
748.00,46.558
749.00,46.645
750.00,46.723
751.00,46.861
752.00,46.919
753.00,47.002
754.00,47.077
755.00,47.110
756.00,47.271
757.00,47.283
758.00,47.421
759.00,47.483
760.00,47.543
761.00,47.636
762.00,47.667
763.00,47.860
764.00,47.880
765.00,47.925
766.00,47.999
767.00,48.032
768.00,48.180
769.00,48.216
770.00,48.315
771.00,48.366
772.00,48.440
773.00,48.548
774.00,48.570
775.00,48.686
776.00,48.679
777.00,48.820
778.00,48.845
779.00,48.846
780.00,48.889
781.00,48.989
782.00,49.029
783.00,49.045
784.00,49.049
785.00,49.115
786.00,49.192
787.00,49.181
788.00,49.208
789.00,49.290
790.00,49.334
791.00,49.456
792.00,49.403
793.00,49.368
794.00,49.484
795.00,49.528
796.00,49.552
797.00,49.476
798.00,49.567
799.00,49.532
800.00,49.586
801.00,49.637
802.00,49.619
803.00,49.699
804.00,49.688
805.00,49.782
806.00,49.701
807.00,49.758
808.00,49.797
809.00,49.804
810.00,49.795
811.00,49.799
812.00,49.853
813.00,49.800
814.00,49.874
815.00,49.877
816.00,49.900
817.00,49.924
818.00,49.853
819.00,49.897
820.00,49.966
821.00,49.928
822.00,49.939
823.00,49.990
824.00,50.017
825.00,49.938
826.00,50.009
827.00,49.998
828.00,50.084
829.00,50.030
830.00,50.029
831.00,52.176
832.00,52.233
833.00,52.143
834.00,52.188
835.00,52.215
836.00,52.227
837.00,52.219
838.00,52.187
839.00,52.214
840.00,52.181
841.00,52.246
842.00,52.234
843.00,52.203
844.00,52.333
845.00,52.182
846.00,52.254
847.00,52.230
848.00,52.234
849.00,52.151
850.00,52.162
851.00,52.130
852.00,52.195
853.00,52.104
854.00,52.120
855.00,52.075
856.00,52.123
857.00,52.129
858.00,52.076
859.00,52.068
860.00,52.072
861.00,52.108
862.00,52.033
863.00,52.087
864.00,52.063
865.00,52.060
866.00,52.061
867.00,52.094
868.00,52.078
869.00,52.061
870.00,52.103
871.00,52.099
872.00,52.115
873.00,52.070
874.00,52.116
875.00,52.078
876.00,52.103
877.00,52.078
878.00,52.112
879.00,52.060
880.00,52.068
881.00,52.039
882.00,52.093
883.00,52.069
884.00,52.059
885.00,52.040
886.00,52.065
887.00,52.023
888.00,51.988
889.00,52.000
890.00,51.996
891.00,51.969
892.00,51.953
893.00,51.917
894.00,51.957
895.00,51.928
896.00,51.907
897.00,51.903
898.00,51.874
899.00,51.882
900.00,51.882
901.00,51.854
902.00,51.863
903.00,51.854
904.00,51.853
905.00,51.847
906.00,51.834
907.00,51.823
908.00,51.784
909.00,51.787
910.00,51.748
911.00,51.766
912.00,51.763
913.00,51.719
914.00,51.699
915.00,51.675
916.00,51.682
917.00,51.635
918.00,51.651
919.00,51.633
920.00,51.610
921.00,51.614
922.00,51.606
923.00,51.607
924.00,51.520
925.00,51.568
926.00,51.554
927.00,51.542
928.00,51.501
929.00,51.537
930.00,51.480
931.00,51.465
932.00,51.413
933.00,51.468
934.00,51.449
935.00,51.418
936.00,51.389
937.00,51.402
938.00,51.375
939.00,51.376
940.00,51.339
941.00,51.347
942.00,51.307
943.00,51.321
944.00,51.285
945.00,51.268
946.00,51.277
947.00,51.222
948.00,51.224
949.00,51.190
950.00,51.210
951.00,51.170
952.00,51.150
953.00,51.136
954.00,51.127
955.00,51.048
956.00,51.114
957.00,51.046
958.00,51.070
959.00,51.010
960.00,50.994
961.00,50.982
962.00,50.984
963.00,50.952
964.00,50.938
965.00,50.949
966.00,50.906
967.00,50.930
968.00,50.885
969.00,50.932
970.00,50.886
971.00,50.905
972.00,50.887
973.00,50.924
974.00,50.946
975.00,50.894
976.00,50.945
977.00,50.911
978.00,50.951
979.00,50.906
980.00,50.911
981.00,50.912
982.00,50.872
983.00,50.927
984.00,50.892
985.00,50.955
986.00,50.934
987.00,50.908
988.00,50.882
989.00,50.878
990.00,50.889
991.00,50.863
992.00,50.888
993.00,50.845
994.00,50.823
995.00,50.841
996.00,50.805
997.00,50.813
998.00,50.771
999.00,50.794
1000.00,50.754
1001.00,50.758
1002.00,50.761
1003.00,50.736
1004.00,50.719
1005.00,50.681
1006.00,50.730
1007.00,50.681
1008.00,50.670
1009.00,50.666
1010.00,50.650
1011.00,50.651
1012.00,50.617
1013.00,50.625
1014.00,50.588
1015.00,50.597
1016.00,50.565
1017.00,50.562
1018.00,50.554
1019.00,50.511
1020.00,50.541
1021.00,50.509
1022.00,50.514
1023.00,50.459
1024.00,50.473
1025.00,50.465
1026.00,50.433
1027.00,50.408
1028.00,50.403
1029.00,50.387
1030.00,50.357
1031.00,50.380
1032.00,50.351
1033.00,50.340
1034.00,50.299
1035.00,50.259
1036.00,50.251
1037.00,50.226
1038.00,50.211
1039.00,50.193
1040.00,50.181
1041.00,50.145
1042.00,50.153
1043.00,50.129
1044.00,50.165
1045.00,50.147
1046.00,50.131
1047.00,50.168
1048.00,50.165
1049.00,50.184
1050.00,50.177
1051.00,50.218
1052.00,50.202
1053.00,50.204
1054.00,50.193
1055.00,50.229
1056.00,50.246
1057.00,50.242
1058.00,50.235
1059.00,50.217
1060.00,50.230
1061.00,50.214
1062.00,50.189
1063.00,50.205
1064.00,50.199
1065.00,50.159
1066.00,50.179
1067.00,50.160
1068.00,50.181
1069.00,50.135
1070.00,50.130
1071.00,50.117
1072.00,50.128
1073.00,50.113
1074.00,50.109
1075.00,50.101
1076.00,50.084
1077.00,50.082
1078.00,50.056
1079.00,50.047
1080.00,50.046
1081.00,50.032
1082.00,50.018
1083.00,50.021
1084.00,50.007
1085.00,50.012
1086.00,50.016
1087.00,50.009
1088.00,49.974
1089.00,49.977
1090.00,49.973
1091.00,49.977
1092.00,49.947
1093.00,49.940
1094.00,49.916
1095.00,49.907
1096.00,49.902
1097.00,49.907
1098.00,49.890
1099.00,49.894
1100.00,49.885
1101.00,49.872
1102.00,49.851
1103.00,49.852
1104.00,49.838
1105.00,49.817
1106.00,49.809
1107.00,49.829
1108.00,49.812
1109.00,49.779
1110.00,49.798
1111.00,49.803
1112.00,49.765
1113.00,49.759
1114.00,49.771
1115.00,49.753
1116.00,49.737
1117.00,49.733
1118.00,49.725
1119.00,49.722
1120.00,49.706
1121.00,49.728
1122.00,49.691
1123.00,49.673
1124.00,49.693
1125.00,49.684
1126.00,49.654
1127.00,49.673
1128.00,49.647
1129.00,49.642
1130.00,49.624
1131.00,49.637
1132.00,49.620
1133.00,49.612
1134.00,49.607
1135.00,49.605
1136.00,49.568
1137.00,49.570
1138.00,49.588
1139.00,49.591
1140.00,49.559
1141.00,49.568
1142.00,49.571
1143.00,49.571
1144.00,49.545
1145.00,49.567
1146.00,49.565
1147.00,49.528
1148.00,49.528
1149.00,49.556
1150.00,49.537
1151.00,49.517
1152.00,49.520
1153.00,49.529
1154.00,49.495
1155.00,49.502
1156.00,49.490
1157.00,49.514
1158.00,49.491
1159.00,49.502
1160.00,49.510
1161.00,49.484
1162.00,49.493
1163.00,49.494
1164.00,49.492
1165.00,49.467
1166.00,49.471
1167.00,49.479
1168.00,49.481
1169.00,49.485
1170.00,49.483
1171.00,49.461
1172.00,49.464
1173.00,49.460
1174.00,49.475
1175.00,49.455
1176.00,49.466
1177.00,49.451
1178.00,49.443
1179.00,49.461
1180.00,49.442
1181.00,49.467
1182.00,49.455
1183.00,49.453
1184.00,49.426
1185.00,49.441
1186.00,49.433
1187.00,49.434
1188.00,49.438
1189.00,49.415
1190.00,49.422
1191.00,49.412
1192.00,49.437
1193.00,49.422
1194.00,49.425
1195.00,49.412
1196.00,49.447
1197.00,49.434
1198.00,49.410
1199.00,49.421
1200.00,49.420
1201.00,49.435
1202.00,49.408
1203.00,49.412
1204.00,49.412
1205.00,49.418
1206.00,49.417
1207.00,49.417
1208.00,49.391
1209.00,49.398
1210.00,49.405
1211.00,49.395
1212.00,49.411
1213.00,49.355
1214.00,49.389
1215.00,49.384
1216.00,49.384
1217.00,49.394
1218.00,49.379
1219.00,49.394
1220.00,49.360
1221.00,49.386
1222.00,49.369
1223.00,49.387
1224.00,49.364
1225.00,49.360
1226.00,49.378
1227.00,49.367
1228.00,49.387
1229.00,49.383
1230.00,49.417
1231.00,49.420
1232.00,49.428
1233.00,49.433
1234.00,49.440
1235.00,49.438
1236.00,49.428
1237.00,49.432
1238.00,49.421
1239.00,49.439
1240.00,49.433
1241.00,49.435
1242.00,49.442
1243.00,49.441
1244.00,49.418
1245.00,49.443
1246.00,49.445
1247.00,49.442
1248.00,49.450
1249.00,49.455
1250.00,49.445
1251.00,49.451
1252.00,49.455
1253.00,49.443
1254.00,49.470
1255.00,49.452
1256.00,49.438
1257.00,49.413
1258.00,49.465
1259.00,49.449
1260.00,49.471
1261.00,49.469
1262.00,49.459
1263.00,49.453
1264.00,49.465
1265.00,49.480
1266.00,49.470
1267.00,49.486
1268.00,49.483
1269.00,49.492
1270.00,49.510
1271.00,49.500
1272.00,49.515
1273.00,49.530
1274.00,49.516
1275.00,49.535
1276.00,49.532
1277.00,49.524
1278.00,49.535
1279.00,49.535
1280.00,49.534
1281.00,49.548
1282.00,49.554
1283.00,49.541
1284.00,49.555
1285.00,49.544
1286.00,49.556
1287.00,49.552
1288.00,49.564
1289.00,49.563
1290.00,49.581
1291.00,49.579
1292.00,49.585
1293.00,49.594
1294.00,49.599
1295.00,49.611
1296.00,49.611
1297.00,49.610
1298.00,49.631
1299.00,49.603
1300.00,49.622
1301.00,49.604
1302.00,49.621
1303.00,49.646
1304.00,49.625
1305.00,49.650
1306.00,49.655
1307.00,49.654
1308.00,49.658
1309.00,49.658
1310.00,49.669
1311.00,49.655
1312.00,49.653
1313.00,49.663
1314.00,49.684
1315.00,49.685
1316.00,49.686
1317.00,49.716
1318.00,49.699
1319.00,49.721
1320.00,49.723
1321.00,49.867
1322.00,49.869
1323.00,49.857
1324.00,49.847
1325.00,49.844
1326.00,49.863
1327.00,49.852
1328.00,49.828
1329.00,49.873
1330.00,49.869
1331.00,49.846
1332.00,49.847
1333.00,49.861
1334.00,49.890
1335.00,49.895
1336.00,49.919
1337.00,49.950
1338.00,50.012
1339.00,50.043
1340.00,50.108
1341.00,50.173
1342.00,50.240
1343.00,50.286
1344.00,50.337
1345.00,50.391
1346.00,50.433
1347.00,50.462
1348.00,50.496
1349.00,50.490
1350.00,50.545
1351.00,50.521
1352.00,50.543
1353.00,50.544
1354.00,50.541
1355.00,50.503
1356.00,50.558
1357.00,50.553
1358.00,50.578
1359.00,50.588
1360.00,50.534
1361.00,50.545
1362.00,50.524
1363.00,50.639
1364.00,50.639
1365.00,50.613
1366.00,50.876
1367.00,50.593
1368.00,50.571
1369.00,50.611
1370.00,50.553
1371.00,50.638
1372.00,50.622
1373.00,50.543
1374.00,50.562
1375.00,50.530
1376.00,50.535
1377.00,50.555
1378.00,50.791
1379.00,50.505
1380.00,50.575
1381.00,50.568
1382.00,50.467
1383.00,50.557
1384.00,50.494
1385.00,50.512
1386.00,50.555
1387.00,50.531
1388.00,50.436
1389.00,50.511
1390.00,50.547
1391.00,50.528
1392.00,50.520
1393.00,50.489
1394.00,50.494
1395.00,50.500
1396.00,50.452
1397.00,50.491
1398.00,50.530
1399.00,50.512
1400.00,50.498
1401.00,50.506
1402.00,50.558
1403.00,50.498
1404.00,50.543
1405.00,50.563
1406.00,50.578
1407.00,50.582
1408.00,50.547
1409.00,50.563
1410.00,50.587
1411.00,50.601
1412.00,50.762
1413.00,50.617
1414.00,50.584
1415.00,50.608
1416.00,50.634
1417.00,50.650
1418.00,50.627
1419.00,50.640
1420.00,50.667
1421.00,50.707
1422.00,50.694
1423.00,50.717
1424.00,50.714
1425.00,50.732
1426.00,50.749
1427.00,50.765
1428.00,50.770
1429.00,50.785
1430.00,50.801
1431.00,50.808
1432.00,50.822
1433.00,50.852
1434.00,50.829
1435.00,50.899
1436.00,50.896
1437.00,50.900
1438.00,50.910
1439.00,50.943
1440.00,50.956
1441.00,50.948
1442.00,50.965
1443.00,51.002
1444.00,51.024
1445.00,50.997
1446.00,51.022
1447.00,51.050
1448.00,51.082
1449.00,51.077
1450.00,51.077
1451.00,51.095
1452.00,51.116
1453.00,51.119
1454.00,51.137
1455.00,51.161
1456.00,51.192
1457.00,51.170
1458.00,51.200
1459.00,51.220
1460.00,51.237
1461.00,51.241
1462.00,51.265
1463.00,51.273
1464.00,51.282
1465.00,51.297
1466.00,51.302
1467.00,51.325
1468.00,51.359
1469.00,51.338
1470.00,51.351
1471.00,51.364
1472.00,51.380
1473.00,51.400
1474.00,51.419
1475.00,51.438
1476.00,51.444
1477.00,51.431
1478.00,51.449
1479.00,51.479
1480.00,51.471
1481.00,51.490
1482.00,51.522
1483.00,51.516
1484.00,51.540
1485.00,51.552
1486.00,51.564
1487.00,51.587
1488.00,51.594
1489.00,51.599
1490.00,51.617
1491.00,51.621
1492.00,51.632
1493.00,51.631
1494.00,51.662
1495.00,51.659
1496.00,51.682
1497.00,51.673
1498.00,51.679
1499.00,51.697
1500.00,51.713
1501.00, 
1502.00, 
1503.00, 
1504.00, 
1505.00, 
1506.00, 
1507.00, 
1508.00, 
1509.00, 
1510.00, 
1511.00, 
1512.00, 
1513.00, 
1514.00, 
1515.00, 
1516.00, 
1517.00, 
1518.00, 
1519.00, 
1520.00, 
1521.00, 
1522.00, 
1523.00, 
1524.00, 
1525.00, 
1526.00, 
1527.00, 
1528.00, 
1529.00, 
1530.00, 
1531.00, 
1532.00, 
1533.00, 
1534.00, 
1535.00, 
1536.00, 
1537.00, 
1538.00, 
1539.00, 
1540.00, 
1541.00, 
1542.00, 
1543.00, 
1544.00, 
1545.00, 
1546.00, 
1547.00, 
1548.00, 
1549.00, 
1550.00, 
1551.00, 
1552.00, 
1553.00, 
1554.00, 
1555.00, 
1556.00, 
1557.00, 
1558.00, 
1559.00, 
1560.00, 
1561.00, 
1562.00, 
1563.00, 
1564.00, 
1565.00, 
1566.00, 
1567.00, 
1568.00, 
1569.00, 
1570.00, 
1571.00, 
1572.00, 
1573.00, 
1574.00, 
1575.00, 
1576.00, 
1577.00, 
1578.00, 
1579.00, 
1580.00, 
1581.00, 
1582.00, 
1583.00, 
1584.00, 
1585.00, 
1586.00, 
1587.00, 
1588.00, 
1589.00, 
1590.00, 
1591.00, 
1592.00, 
1593.00, 
1594.00, 
1595.00, 
1596.00, 
1597.00, 
1598.00, 
1599.00, 
1600.00, 
1601.00, 
1602.00, 
1603.00, 
1604.00, 
1605.00, 
1606.00, 
1607.00, 
1608.00, 
1609.00, 
1610.00, 
1611.00, 
1612.00, 
1613.00, 
1614.00, 
1615.00, 
1616.00, 
1617.00, 
1618.00, 
1619.00, 
1620.00, 
1621.00, 
1622.00, 
1623.00, 
1624.00, 
1625.00, 
1626.00, 
1627.00, 
1628.00, 
1629.00, 
1630.00, 
1631.00, 
1632.00, 
1633.00, 
1634.00, 
1635.00, 
1636.00, 
1637.00, 
1638.00, 
1639.00, 
1640.00, 
1641.00, 
1642.00, 
1643.00, 
1644.00, 
1645.00, 
1646.00, 
1647.00, 
1648.00, 
1649.00, 
1650.00, 
1651.00, 
1652.00, 
1653.00, 
1654.00, 
1655.00, 
1656.00, 
1657.00, 
1658.00, 
1659.00, 
1660.00, 
1661.00, 
1662.00, 
1663.00, 
1664.00, 
1665.00, 
1666.00, 
1667.00, 
1668.00, 
1669.00, 
1670.00, 
1671.00, 
1672.00, 
1673.00, 
1674.00, 
1675.00, 
1676.00, 
1677.00, 
1678.00, 
1679.00, 
1680.00, 
1681.00, 
1682.00, 
1683.00, 
1684.00, 
1685.00, 
1686.00, 
1687.00, 
1688.00, 
1689.00, 
1690.00, 
1691.00, 
1692.00, 
1693.00, 
1694.00, 
1695.00, 
1696.00, 
1697.00, 
1698.00, 
1699.00, 
1700.00, 
1701.00, 
1702.00, 
1703.00, 
1704.00, 
1705.00, 
1706.00, 
1707.00, 
1708.00, 
1709.00, 
1710.00, 
1711.00, 
1712.00, 
1713.00, 
1714.00, 
1715.00, 
1716.00, 
1717.00, 
1718.00, 
1719.00, 
1720.00, 
1721.00, 
1722.00, 
1723.00, 
1724.00, 
1725.00, 
1726.00, 
1727.00, 
1728.00, 
1729.00, 
1730.00, 
1731.00, 
1732.00, 
1733.00, 
1734.00, 
1735.00, 
1736.00, 
1737.00, 
1738.00, 
1739.00, 
1740.00, 
1741.00, 
1742.00, 
1743.00, 
1744.00, 
1745.00, 
1746.00, 
1747.00, 
1748.00, 
1749.00, 
1750.00, 
1751.00, 
1752.00, 
1753.00, 
1754.00, 
1755.00, 
1756.00, 
1757.00, 
1758.00, 
1759.00, 
1760.00, 
1761.00, 
1762.00, 
1763.00, 
1764.00, 
1765.00, 
1766.00, 
1767.00, 
1768.00, 
1769.00, 
1770.00, 
1771.00, 
1772.00, 
1773.00, 
1774.00, 
1775.00, 
1776.00, 
1777.00, 
1778.00, 
1779.00, 
1780.00, 
1781.00, 
1782.00, 
1783.00, 
1784.00, 
1785.00, 
1786.00, 
1787.00, 
1788.00, 
1789.00, 
1790.00, 
1791.00, 
1792.00, 
1793.00, 
1794.00, 
1795.00, 
1796.00, 
1797.00, 
1798.00, 
1799.00, 
1800.00, 
1801.00, 
1802.00, 
1803.00, 
1804.00, 
1805.00, 
1806.00, 
1807.00, 
1808.00, 
1809.00, 
1810.00, 
1811.00, 
1812.00, 
1813.00, 
1814.00, 
1815.00, 
1816.00, 
1817.00, 
1818.00, 
1819.00, 
1820.00, 
1821.00, 
1822.00, 
1823.00, 
1824.00, 
1825.00, 
1826.00, 
1827.00, 
1828.00, 
1829.00, 
1830.00, 
1831.00, 
1832.00, 
1833.00, 
1834.00, 
1835.00, 
1836.00, 
1837.00, 
1838.00, 
1839.00, 
1840.00, 
1841.00, 
1842.00, 
1843.00, 
1844.00, 
1845.00, 
1846.00, 
1847.00, 
1848.00, 
1849.00, 
1850.00, 
1851.00, 
1852.00, 
1853.00, 
1854.00, 
1855.00, 
1856.00, 
1857.00, 
1858.00, 
1859.00, 
1860.00, 
1861.00, 
1862.00, 
1863.00, 
1864.00, 
1865.00, 
1866.00, 
1867.00, 
1868.00, 
1869.00, 
1870.00, 
1871.00, 
1872.00, 
1873.00, 
1874.00, 
1875.00, 
1876.00, 
1877.00, 
1878.00, 
1879.00, 
1880.00, 
1881.00, 
1882.00, 
1883.00, 
1884.00, 
1885.00, 
1886.00, 
1887.00, 
1888.00, 
1889.00, 
1890.00, 
1891.00, 
1892.00, 
1893.00, 
1894.00, 
1895.00, 
1896.00, 
1897.00, 
1898.00, 
1899.00, 
1900.00, 
1901.00, 
1902.00, 
1903.00, 
1904.00, 
1905.00, 
1906.00, 
1907.00, 
1908.00, 
1909.00, 
1910.00, 
1911.00, 
1912.00, 
1913.00, 
1914.00, 
1915.00, 
1916.00, 
1917.00, 
1918.00, 
1919.00, 
1920.00, 
1921.00, 
1922.00, 
1923.00, 
1924.00, 
1925.00, 
1926.00, 
1927.00, 
1928.00, 
1929.00, 
1930.00, 
1931.00, 
1932.00, 
1933.00, 
1934.00, 
1935.00, 
1936.00, 
1937.00, 
1938.00, 
1939.00, 
1940.00, 
1941.00, 
1942.00, 
1943.00, 
1944.00, 
1945.00, 
1946.00, 
1947.00, 
1948.00, 
1949.00, 
1950.00, 
1951.00, 
1952.00, 
1953.00, 
1954.00, 
1955.00, 
1956.00, 
1957.00, 
1958.00, 
1959.00, 
1960.00, 
1961.00, 
1962.00, 
1963.00, 
1964.00, 
1965.00, 
1966.00, 
1967.00, 
1968.00, 
1969.00, 
1970.00, 
1971.00, 
1972.00, 
1973.00, 
1974.00, 
1975.00, 
1976.00, 
1977.00, 
1978.00, 
1979.00, 
1980.00, 
1981.00, 
1982.00, 
1983.00, 
1984.00, 
1985.00, 
1986.00, 
1987.00, 
1988.00, 
1989.00, 
1990.00, 
1991.00, 
1992.00, 
1993.00, 
1994.00, 
1995.00, 
1996.00, 
1997.00, 
1998.00, 
1999.00, 
2000.00, 
2001.00, 
2002.00, 
2003.00, 
2004.00, 
2005.00, 
2006.00, 
2007.00, 
2008.00, 
2009.00, 
2010.00, 
2011.00, 
2012.00, 
2013.00, 
2014.00, 
2015.00, 
2016.00, 
2017.00, 
2018.00, 
2019.00, 
2020.00, 
2021.00, 
2022.00, 
2023.00, 
2024.00, 
2025.00, 
2026.00, 
2027.00, 
2028.00, 
2029.00, 
2030.00, 
2031.00, 
2032.00, 
2033.00, 
2034.00, 
2035.00, 
2036.00, 
2037.00, 
2038.00, 
2039.00, 
2040.00, 
2041.00, 
2042.00, 
2043.00, 
2044.00, 
2045.00, 
2046.00, 
2047.00, 
2048.00, 
2049.00, 
2050.00, 
2051.00, 
2052.00, 
2053.00, 
2054.00, 
2055.00, 
2056.00, 
2057.00, 
2058.00, 
2059.00, 
2060.00, 
2061.00, 
2062.00, 
2063.00, 
2064.00, 
2065.00, 
2066.00, 
2067.00, 
2068.00, 
2069.00, 
2070.00, 
2071.00, 
2072.00, 
2073.00, 
2074.00, 
2075.00, 
2076.00, 
2077.00, 
2078.00, 
2079.00, 
2080.00, 
2081.00, 
2082.00, 
2083.00, 
2084.00, 
2085.00, 
2086.00, 
2087.00, 
2088.00, 
2089.00, 
2090.00, 
2091.00, 
2092.00, 
2093.00, 
2094.00, 
2095.00, 
2096.00, 
2097.00, 
2098.00, 
2099.00, 
2100.00, 
2101.00, 
2102.00, 
2103.00, 
2104.00, 
2105.00, 
2106.00, 
2107.00, 
2108.00, 
2109.00, 
2110.00, 
2111.00, 
2112.00, 
2113.00, 
2114.00, 
2115.00, 
2116.00, 
2117.00, 
2118.00, 
2119.00, 
2120.00, 
2121.00, 
2122.00, 
2123.00, 
2124.00, 
2125.00, 
2126.00, 
2127.00, 
2128.00, 
2129.00, 
2130.00, 
2131.00, 
2132.00, 
2133.00, 
2134.00, 
2135.00, 
2136.00, 
2137.00, 
2138.00, 
2139.00, 
2140.00, 
2141.00, 
2142.00, 
2143.00, 
2144.00, 
2145.00, 
2146.00, 
2147.00, 
2148.00, 
2149.00, 
2150.00, 
2151.00, 
2152.00, 
2153.00, 
2154.00, 
2155.00, 
2156.00, 
2157.00, 
2158.00, 
2159.00, 
2160.00, 
2161.00, 
2162.00, 
2163.00, 
2164.00, 
2165.00, 
2166.00, 
2167.00, 
2168.00, 
2169.00, 
2170.00, 
2171.00, 
2172.00, 
2173.00, 
2174.00, 
2175.00, 
2176.00, 
2177.00, 
2178.00, 
2179.00, 
2180.00, 
2181.00, 
2182.00, 
2183.00, 
2184.00, 
2185.00, 
2186.00, 
2187.00, 
2188.00, 
2189.00, 
2190.00, 
2191.00, 
2192.00, 
2193.00, 
2194.00, 
2195.00, 
2196.00, 
2197.00, 
2198.00, 
2199.00, 
2200.00, 
2201.00, 
2202.00, 
2203.00, 
2204.00, 
2205.00, 
2206.00, 
2207.00, 
2208.00, 
2209.00, 
2210.00, 
2211.00, 
2212.00, 
2213.00, 
2214.00, 
2215.00, 
2216.00, 
2217.00, 
2218.00, 
2219.00, 
2220.00, 
2221.00, 
2222.00, 
2223.00, 
2224.00, 
2225.00, 
2226.00, 
2227.00, 
2228.00, 
2229.00, 
2230.00, 
2231.00, 
2232.00, 
2233.00, 
2234.00, 
2235.00, 
2236.00, 
2237.00, 
2238.00, 
2239.00, 
2240.00, 
2241.00, 
2242.00, 
2243.00, 
2244.00, 
2245.00, 
2246.00, 
2247.00, 
2248.00, 
2249.00, 
2250.00, 
2251.00, 
2252.00, 
2253.00, 
2254.00, 
2255.00, 
2256.00, 
2257.00, 
2258.00, 
2259.00, 
2260.00, 
2261.00, 
2262.00, 
2263.00, 
2264.00, 
2265.00, 
2266.00, 
2267.00, 
2268.00, 
2269.00, 
2270.00, 
2271.00, 
2272.00, 
2273.00, 
2274.00, 
2275.00, 
2276.00, 
2277.00, 
2278.00, 
2279.00, 
2280.00, 
2281.00, 
2282.00, 
2283.00, 
2284.00, 
2285.00, 
2286.00, 
2287.00, 
2288.00, 
2289.00, 
2290.00, 
2291.00, 
2292.00, 
2293.00, 
2294.00, 
2295.00, 
2296.00, 
2297.00, 
2298.00, 
2299.00, 
2300.00, 
2301.00, 
2302.00, 
2303.00, 
2304.00, 
2305.00, 
2306.00, 
2307.00, 
2308.00, 
2309.00, 
2310.00, 
2311.00, 
2312.00, 
2313.00, 
2314.00, 
2315.00, 
2316.00, 
2317.00, 
2318.00, 
2319.00, 
2320.00, 
2321.00, 
2322.00, 
2323.00, 
2324.00, 
2325.00, 
2326.00, 
2327.00, 
2328.00, 
2329.00, 
2330.00, 
2331.00, 
2332.00, 
2333.00, 
2334.00, 
2335.00, 
2336.00, 
2337.00, 
2338.00, 
2339.00, 
2340.00, 
2341.00, 
2342.00, 
2343.00, 
2344.00, 
2345.00, 
2346.00, 
2347.00, 
2348.00, 
2349.00, 
2350.00, 
2351.00, 
2352.00, 
2353.00, 
2354.00, 
2355.00, 
2356.00, 
2357.00, 
2358.00, 
2359.00, 
2360.00, 
2361.00, 
2362.00, 
2363.00, 
2364.00, 
2365.00, 
2366.00, 
2367.00, 
2368.00, 
2369.00, 
2370.00, 
2371.00, 
2372.00, 
2373.00, 
2374.00, 
2375.00, 
2376.00, 
2377.00, 
2378.00, 
2379.00, 
2380.00, 
2381.00, 
2382.00, 
2383.00, 
2384.00, 
2385.00, 
2386.00, 
2387.00, 
2388.00, 
2389.00, 
2390.00, 
2391.00, 
2392.00, 
2393.00, 
2394.00, 
2395.00, 
2396.00, 
2397.00, 
2398.00, 
2399.00, 
2400.00, 
2401.00, 
2402.00, 
2403.00, 
2404.00, 
2405.00, 
2406.00, 
2407.00, 
2408.00, 
2409.00, 
2410.00, 
2411.00, 
2412.00, 
2413.00, 
2414.00, 
2415.00, 
2416.00, 
2417.00, 
2418.00, 
2419.00, 
2420.00, 
2421.00, 
2422.00, 
2423.00, 
2424.00, 
2425.00, 
2426.00, 
2427.00, 
2428.00, 
2429.00, 
2430.00, 
2431.00, 
2432.00, 
2433.00, 
2434.00, 
2435.00, 
2436.00, 
2437.00, 
2438.00, 
2439.00, 
2440.00, 
2441.00, 
2442.00, 
2443.00, 
2444.00, 
2445.00, 
2446.00, 
2447.00, 
2448.00, 
2449.00, 
2450.00, 
2451.00, 
2452.00, 
2453.00, 
2454.00, 
2455.00, 
2456.00, 
2457.00, 
2458.00, 
2459.00, 
2460.00, 
2461.00, 
2462.00, 
2463.00, 
2464.00, 
2465.00, 
2466.00, 
2467.00, 
2468.00, 
2469.00, 
2470.00, 
2471.00, 
2472.00, 
2473.00, 
2474.00, 
2475.00, 
2476.00, 
2477.00, 
2478.00, 
2479.00, 
2480.00, 
2481.00, 
2482.00, 
2483.00, 
2484.00, 
2485.00, 
2486.00, 
2487.00, 
2488.00, 
2489.00, 
2490.00, 
2491.00, 
2492.00, 
2493.00, 
2494.00, 
2495.00, 
2496.00, 
2497.00, 
2498.00, 
2499.00, 
2500.00, 
2501.00, 
2502.00, 
2503.00, 
2504.00, 
2505.00, 
2506.00, 
2507.00, 
2508.00, 
2509.00, 
2510.00, 
2511.00, 
2512.00, 
2513.00, 
2514.00, 
2515.00, 
2516.00, 
2517.00, 
2518.00, 
2519.00, 
2520.00, 
2521.00, 
2522.00, 
2523.00, 
2524.00, 
2525.00, 
2526.00, 
2527.00, 
2528.00, 
2529.00, 
2530.00, 
2531.00, 
2532.00, 
2533.00, 
2534.00, 
2535.00, 
2536.00, 
2537.00, 
2538.00, 
2539.00, 
2540.00, 
2541.00, 
2542.00, 
2543.00, 
2544.00, 
2545.00, 
2546.00, 
2547.00, 
2548.00, 
2549.00, 
2550.00, 
2551.00, 
2552.00, 
2553.00, 
2554.00, 
2555.00, 
2556.00, 
2557.00, 
2558.00, 
2559.00, 
2560.00, 
2561.00, 
2562.00, 
2563.00, 
2564.00, 
2565.00, 
2566.00, 
2567.00, 
2568.00, 
2569.00, 
2570.00, 
2571.00, 
2572.00, 
2573.00, 
2574.00, 
2575.00, 
2576.00, 
2577.00, 
2578.00, 
2579.00, 
2580.00, 
2581.00, 
2582.00, 
2583.00, 
2584.00, 
2585.00, 
2586.00, 
2587.00, 
2588.00, 
2589.00, 
2590.00, 
2591.00, 
2592.00, 
2593.00, 
2594.00, 
2595.00, 
2596.00, 
2597.00, 
2598.00, 
2599.00, 
2600.00, 
