"1bP2 - RawData"
"Wavelength nm.","T%"
200.00,-0.000
201.00,0.002
202.00,-0.002
203.00,0.005
204.00,-0.001
205.00,0.002
206.00,0.001
207.00,0.003
208.00,0.003
209.00,0.000
210.00,0.001
211.00,0.002
212.00,-0.001
213.00,0.002
214.00,0.002
215.00,0.001
216.00,0.002
217.00,0.001
218.00,0.002
219.00,-0.002
220.00,0.002
221.00,0.001
222.00,0.003
223.00,-0.002
224.00,0.001
225.00,-0.002
226.00,-0.001
227.00,0.001
228.00,0.001
229.00,0.001
230.00,0.001
231.00,0.001
232.00,0.001
233.00,-0.001
234.00,0.001
235.00,0.003
236.00,-0.001
237.00,-0.001
238.00,0.001
239.00,-0.002
240.00,-0.001
241.00,0.001
242.00,0.001
243.00,0.002
244.00,-0.000
245.00,0.001
246.00,-0.000
247.00,-0.002
248.00,0.001
249.00,0.001
250.00,0.001
251.00,0.002
252.00,0.002
253.00,0.002
254.00,0.002
255.00,-0.001
256.00,0.001
257.00,-0.000
258.00,0.001
259.00,0.001
260.00,0.002
261.00,-0.001
262.00,0.002
263.00,0.002
264.00,0.000
265.00,0.001
266.00,-0.001
267.00,0.001
268.00,0.001
269.00,0.002
270.00,0.000
271.00,0.001
272.00,0.000
273.00,-0.000
274.00,0.000
275.00,0.000
276.00,0.001
277.00,-0.000
278.00,0.000
279.00,-0.001
280.00,0.001
281.00,0.001
282.00,-0.000
283.00,-0.001
284.00,0.000
285.00,0.001
286.00,0.000
287.00,-0.001
288.00,0.003
289.00,-0.000
290.00,0.000
291.00,-0.001
292.00,-0.002
293.00,-0.001
294.00,-0.000
295.00,-0.001
296.00,0.001
297.00,0.003
298.00,0.002
299.00,0.003
300.00,0.004
301.00,0.006
302.00,0.009
303.00,0.014
304.00,0.022
305.00,0.034
306.00,0.052
307.00,0.076
308.00,0.118
309.00,0.188
310.00,0.255
311.00,0.350
312.00,0.468
313.00,0.632
314.00,0.809
315.00,1.055
316.00,1.325
317.00,1.679
318.00,2.056
319.00,2.513
320.00,3.012
321.00,3.576
322.00,4.134
323.00,4.807
324.00,5.618
325.00,6.373
326.00,7.125
327.00,7.969
328.00,8.845
329.00,9.691
330.00,10.619
331.00,11.534
332.00,12.423
333.00,13.396
334.00,14.286
335.00,15.200
336.00,16.111
337.00,17.012
338.00,17.893
339.00,18.668
340.00,19.522
341.00,20.280
342.00,21.021
343.00,21.756
344.00,22.355
345.00,23.100
346.00,23.677
347.00,24.238
348.00,24.802
349.00,25.295
350.00,25.740
351.00,26.223
352.00,26.607
353.00,26.966
354.00,27.320
355.00,27.646
356.00,27.992
357.00,28.231
358.00,28.483
359.00,28.764
360.00,29.035
361.00,29.190
362.00,29.403
363.00,29.560
364.00,29.691
365.00,29.727
366.00,29.916
367.00,30.071
368.00,30.126
369.00,30.139
370.00,30.233
371.00,30.293
372.00,30.235
373.00,30.239
374.00,30.260
375.00,30.223
376.00,30.156
377.00,30.064
378.00,30.087
379.00,29.978
380.00,29.932
381.00,29.971
382.00,29.937
383.00,29.936
384.00,29.982
385.00,30.061
386.00,30.045
387.00,30.125
388.00,30.223
389.00,30.261
390.00,30.214
391.00,30.283
392.00,30.301
393.00,30.407
394.00,30.390
395.00,30.425
396.00,30.423
397.00,30.447
398.00,30.444
399.00,30.487
400.00,30.482
401.00,30.503
402.00,30.488
403.00,30.420
404.00,30.420
405.00,30.397
406.00,30.420
407.00,30.355
408.00,30.396
409.00,30.298
410.00,30.227
411.00,30.263
412.00,30.173
413.00,30.278
414.00,30.173
415.00,30.158
416.00,30.200
417.00,30.175
418.00,30.215
419.00,30.299
420.00,30.331
421.00,30.385
422.00,30.414
423.00,30.405
424.00,30.454
425.00,30.555
426.00,30.487
427.00,30.555
428.00,30.618
429.00,30.625
430.00,30.650
431.00,30.693
432.00,30.744
433.00,30.830
434.00,30.842
435.00,30.902
436.00,30.968
437.00,31.046
438.00,31.076
439.00,31.159
440.00,31.251
441.00,31.304
442.00,31.404
443.00,31.457
444.00,31.531
445.00,31.585
446.00,31.695
447.00,31.777
448.00,31.877
449.00,31.934
450.00,32.070
451.00,32.146
452.00,32.191
453.00,32.320
454.00,32.402
455.00,32.464
456.00,32.608
457.00,32.743
458.00,32.795
459.00,32.886
460.00,33.035
461.00,33.087
462.00,33.268
463.00,33.400
464.00,33.523
465.00,33.637
466.00,33.715
467.00,33.825
468.00,33.951
469.00,34.039
470.00,34.103
471.00,34.194
472.00,34.302
473.00,34.343
474.00,34.448
475.00,34.549
476.00,34.631
477.00,34.769
478.00,34.835
479.00,35.002
480.00,35.085
481.00,35.219
482.00,35.358
483.00,35.449
484.00,35.645
485.00,35.721
486.00,35.866
487.00,36.001
488.00,36.116
489.00,36.326
490.00,36.426
491.00,36.483
492.00,36.699
493.00,36.823
494.00,36.822
495.00,36.957
496.00,37.097
497.00,37.154
498.00,37.333
499.00,37.422
500.00,37.549
501.00,37.604
502.00,37.749
503.00,37.843
504.00,37.902
505.00,37.992
506.00,38.139
507.00,38.170
508.00,38.247
509.00,38.425
510.00,38.537
511.00,38.560
512.00,38.711
513.00,38.863
514.00,38.929
515.00,39.060
516.00,39.151
517.00,39.208
518.00,39.369
519.00,39.371
520.00,39.399
521.00,39.486
522.00,39.559
523.00,39.576
524.00,39.676
525.00,39.770
526.00,39.840
527.00,39.887
528.00,39.973
529.00,40.114
530.00,40.158
531.00,40.375
532.00,40.422
533.00,40.520
534.00,40.580
535.00,40.617
536.00,40.654
537.00,40.720
538.00,40.780
539.00,40.808
540.00,40.904
541.00,40.912
542.00,40.962
543.00,40.947
544.00,41.071
545.00,41.099
546.00,41.122
547.00,41.203
548.00,41.295
549.00,41.365
550.00,41.406
551.00,41.524
552.00,41.528
553.00,41.552
554.00,41.648
555.00,41.653
556.00,41.693
557.00,41.744
558.00,41.780
559.00,41.813
560.00,41.917
561.00,41.992
562.00,42.056
563.00,42.055
564.00,42.061
565.00,42.122
566.00,42.123
567.00,42.123
568.00,42.173
569.00,42.221
570.00,42.243
571.00,42.260
572.00,42.282
573.00,42.233
574.00,42.268
575.00,42.279
576.00,42.254
577.00,42.292
578.00,42.404
579.00,42.505
580.00,42.439
581.00,42.573
582.00,42.683
583.00,42.726
584.00,42.797
585.00,42.820
586.00,42.928
587.00,42.926
588.00,42.919
589.00,42.887
590.00,42.972
591.00,42.998
592.00,42.939
593.00,43.021
594.00,43.065
595.00,43.135
596.00,43.214
597.00,43.278
598.00,43.301
599.00,43.297
600.00,43.314
601.00,43.330
602.00,43.345
603.00,43.371
604.00,43.325
605.00,43.484
606.00,43.477
607.00,43.342
608.00,43.553
609.00,43.650
610.00,43.557
611.00,43.596
612.00,43.604
613.00,43.682
614.00,43.723
615.00,43.746
616.00,43.814
617.00,43.838
618.00,43.834
619.00,43.856
620.00,43.891
621.00,43.947
622.00,44.031
623.00,44.113
624.00,44.167
625.00,44.110
626.00,44.224
627.00,44.211
628.00,44.212
629.00,44.246
630.00,44.257
631.00,44.327
632.00,44.388
633.00,44.417
634.00,44.544
635.00,44.610
636.00,44.655
637.00,44.644
638.00,44.697
639.00,44.783
640.00,44.795
641.00,44.780
642.00,44.892
643.00,44.968
644.00,45.002
645.00,45.056
646.00,45.168
647.00,45.119
648.00,45.232
649.00,45.278
650.00,45.214
651.00,45.269
652.00,45.417
653.00,45.402
654.00,45.405
655.00,45.570
656.00,45.742
657.00,45.665
658.00,45.772
659.00,45.905
660.00,45.865
661.00,45.929
662.00,45.956
663.00,45.969
664.00,46.178
665.00,46.294
666.00,46.257
667.00,46.320
668.00,46.220
669.00,46.534
670.00,46.672
671.00,46.549
672.00,46.644
673.00,46.742
674.00,46.641
675.00,46.724
676.00,46.939
677.00,46.912
678.00,46.680
679.00,47.322
680.00,47.117
681.00,47.281
682.00,47.117
683.00,47.121
684.00,47.385
685.00,47.358
686.00,47.235
687.00,47.348
688.00,47.513
689.00,47.384
690.00,47.553
691.00,47.839
692.00,47.643
693.00,47.604
694.00,47.742
695.00,47.833
696.00,47.957
697.00,47.975
698.00,47.859
699.00,48.165
700.00,48.272
701.00,48.158
702.00,48.185
703.00,48.348
704.00,48.400
705.00,48.248
706.00,48.416
707.00,48.433
708.00,48.228
709.00,48.672
710.00,48.928
711.00,48.488
712.00,48.611
713.00,48.677
714.00,48.776
715.00,48.859
716.00,48.757
717.00,48.866
718.00,48.929
719.00,48.905
720.00,48.980
721.00,53.638
722.00,53.609
723.00,53.535
724.00,53.557
725.00,53.554
726.00,53.495
727.00,53.523
728.00,53.451
729.00,53.490
730.00,53.520
731.00,53.536
732.00,53.497
733.00,53.533
734.00,53.546
735.00,53.560
736.00,53.553
737.00,53.522
738.00,53.623
739.00,53.596
740.00,53.551
741.00,53.560
742.00,53.616
743.00,53.594
744.00,53.570
745.00,53.490
746.00,53.549
747.00,53.487
748.00,53.469
749.00,53.556
750.00,53.433
751.00,53.308
752.00,53.484
753.00,53.407
754.00,53.467
755.00,53.344
756.00,53.423
757.00,53.379
758.00,53.314
759.00,53.368
760.00,53.351
761.00,53.380
762.00,53.343
763.00,53.410
764.00,53.293
765.00,53.417
766.00,53.383
767.00,53.326
768.00,53.296
769.00,53.303
770.00,53.377
771.00,53.379
772.00,53.348
773.00,53.327
774.00,53.320
775.00,53.223
776.00,53.275
777.00,53.314
778.00,53.297
779.00,53.237
780.00,53.261
781.00,53.225
782.00,53.293
783.00,53.229
784.00,53.198
785.00,53.060
786.00,53.205
787.00,53.163
788.00,53.087
789.00,53.186
790.00,53.086
791.00,53.046
792.00,52.992
793.00,53.057
794.00,53.057
795.00,53.083
796.00,53.015
797.00,52.922
798.00,53.023
799.00,52.887
800.00,52.927
801.00,52.919
802.00,52.885
803.00,52.889
804.00,52.813
805.00,52.872
806.00,52.809
807.00,52.802
808.00,52.744
809.00,52.779
810.00,52.713
811.00,52.692
812.00,52.682
813.00,52.650
814.00,52.695
815.00,52.675
816.00,52.666
817.00,52.579
818.00,52.554
819.00,52.504
820.00,52.438
821.00,52.549
822.00,52.480
823.00,52.466
824.00,52.415
825.00,52.412
826.00,52.400
827.00,52.455
828.00,52.437
829.00,52.312
830.00,52.385
831.00,54.973
832.00,54.966
833.00,54.864
834.00,54.883
835.00,54.862
836.00,54.882
837.00,54.863
838.00,54.810
839.00,54.842
840.00,54.764
841.00,54.761
842.00,54.769
843.00,54.777
844.00,54.756
845.00,54.760
846.00,54.587
847.00,54.673
848.00,54.660
849.00,54.601
850.00,54.552
851.00,54.485
852.00,54.515
853.00,54.434
854.00,54.431
855.00,54.378
856.00,54.370
857.00,54.355
858.00,54.344
859.00,54.320
860.00,54.308
861.00,54.329
862.00,54.262
863.00,54.273
864.00,54.231
865.00,54.255
866.00,54.239
867.00,54.232
868.00,54.211
869.00,54.156
870.00,54.351
871.00,54.197
872.00,54.166
873.00,54.141
874.00,54.131
875.00,54.110
876.00,54.080
877.00,54.103
878.00,54.108
879.00,54.069
880.00,54.044
881.00,54.041
882.00,54.100
883.00,54.036
884.00,53.966
885.00,54.085
886.00,54.001
887.00,53.943
888.00,53.908
889.00,53.922
890.00,53.926
891.00,53.902
892.00,53.856
893.00,53.844
894.00,53.802
895.00,53.929
896.00,53.789
897.00,53.752
898.00,53.722
899.00,53.750
900.00,53.712
901.00,53.686
902.00,53.713
903.00,53.651
904.00,53.662
905.00,53.646
906.00,53.648
907.00,53.602
908.00,53.566
909.00,53.550
910.00,53.517
911.00,53.528
912.00,53.518
913.00,53.454
914.00,53.462
915.00,53.449
916.00,53.438
917.00,53.411
918.00,53.416
919.00,53.385
920.00,53.333
921.00,53.303
922.00,53.422
923.00,53.264
924.00,53.173
925.00,53.370
926.00,53.278
927.00,53.251
928.00,53.222
929.00,53.247
930.00,53.184
931.00,53.182
932.00,53.108
933.00,53.133
934.00,53.107
935.00,53.070
936.00,53.063
937.00,53.062
938.00,53.055
939.00,53.069
940.00,53.023
941.00,53.009
942.00,52.989
943.00,52.958
944.00,52.922
945.00,52.945
946.00,52.920
947.00,52.872
948.00,52.859
949.00,52.842
950.00,52.819
951.00,52.808
952.00,52.774
953.00,52.755
954.00,52.720
955.00,52.672
956.00,52.684
957.00,52.638
958.00,52.664
959.00,52.598
960.00,52.591
961.00,52.605
962.00,52.613
963.00,52.570
964.00,52.583
965.00,52.569
966.00,52.550
967.00,52.553
968.00,52.505
969.00,52.546
970.00,52.523
971.00,52.517
972.00,52.487
973.00,52.540
974.00,52.554
975.00,52.518
976.00,52.535
977.00,52.527
978.00,52.563
979.00,52.495
980.00,52.520
981.00,52.539
982.00,52.467
983.00,52.513
984.00,52.567
985.00,52.521
986.00,52.479
987.00,52.489
988.00,52.482
989.00,52.466
990.00,52.454
991.00,52.459
992.00,52.468
993.00,52.426
994.00,52.414
995.00,52.413
996.00,52.393
997.00,52.380
998.00,52.346
999.00,52.364
1000.00,52.324
1001.00,52.315
1002.00,52.325
1003.00,52.295
1004.00,52.273
1005.00,52.258
1006.00,52.299
1007.00,52.265
1008.00,52.249
1009.00,52.230
1010.00,52.227
1011.00,52.214
1012.00,52.187
1013.00,52.202
1014.00,52.154
1015.00,52.176
1016.00,52.139
1017.00,52.135
1018.00,52.119
1019.00,52.086
1020.00,52.077
1021.00,52.063
1022.00,52.057
1023.00,52.000
1024.00,52.012
1025.00,51.990
1026.00,51.982
1027.00,51.983
1028.00,51.972
1029.00,51.954
1030.00,51.918
1031.00,51.939
1032.00,51.943
1033.00,51.895
1034.00,51.858
1035.00,51.842
1036.00,51.816
1037.00,51.780
1038.00,51.783
1039.00,51.750
1040.00,51.743
1041.00,51.721
1042.00,51.706
1043.00,51.694
1044.00,51.723
1045.00,51.700
1046.00,51.684
1047.00,51.714
1048.00,51.711
1049.00,51.727
1050.00,51.729
1051.00,51.765
1052.00,51.783
1053.00,51.784
1054.00,51.803
1055.00,51.822
1056.00,51.824
1057.00,51.832
1058.00,51.823
1059.00,51.814
1060.00,51.831
1061.00,51.808
1062.00,51.792
1063.00,51.805
1064.00,51.792
1065.00,51.786
1066.00,51.774
1067.00,51.752
1068.00,51.794
1069.00,51.768
1070.00,51.741
1071.00,51.730
1072.00,51.753
1073.00,51.734
1074.00,51.730
1075.00,51.710
1076.00,51.714
1077.00,51.700
1078.00,51.668
1079.00,51.686
1080.00,51.686
1081.00,51.653
1082.00,51.667
1083.00,51.671
1084.00,51.656
1085.00,51.686
1086.00,51.643
1087.00,51.650
1088.00,51.640
1089.00,51.603
1090.00,51.628
1091.00,51.649
1092.00,51.635
1093.00,51.629
1094.00,51.571
1095.00,51.560
1096.00,51.546
1097.00,51.542
1098.00,51.537
1099.00,51.548
1100.00,51.526
1101.00,51.541
1102.00,51.519
1103.00,51.505
1104.00,51.498
1105.00,51.490
1106.00,51.468
1107.00,51.490
1108.00,51.483
1109.00,51.453
1110.00,51.448
1111.00,51.431
1112.00,51.445
1113.00,51.447
1114.00,51.415
1115.00,51.441
1116.00,51.426
1117.00,51.412
1118.00,51.405
1119.00,51.397
1120.00,51.394
1121.00,51.382
1122.00,51.367
1123.00,51.384
1124.00,51.361
1125.00,51.359
1126.00,51.357
1127.00,51.360
1128.00,51.337
1129.00,51.339
1130.00,51.307
1131.00,51.314
1132.00,51.311
1133.00,51.293
1134.00,51.311
1135.00,51.316
1136.00,51.286
1137.00,51.297
1138.00,51.281
1139.00,51.271
1140.00,51.274
1141.00,51.263
1142.00,51.246
1143.00,51.265
1144.00,51.249
1145.00,51.268
1146.00,51.264
1147.00,51.252
1148.00,51.247
1149.00,51.258
1150.00,51.261
1151.00,51.264
1152.00,51.245
1153.00,51.253
1154.00,51.242
1155.00,51.236
1156.00,51.249
1157.00,51.248
1158.00,51.232
1159.00,51.247
1160.00,51.242
1161.00,51.253
1162.00,51.265
1163.00,51.238
1164.00,51.237
1165.00,51.239
1166.00,51.227
1167.00,51.230
1168.00,51.263
1169.00,51.231
1170.00,51.235
1171.00,51.225
1172.00,51.216
1173.00,51.232
1174.00,51.231
1175.00,51.228
1176.00,51.249
1177.00,51.224
1178.00,51.241
1179.00,51.254
1180.00,51.226
1181.00,51.254
1182.00,51.238
1183.00,51.238
1184.00,51.248
1185.00,51.242
1186.00,51.225
1187.00,51.220
1188.00,51.204
1189.00,51.212
1190.00,51.190
1191.00,51.190
1192.00,51.236
1193.00,51.221
1194.00,51.218
1195.00,51.210
1196.00,51.238
1197.00,51.234
1198.00,51.224
1199.00,51.218
1200.00,51.230
1201.00,51.251
1202.00,51.212
1203.00,51.229
1204.00,51.214
1205.00,51.223
1206.00,51.232
1207.00,51.219
1208.00,51.212
1209.00,51.229
1210.00,51.208
1211.00,51.218
1212.00,51.243
1213.00,51.186
1214.00,51.221
1215.00,51.205
1216.00,51.200
1217.00,51.225
1218.00,51.210
1219.00,51.220
1220.00,51.211
1221.00,51.221
1222.00,51.213
1223.00,51.226
1224.00,51.203
1225.00,51.207
1226.00,51.214
1227.00,51.187
1228.00,51.216
1229.00,51.213
1230.00,51.257
1231.00,51.257
1232.00,51.251
1233.00,51.271
1234.00,51.264
1235.00,51.261
1236.00,51.262
1237.00,51.259
1238.00,51.240
1239.00,51.269
1240.00,51.234
1241.00,51.251
1242.00,51.256
1243.00,51.262
1244.00,51.256
1245.00,51.283
1246.00,51.279
1247.00,51.272
1248.00,51.277
1249.00,51.284
1250.00,51.304
1251.00,51.278
1252.00,51.302
1253.00,51.290
1254.00,51.300
1255.00,51.306
1256.00,51.304
1257.00,51.273
1258.00,51.322
1259.00,51.323
1260.00,51.333
1261.00,51.354
1262.00,51.330
1263.00,51.339
1264.00,51.334
1265.00,51.337
1266.00,51.345
1267.00,51.361
1268.00,51.364
1269.00,51.381
1270.00,51.393
1271.00,51.383
1272.00,51.408
1273.00,51.416
1274.00,51.412
1275.00,51.419
1276.00,51.394
1277.00,51.420
1278.00,51.421
1279.00,51.416
1280.00,51.411
1281.00,51.435
1282.00,51.445
1283.00,51.428
1284.00,51.448
1285.00,51.438
1286.00,51.445
1287.00,51.431
1288.00,51.451
1289.00,51.437
1290.00,51.459
1291.00,51.462
1292.00,51.468
1293.00,51.464
1294.00,51.489
1295.00,51.487
1296.00,51.491
1297.00,51.501
1298.00,51.512
1299.00,51.505
1300.00,51.532
1301.00,51.504
1302.00,51.542
1303.00,51.532
1304.00,51.513
1305.00,51.564
1306.00,51.534
1307.00,51.549
1308.00,51.553
1309.00,51.547
1310.00,51.541
1311.00,51.545
1312.00,51.532
1313.00,51.559
1314.00,51.582
1315.00,51.595
1316.00,51.608
1317.00,51.602
1318.00,51.600
1319.00,51.606
1320.00,51.602
1321.00,51.815
1322.00,51.803
1323.00,51.781
1324.00,51.786
1325.00,51.767
1326.00,51.792
1327.00,51.784
1328.00,51.756
1329.00,51.766
1330.00,51.753
1331.00,51.750
1332.00,51.750
1333.00,51.771
1334.00,51.783
1335.00,51.815
1336.00,51.823
1337.00,51.865
1338.00,51.927
1339.00,51.976
1340.00,52.040
1341.00,52.093
1342.00,52.161
1343.00,52.236
1344.00,52.270
1345.00,52.313
1346.00,52.349
1347.00,52.370
1348.00,52.382
1349.00,52.431
1350.00,52.424
1351.00,52.444
1352.00,52.443
1353.00,52.439
1354.00,52.456
1355.00,52.387
1356.00,52.483
1357.00,52.465
1358.00,52.490
1359.00,52.514
1360.00,52.525
1361.00,52.449
1362.00,52.467
1363.00,52.504
1364.00,52.519
1365.00,52.492
1366.00,52.484
1367.00,52.470
1368.00,52.510
1369.00,52.506
1370.00,52.469
1371.00,52.428
1372.00,52.457
1373.00,52.471
1374.00,52.487
1375.00,52.477
1376.00,52.480
1377.00,52.463
1378.00,52.484
1379.00,52.489
1380.00,52.531
1381.00,52.495
1382.00,52.469
1383.00,52.510
1384.00,52.423
1385.00,52.429
1386.00,52.472
1387.00,52.443
1388.00,52.400
1389.00,52.349
1390.00,52.468
1391.00,52.443
1392.00,52.438
1393.00,52.470
1394.00,52.487
1395.00,52.422
1396.00,52.367
1397.00,52.376
1398.00,52.457
1399.00,52.482
1400.00,52.415
1401.00,52.406
1402.00,52.509
1403.00,52.418
1404.00,52.448
1405.00,52.491
1406.00,52.517
1407.00,52.474
1408.00,52.543
1409.00,52.594
1410.00,52.524
1411.00,52.485
1412.00,52.573
1413.00,52.514
1414.00,52.496
1415.00,52.533
1416.00,52.544
1417.00,52.567
1418.00,52.545
1419.00,52.527
1420.00,52.574
1421.00,52.584
1422.00,52.609
1423.00,52.632
1424.00,52.626
1425.00,52.650
1426.00,52.655
1427.00,52.669
1428.00,52.661
1429.00,52.656
1430.00,52.669
1431.00,52.700
1432.00,52.692
1433.00,52.718
1434.00,52.692
1435.00,52.756
1436.00,52.777
1437.00,52.759
1438.00,52.777
1439.00,52.803
1440.00,52.823
1441.00,52.810
1442.00,52.825
1443.00,52.827
1444.00,52.899
1445.00,52.852
1446.00,52.869
1447.00,52.902
1448.00,52.969
1449.00,52.951
1450.00,52.949
1451.00,52.982
1452.00,52.982
1453.00,53.005
1454.00,53.015
1455.00,53.018
1456.00,53.057
1457.00,53.046
1458.00,53.086
1459.00,53.096
1460.00,53.100
1461.00,53.100
1462.00,53.145
1463.00,53.123
1464.00,53.146
1465.00,53.170
1466.00,53.171
1467.00,53.203
1468.00,53.244
1469.00,53.207
1470.00,53.248
1471.00,53.247
1472.00,53.256
1473.00,53.261
1474.00,53.262
1475.00,53.291
1476.00,53.303
1477.00,53.280
1478.00,53.312
1479.00,53.323
1480.00,53.316
1481.00,53.340
1482.00,53.364
1483.00,53.378
1484.00,53.397
1485.00,53.374
1486.00,53.409
1487.00,53.416
1488.00,53.426
1489.00,53.419
1490.00,53.441
1491.00,53.458
1492.00,53.482
1493.00,53.445
1494.00,53.492
1495.00,53.473
1496.00,53.502
1497.00,53.500
1498.00,53.526
1499.00,53.537
1500.00,53.551
1501.00, 
1502.00, 
1503.00, 
1504.00, 
1505.00, 
1506.00, 
1507.00, 
1508.00, 
1509.00, 
1510.00, 
1511.00, 
1512.00, 
1513.00, 
1514.00, 
1515.00, 
1516.00, 
1517.00, 
1518.00, 
1519.00, 
1520.00, 
1521.00, 
1522.00, 
1523.00, 
1524.00, 
1525.00, 
1526.00, 
1527.00, 
1528.00, 
1529.00, 
1530.00, 
1531.00, 
1532.00, 
1533.00, 
1534.00, 
1535.00, 
1536.00, 
1537.00, 
1538.00, 
1539.00, 
1540.00, 
1541.00, 
1542.00, 
1543.00, 
1544.00, 
1545.00, 
1546.00, 
1547.00, 
1548.00, 
1549.00, 
1550.00, 
1551.00, 
1552.00, 
1553.00, 
1554.00, 
1555.00, 
1556.00, 
1557.00, 
1558.00, 
1559.00, 
1560.00, 
1561.00, 
1562.00, 
1563.00, 
1564.00, 
1565.00, 
1566.00, 
1567.00, 
1568.00, 
1569.00, 
1570.00, 
1571.00, 
1572.00, 
1573.00, 
1574.00, 
1575.00, 
1576.00, 
1577.00, 
1578.00, 
1579.00, 
1580.00, 
1581.00, 
1582.00, 
1583.00, 
1584.00, 
1585.00, 
1586.00, 
1587.00, 
1588.00, 
1589.00, 
1590.00, 
1591.00, 
1592.00, 
1593.00, 
1594.00, 
1595.00, 
1596.00, 
1597.00, 
1598.00, 
1599.00, 
1600.00, 
1601.00, 
1602.00, 
1603.00, 
1604.00, 
1605.00, 
1606.00, 
1607.00, 
1608.00, 
1609.00, 
1610.00, 
1611.00, 
1612.00, 
1613.00, 
1614.00, 
1615.00, 
1616.00, 
1617.00, 
1618.00, 
1619.00, 
1620.00, 
1621.00, 
1622.00, 
1623.00, 
1624.00, 
1625.00, 
1626.00, 
1627.00, 
1628.00, 
1629.00, 
1630.00, 
1631.00, 
1632.00, 
1633.00, 
1634.00, 
1635.00, 
1636.00, 
1637.00, 
1638.00, 
1639.00, 
1640.00, 
1641.00, 
1642.00, 
1643.00, 
1644.00, 
1645.00, 
1646.00, 
1647.00, 
1648.00, 
1649.00, 
1650.00, 
1651.00, 
1652.00, 
1653.00, 
1654.00, 
1655.00, 
1656.00, 
1657.00, 
1658.00, 
1659.00, 
1660.00, 
1661.00, 
1662.00, 
1663.00, 
1664.00, 
1665.00, 
1666.00, 
1667.00, 
1668.00, 
1669.00, 
1670.00, 
1671.00, 
1672.00, 
1673.00, 
1674.00, 
1675.00, 
1676.00, 
1677.00, 
1678.00, 
1679.00, 
1680.00, 
1681.00, 
1682.00, 
1683.00, 
1684.00, 
1685.00, 
1686.00, 
1687.00, 
1688.00, 
1689.00, 
1690.00, 
1691.00, 
1692.00, 
1693.00, 
1694.00, 
1695.00, 
1696.00, 
1697.00, 
1698.00, 
1699.00, 
1700.00, 
1701.00, 
1702.00, 
1703.00, 
1704.00, 
1705.00, 
1706.00, 
1707.00, 
1708.00, 
1709.00, 
1710.00, 
1711.00, 
1712.00, 
1713.00, 
1714.00, 
1715.00, 
1716.00, 
1717.00, 
1718.00, 
1719.00, 
1720.00, 
1721.00, 
1722.00, 
1723.00, 
1724.00, 
1725.00, 
1726.00, 
1727.00, 
1728.00, 
1729.00, 
1730.00, 
1731.00, 
1732.00, 
1733.00, 
1734.00, 
1735.00, 
1736.00, 
1737.00, 
1738.00, 
1739.00, 
1740.00, 
1741.00, 
1742.00, 
1743.00, 
1744.00, 
1745.00, 
1746.00, 
1747.00, 
1748.00, 
1749.00, 
1750.00, 
1751.00, 
1752.00, 
1753.00, 
1754.00, 
1755.00, 
1756.00, 
1757.00, 
1758.00, 
1759.00, 
1760.00, 
1761.00, 
1762.00, 
1763.00, 
1764.00, 
1765.00, 
1766.00, 
1767.00, 
1768.00, 
1769.00, 
1770.00, 
1771.00, 
1772.00, 
1773.00, 
1774.00, 
1775.00, 
1776.00, 
1777.00, 
1778.00, 
1779.00, 
1780.00, 
1781.00, 
1782.00, 
1783.00, 
1784.00, 
1785.00, 
1786.00, 
1787.00, 
1788.00, 
1789.00, 
1790.00, 
1791.00, 
1792.00, 
1793.00, 
1794.00, 
1795.00, 
1796.00, 
1797.00, 
1798.00, 
1799.00, 
1800.00, 
1801.00, 
1802.00, 
1803.00, 
1804.00, 
1805.00, 
1806.00, 
1807.00, 
1808.00, 
1809.00, 
1810.00, 
1811.00, 
1812.00, 
1813.00, 
1814.00, 
1815.00, 
1816.00, 
1817.00, 
1818.00, 
1819.00, 
1820.00, 
1821.00, 
1822.00, 
1823.00, 
1824.00, 
1825.00, 
1826.00, 
1827.00, 
1828.00, 
1829.00, 
1830.00, 
1831.00, 
1832.00, 
1833.00, 
1834.00, 
1835.00, 
1836.00, 
1837.00, 
1838.00, 
1839.00, 
1840.00, 
1841.00, 
1842.00, 
1843.00, 
1844.00, 
1845.00, 
1846.00, 
1847.00, 
1848.00, 
1849.00, 
1850.00, 
1851.00, 
1852.00, 
1853.00, 
1854.00, 
1855.00, 
1856.00, 
1857.00, 
1858.00, 
1859.00, 
1860.00, 
1861.00, 
1862.00, 
1863.00, 
1864.00, 
1865.00, 
1866.00, 
1867.00, 
1868.00, 
1869.00, 
1870.00, 
1871.00, 
1872.00, 
1873.00, 
1874.00, 
1875.00, 
1876.00, 
1877.00, 
1878.00, 
1879.00, 
1880.00, 
1881.00, 
1882.00, 
1883.00, 
1884.00, 
1885.00, 
1886.00, 
1887.00, 
1888.00, 
1889.00, 
1890.00, 
1891.00, 
1892.00, 
1893.00, 
1894.00, 
1895.00, 
1896.00, 
1897.00, 
1898.00, 
1899.00, 
1900.00, 
1901.00, 
1902.00, 
1903.00, 
1904.00, 
1905.00, 
1906.00, 
1907.00, 
1908.00, 
1909.00, 
1910.00, 
1911.00, 
1912.00, 
1913.00, 
1914.00, 
1915.00, 
1916.00, 
1917.00, 
1918.00, 
1919.00, 
1920.00, 
1921.00, 
1922.00, 
1923.00, 
1924.00, 
1925.00, 
1926.00, 
1927.00, 
1928.00, 
1929.00, 
1930.00, 
1931.00, 
1932.00, 
1933.00, 
1934.00, 
1935.00, 
1936.00, 
1937.00, 
1938.00, 
1939.00, 
1940.00, 
1941.00, 
1942.00, 
1943.00, 
1944.00, 
1945.00, 
1946.00, 
1947.00, 
1948.00, 
1949.00, 
1950.00, 
1951.00, 
1952.00, 
1953.00, 
1954.00, 
1955.00, 
1956.00, 
1957.00, 
1958.00, 
1959.00, 
1960.00, 
1961.00, 
1962.00, 
1963.00, 
1964.00, 
1965.00, 
1966.00, 
1967.00, 
1968.00, 
1969.00, 
1970.00, 
1971.00, 
1972.00, 
1973.00, 
1974.00, 
1975.00, 
1976.00, 
1977.00, 
1978.00, 
1979.00, 
1980.00, 
1981.00, 
1982.00, 
1983.00, 
1984.00, 
1985.00, 
1986.00, 
1987.00, 
1988.00, 
1989.00, 
1990.00, 
1991.00, 
1992.00, 
1993.00, 
1994.00, 
1995.00, 
1996.00, 
1997.00, 
1998.00, 
1999.00, 
2000.00, 
2001.00, 
2002.00, 
2003.00, 
2004.00, 
2005.00, 
2006.00, 
2007.00, 
2008.00, 
2009.00, 
2010.00, 
2011.00, 
2012.00, 
2013.00, 
2014.00, 
2015.00, 
2016.00, 
2017.00, 
2018.00, 
2019.00, 
2020.00, 
2021.00, 
2022.00, 
2023.00, 
2024.00, 
2025.00, 
2026.00, 
2027.00, 
2028.00, 
2029.00, 
2030.00, 
2031.00, 
2032.00, 
2033.00, 
2034.00, 
2035.00, 
2036.00, 
2037.00, 
2038.00, 
2039.00, 
2040.00, 
2041.00, 
2042.00, 
2043.00, 
2044.00, 
2045.00, 
2046.00, 
2047.00, 
2048.00, 
2049.00, 
2050.00, 
2051.00, 
2052.00, 
2053.00, 
2054.00, 
2055.00, 
2056.00, 
2057.00, 
2058.00, 
2059.00, 
2060.00, 
2061.00, 
2062.00, 
2063.00, 
2064.00, 
2065.00, 
2066.00, 
2067.00, 
2068.00, 
2069.00, 
2070.00, 
2071.00, 
2072.00, 
2073.00, 
2074.00, 
2075.00, 
2076.00, 
2077.00, 
2078.00, 
2079.00, 
2080.00, 
2081.00, 
2082.00, 
2083.00, 
2084.00, 
2085.00, 
2086.00, 
2087.00, 
2088.00, 
2089.00, 
2090.00, 
2091.00, 
2092.00, 
2093.00, 
2094.00, 
2095.00, 
2096.00, 
2097.00, 
2098.00, 
2099.00, 
2100.00, 
2101.00, 
2102.00, 
2103.00, 
2104.00, 
2105.00, 
2106.00, 
2107.00, 
2108.00, 
2109.00, 
2110.00, 
2111.00, 
2112.00, 
2113.00, 
2114.00, 
2115.00, 
2116.00, 
2117.00, 
2118.00, 
2119.00, 
2120.00, 
2121.00, 
2122.00, 
2123.00, 
2124.00, 
2125.00, 
2126.00, 
2127.00, 
2128.00, 
2129.00, 
2130.00, 
2131.00, 
2132.00, 
2133.00, 
2134.00, 
2135.00, 
2136.00, 
2137.00, 
2138.00, 
2139.00, 
2140.00, 
2141.00, 
2142.00, 
2143.00, 
2144.00, 
2145.00, 
2146.00, 
2147.00, 
2148.00, 
2149.00, 
2150.00, 
2151.00, 
2152.00, 
2153.00, 
2154.00, 
2155.00, 
2156.00, 
2157.00, 
2158.00, 
2159.00, 
2160.00, 
2161.00, 
2162.00, 
2163.00, 
2164.00, 
2165.00, 
2166.00, 
2167.00, 
2168.00, 
2169.00, 
2170.00, 
2171.00, 
2172.00, 
2173.00, 
2174.00, 
2175.00, 
2176.00, 
2177.00, 
2178.00, 
2179.00, 
2180.00, 
2181.00, 
2182.00, 
2183.00, 
2184.00, 
2185.00, 
2186.00, 
2187.00, 
2188.00, 
2189.00, 
2190.00, 
2191.00, 
2192.00, 
2193.00, 
2194.00, 
2195.00, 
2196.00, 
2197.00, 
2198.00, 
2199.00, 
2200.00, 
2201.00, 
2202.00, 
2203.00, 
2204.00, 
2205.00, 
2206.00, 
2207.00, 
2208.00, 
2209.00, 
2210.00, 
2211.00, 
2212.00, 
2213.00, 
2214.00, 
2215.00, 
2216.00, 
2217.00, 
2218.00, 
2219.00, 
2220.00, 
2221.00, 
2222.00, 
2223.00, 
2224.00, 
2225.00, 
2226.00, 
2227.00, 
2228.00, 
2229.00, 
2230.00, 
2231.00, 
2232.00, 
2233.00, 
2234.00, 
2235.00, 
2236.00, 
2237.00, 
2238.00, 
2239.00, 
2240.00, 
2241.00, 
2242.00, 
2243.00, 
2244.00, 
2245.00, 
2246.00, 
2247.00, 
2248.00, 
2249.00, 
2250.00, 
2251.00, 
2252.00, 
2253.00, 
2254.00, 
2255.00, 
2256.00, 
2257.00, 
2258.00, 
2259.00, 
2260.00, 
2261.00, 
2262.00, 
2263.00, 
2264.00, 
2265.00, 
2266.00, 
2267.00, 
2268.00, 
2269.00, 
2270.00, 
2271.00, 
2272.00, 
2273.00, 
2274.00, 
2275.00, 
2276.00, 
2277.00, 
2278.00, 
2279.00, 
2280.00, 
2281.00, 
2282.00, 
2283.00, 
2284.00, 
2285.00, 
2286.00, 
2287.00, 
2288.00, 
2289.00, 
2290.00, 
2291.00, 
2292.00, 
2293.00, 
2294.00, 
2295.00, 
2296.00, 
2297.00, 
2298.00, 
2299.00, 
2300.00, 
2301.00, 
2302.00, 
2303.00, 
2304.00, 
2305.00, 
2306.00, 
2307.00, 
2308.00, 
2309.00, 
2310.00, 
2311.00, 
2312.00, 
2313.00, 
2314.00, 
2315.00, 
2316.00, 
2317.00, 
2318.00, 
2319.00, 
2320.00, 
2321.00, 
2322.00, 
2323.00, 
2324.00, 
2325.00, 
2326.00, 
2327.00, 
2328.00, 
2329.00, 
2330.00, 
2331.00, 
2332.00, 
2333.00, 
2334.00, 
2335.00, 
2336.00, 
2337.00, 
2338.00, 
2339.00, 
2340.00, 
2341.00, 
2342.00, 
2343.00, 
2344.00, 
2345.00, 
2346.00, 
2347.00, 
2348.00, 
2349.00, 
2350.00, 
2351.00, 
2352.00, 
2353.00, 
2354.00, 
2355.00, 
2356.00, 
2357.00, 
2358.00, 
2359.00, 
2360.00, 
2361.00, 
2362.00, 
2363.00, 
2364.00, 
2365.00, 
2366.00, 
2367.00, 
2368.00, 
2369.00, 
2370.00, 
2371.00, 
2372.00, 
2373.00, 
2374.00, 
2375.00, 
2376.00, 
2377.00, 
2378.00, 
2379.00, 
2380.00, 
2381.00, 
2382.00, 
2383.00, 
2384.00, 
2385.00, 
2386.00, 
2387.00, 
2388.00, 
2389.00, 
2390.00, 
2391.00, 
2392.00, 
2393.00, 
2394.00, 
2395.00, 
2396.00, 
2397.00, 
2398.00, 
2399.00, 
2400.00, 
2401.00, 
2402.00, 
2403.00, 
2404.00, 
2405.00, 
2406.00, 
2407.00, 
2408.00, 
2409.00, 
2410.00, 
2411.00, 
2412.00, 
2413.00, 
2414.00, 
2415.00, 
2416.00, 
2417.00, 
2418.00, 
2419.00, 
2420.00, 
2421.00, 
2422.00, 
2423.00, 
2424.00, 
2425.00, 
2426.00, 
2427.00, 
2428.00, 
2429.00, 
2430.00, 
2431.00, 
2432.00, 
2433.00, 
2434.00, 
2435.00, 
2436.00, 
2437.00, 
2438.00, 
2439.00, 
2440.00, 
2441.00, 
2442.00, 
2443.00, 
2444.00, 
2445.00, 
2446.00, 
2447.00, 
2448.00, 
2449.00, 
2450.00, 
2451.00, 
2452.00, 
2453.00, 
2454.00, 
2455.00, 
2456.00, 
2457.00, 
2458.00, 
2459.00, 
2460.00, 
2461.00, 
2462.00, 
2463.00, 
2464.00, 
2465.00, 
2466.00, 
2467.00, 
2468.00, 
2469.00, 
2470.00, 
2471.00, 
2472.00, 
2473.00, 
2474.00, 
2475.00, 
2476.00, 
2477.00, 
2478.00, 
2479.00, 
2480.00, 
2481.00, 
2482.00, 
2483.00, 
2484.00, 
2485.00, 
2486.00, 
2487.00, 
2488.00, 
2489.00, 
2490.00, 
2491.00, 
2492.00, 
2493.00, 
2494.00, 
2495.00, 
2496.00, 
2497.00, 
2498.00, 
2499.00, 
2500.00, 
2501.00, 
2502.00, 
2503.00, 
2504.00, 
2505.00, 
2506.00, 
2507.00, 
2508.00, 
2509.00, 
2510.00, 
2511.00, 
2512.00, 
2513.00, 
2514.00, 
2515.00, 
2516.00, 
2517.00, 
2518.00, 
2519.00, 
2520.00, 
2521.00, 
2522.00, 
2523.00, 
2524.00, 
2525.00, 
2526.00, 
2527.00, 
2528.00, 
2529.00, 
2530.00, 
2531.00, 
2532.00, 
2533.00, 
2534.00, 
2535.00, 
2536.00, 
2537.00, 
2538.00, 
2539.00, 
2540.00, 
2541.00, 
2542.00, 
2543.00, 
2544.00, 
2545.00, 
2546.00, 
2547.00, 
2548.00, 
2549.00, 
2550.00, 
2551.00, 
2552.00, 
2553.00, 
2554.00, 
2555.00, 
2556.00, 
2557.00, 
2558.00, 
2559.00, 
2560.00, 
2561.00, 
2562.00, 
2563.00, 
2564.00, 
2565.00, 
2566.00, 
2567.00, 
2568.00, 
2569.00, 
2570.00, 
2571.00, 
2572.00, 
2573.00, 
2574.00, 
2575.00, 
2576.00, 
2577.00, 
2578.00, 
2579.00, 
2580.00, 
2581.00, 
2582.00, 
2583.00, 
2584.00, 
2585.00, 
2586.00, 
2587.00, 
2588.00, 
2589.00, 
2590.00, 
2591.00, 
2592.00, 
2593.00, 
2594.00, 
2595.00, 
2596.00, 
2597.00, 
2598.00, 
2599.00, 
2600.00, 
