"1cP2 - RawData"
"Wavelength nm.","T%"
200.00,-0.001
201.00,0.001
202.00,0.002
203.00,-0.002
204.00,0.003
205.00,0.002
206.00,0.001
207.00,0.002
208.00,-0.001
209.00,0.002
210.00,0.004
211.00,0.001
212.00,-0.002
213.00,0.001
214.00,0.001
215.00,0.002
216.00,0.002
217.00,0.001
218.00,0.002
219.00,-0.001
220.00,-0.002
221.00,-0.001
222.00,0.001
223.00,0.003
224.00,-0.000
225.00,0.003
226.00,0.003
227.00,-0.002
228.00,0.000
229.00,-0.000
230.00,-0.001
231.00,-0.001
232.00,0.002
233.00,0.002
234.00,-0.002
235.00,0.000
236.00,-0.001
237.00,0.002
238.00,-0.001
239.00,0.000
240.00,0.001
241.00,0.001
242.00,0.001
243.00,-0.000
244.00,0.002
245.00,-0.000
246.00,0.000
247.00,0.000
248.00,0.001
249.00,-0.001
250.00,0.001
251.00,0.002
252.00,0.001
253.00,0.002
254.00,0.000
255.00,0.001
256.00,0.000
257.00,0.000
258.00,-0.001
259.00,-0.001
260.00,0.000
261.00,-0.000
262.00,-0.000
263.00,-0.001
264.00,-0.002
265.00,-0.000
266.00,0.000
267.00,-0.001
268.00,-0.000
269.00,0.000
270.00,0.001
271.00,0.001
272.00,0.002
273.00,0.001
274.00,-0.000
275.00,0.000
276.00,0.001
277.00,-0.001
278.00,0.000
279.00,0.000
280.00,0.000
281.00,-0.001
282.00,0.002
283.00,-0.001
284.00,-0.000
285.00,0.001
286.00,-0.000
287.00,-0.000
288.00,-0.002
289.00,0.001
290.00,-0.000
291.00,0.000
292.00,0.000
293.00,0.000
294.00,-0.001
295.00,-0.000
296.00,0.000
297.00,0.002
298.00,0.000
299.00,0.002
300.00,0.002
301.00,0.000
302.00,0.000
303.00,0.002
304.00,0.000
305.00,0.001
306.00,0.002
307.00,0.006
308.00,0.010
309.00,0.018
310.00,0.027
311.00,0.041
312.00,0.065
313.00,0.103
314.00,0.158
315.00,0.230
316.00,0.330
317.00,0.467
318.00,0.638
319.00,0.864
320.00,1.154
321.00,1.486
322.00,1.912
323.00,2.432
324.00,2.994
325.00,3.642
326.00,4.308
327.00,5.124
328.00,6.018
329.00,6.946
330.00,7.956
331.00,9.039
332.00,10.193
333.00,11.436
334.00,12.632
335.00,13.898
336.00,15.153
337.00,16.512
338.00,17.802
339.00,18.988
340.00,20.332
341.00,21.614
342.00,22.834
343.00,24.041
344.00,25.111
345.00,26.404
346.00,27.394
347.00,28.338
348.00,29.363
349.00,30.276
350.00,31.119
351.00,31.965
352.00,32.713
353.00,33.492
354.00,34.169
355.00,34.878
356.00,35.501
357.00,36.036
358.00,36.592
359.00,37.210
360.00,37.758
361.00,38.139
362.00,38.615
363.00,39.064
364.00,39.320
365.00,39.555
366.00,39.839
367.00,40.128
368.00,40.295
369.00,40.476
370.00,40.712
371.00,40.813
372.00,40.846
373.00,40.872
374.00,40.973
375.00,41.037
376.00,40.851
377.00,40.818
378.00,40.695
379.00,40.629
380.00,40.690
381.00,40.733
382.00,40.810
383.00,40.947
384.00,41.083
385.00,41.353
386.00,41.458
387.00,41.733
388.00,41.962
389.00,42.016
390.00,42.247
391.00,42.310
392.00,42.507
393.00,42.617
394.00,42.735
395.00,42.927
396.00,42.926
397.00,43.023
398.00,43.129
399.00,43.172
400.00,43.212
401.00,43.195
402.00,43.204
403.00,43.339
404.00,43.372
405.00,43.248
406.00,43.180
407.00,43.259
408.00,43.232
409.00,43.141
410.00,43.040
411.00,43.053
412.00,42.999
413.00,43.071
414.00,43.003
415.00,42.949
416.00,42.952
417.00,42.949
418.00,42.974
419.00,43.089
420.00,43.166
421.00,43.127
422.00,43.156
423.00,43.200
424.00,43.248
425.00,43.266
426.00,43.270
427.00,43.326
428.00,43.282
429.00,43.290
430.00,43.353
431.00,43.409
432.00,43.388
433.00,43.426
434.00,43.455
435.00,43.502
436.00,43.509
437.00,43.530
438.00,43.591
439.00,43.561
440.00,43.655
441.00,43.660
442.00,43.686
443.00,43.749
444.00,43.851
445.00,43.870
446.00,43.938
447.00,43.987
448.00,44.069
449.00,44.166
450.00,44.228
451.00,44.226
452.00,44.277
453.00,44.366
454.00,44.342
455.00,44.466
456.00,44.520
457.00,44.567
458.00,44.610
459.00,44.719
460.00,44.840
461.00,44.894
462.00,44.934
463.00,45.035
464.00,45.083
465.00,45.126
466.00,45.214
467.00,45.323
468.00,45.256
469.00,45.367
470.00,45.350
471.00,45.393
472.00,45.396
473.00,45.387
474.00,45.505
475.00,45.527
476.00,45.500
477.00,45.519
478.00,45.573
479.00,45.726
480.00,45.766
481.00,45.791
482.00,45.919
483.00,45.984
484.00,46.072
485.00,46.144
486.00,46.316
487.00,46.408
488.00,46.480
489.00,46.601
490.00,46.681
491.00,46.622
492.00,46.872
493.00,46.958
494.00,46.798
495.00,46.884
496.00,46.960
497.00,46.976
498.00,47.056
499.00,47.127
500.00,47.176
501.00,47.180
502.00,47.397
503.00,47.372
504.00,47.186
505.00,47.338
506.00,47.400
507.00,47.481
508.00,47.531
509.00,47.659
510.00,47.754
511.00,47.718
512.00,47.877
513.00,47.970
514.00,48.001
515.00,48.091
516.00,48.131
517.00,48.152
518.00,48.234
519.00,48.236
520.00,48.227
521.00,48.294
522.00,48.297
523.00,48.244
524.00,48.339
525.00,48.431
526.00,48.458
527.00,48.455
528.00,48.473
529.00,48.645
530.00,48.782
531.00,48.772
532.00,48.816
533.00,48.902
534.00,48.874
535.00,48.913
536.00,49.039
537.00,49.002
538.00,49.094
539.00,49.063
540.00,49.135
541.00,49.082
542.00,49.147
543.00,49.104
544.00,49.163
545.00,49.213
546.00,49.170
547.00,49.350
548.00,49.457
549.00,49.457
550.00,49.314
551.00,49.433
552.00,49.662
553.00,49.529
554.00,49.643
555.00,49.670
556.00,49.684
557.00,49.736
558.00,49.779
559.00,49.851
560.00,49.854
561.00,49.912
562.00,49.932
563.00,49.898
564.00,49.917
565.00,49.917
566.00,49.885
567.00,49.887
568.00,49.917
569.00,49.960
570.00,49.956
571.00,49.955
572.00,50.009
573.00,49.928
574.00,49.897
575.00,49.815
576.00,49.884
577.00,49.945
578.00,50.002
579.00,50.086
580.00,50.052
581.00,50.075
582.00,50.187
583.00,50.180
584.00,50.287
585.00,50.355
586.00,50.350
587.00,50.433
588.00,50.408
589.00,50.262
590.00,50.383
591.00,50.376
592.00,50.451
593.00,50.496
594.00,50.453
595.00,50.399
596.00,50.407
597.00,50.488
598.00,50.595
599.00,50.573
600.00,50.629
601.00,50.641
602.00,50.651
603.00,50.574
604.00,50.537
605.00,50.562
606.00,50.595
607.00,50.607
608.00,50.838
609.00,50.856
610.00,50.612
611.00,50.687
612.00,50.631
613.00,50.609
614.00,50.679
615.00,50.809
616.00,50.739
617.00,50.680
618.00,50.632
619.00,50.653
620.00,50.647
621.00,50.732
622.00,50.598
623.00,50.558
624.00,50.905
625.00,50.927
626.00,50.835
627.00,50.815
628.00,50.720
629.00,50.735
630.00,50.682
631.00,50.735
632.00,50.818
633.00,50.911
634.00,50.877
635.00,50.981
636.00,50.945
637.00,50.969
638.00,50.902
639.00,50.956
640.00,50.933
641.00,50.873
642.00,50.939
643.00,50.952
644.00,51.086
645.00,51.040
646.00,51.036
647.00,51.096
648.00,50.946
649.00,50.900
650.00,50.885
651.00,50.945
652.00,51.000
653.00,50.932
654.00,50.922
655.00,51.031
656.00,51.272
657.00,50.959
658.00,51.034
659.00,51.076
660.00,51.005
661.00,50.941
662.00,50.930
663.00,51.043
664.00,51.288
665.00,51.360
666.00,51.175
667.00,51.259
668.00,51.200
669.00,51.265
670.00,51.484
671.00,51.178
672.00,51.065
673.00,51.254
674.00,51.310
675.00,51.315
676.00,51.408
677.00,51.487
678.00,51.145
679.00,51.299
680.00,51.362
681.00,51.453
682.00,51.316
683.00,51.193
684.00,51.285
685.00,51.290
686.00,51.040
687.00,51.175
688.00,51.307
689.00,51.230
690.00,51.358
691.00,51.649
692.00,51.154
693.00,51.041
694.00,51.278
695.00,51.441
696.00,51.341
697.00,51.124
698.00,51.231
699.00,51.376
700.00,51.262
701.00,51.248
702.00,51.204
703.00,51.424
704.00,51.371
705.00,51.147
706.00,51.201
707.00,51.157
708.00,51.182
709.00,51.624
710.00,51.308
711.00,51.109
712.00,51.102
713.00,51.337
714.00,51.283
715.00,51.147
716.00,51.074
717.00,51.227
718.00,51.252
719.00,51.119
720.00,51.075
721.00,55.870
722.00,55.890
723.00,55.806
724.00,55.699
725.00,55.723
726.00,55.655
727.00,55.595
728.00,55.489
729.00,55.442
730.00,55.399
731.00,55.304
732.00,55.256
733.00,55.323
734.00,55.298
735.00,55.250
736.00,55.129
737.00,55.090
738.00,55.116
739.00,55.025
740.00,55.014
741.00,54.996
742.00,55.040
743.00,54.923
744.00,54.881
745.00,54.895
746.00,54.819
747.00,54.703
748.00,54.647
749.00,54.621
750.00,54.539
751.00,54.446
752.00,54.417
753.00,54.426
754.00,54.385
755.00,54.254
756.00,54.231
757.00,54.223
758.00,54.173
759.00,54.116
760.00,54.065
761.00,54.090
762.00,53.980
763.00,53.960
764.00,53.926
765.00,53.887
766.00,53.866
767.00,53.826
768.00,53.921
769.00,53.773
770.00,53.801
771.00,53.741
772.00,53.676
773.00,53.639
774.00,53.606
775.00,53.646
776.00,53.525
777.00,53.493
778.00,53.467
779.00,53.461
780.00,53.390
781.00,53.360
782.00,53.451
783.00,53.346
784.00,53.335
785.00,53.225
786.00,53.271
787.00,53.193
788.00,53.090
789.00,53.056
790.00,53.049
791.00,53.113
792.00,52.903
793.00,52.916
794.00,52.911
795.00,52.881
796.00,52.852
797.00,52.771
798.00,52.813
799.00,52.673
800.00,52.623
801.00,52.646
802.00,52.632
803.00,52.586
804.00,52.467
805.00,52.537
806.00,52.417
807.00,52.495
808.00,52.353
809.00,52.343
810.00,52.272
811.00,52.353
812.00,52.239
813.00,52.158
814.00,52.121
815.00,52.173
816.00,52.110
817.00,52.082
818.00,51.976
819.00,51.966
820.00,51.941
821.00,51.894
822.00,51.937
823.00,51.868
824.00,51.893
825.00,51.797
826.00,51.838
827.00,51.797
828.00,51.786
829.00,51.738
830.00,51.668
831.00,54.039
832.00,54.030
833.00,53.948
834.00,53.964
835.00,53.894
836.00,53.887
837.00,53.815
838.00,53.799
839.00,53.752
840.00,53.716
841.00,53.728
842.00,53.672
843.00,53.679
844.00,53.629
845.00,53.603
846.00,53.578
847.00,53.534
848.00,53.509
849.00,53.445
850.00,53.428
851.00,53.366
852.00,53.366
853.00,53.314
854.00,53.267
855.00,53.189
856.00,53.202
857.00,53.165
858.00,53.112
859.00,53.052
860.00,53.066
861.00,53.062
862.00,52.994
863.00,52.995
864.00,52.964
865.00,52.958
866.00,52.932
867.00,52.938
868.00,52.910
869.00,52.876
870.00,52.862
871.00,52.846
872.00,52.832
873.00,52.768
874.00,52.812
875.00,52.743
876.00,52.774
877.00,52.698
878.00,52.695
879.00,52.688
880.00,52.670
881.00,52.616
882.00,52.655
883.00,52.607
884.00,52.555
885.00,52.567
886.00,52.516
887.00,52.462
888.00,52.472
889.00,52.397
890.00,52.422
891.00,52.390
892.00,52.329
893.00,52.307
894.00,52.328
895.00,52.278
896.00,52.265
897.00,52.231
898.00,52.222
899.00,52.206
900.00,52.172
901.00,52.147
902.00,52.148
903.00,52.138
904.00,52.100
905.00,52.098
906.00,52.071
907.00,52.039
908.00,52.003
909.00,51.987
910.00,51.961
911.00,51.957
912.00,51.946
913.00,51.882
914.00,51.891
915.00,51.849
916.00,51.813
917.00,51.763
918.00,51.933
919.00,51.743
920.00,51.710
921.00,51.701
922.00,51.696
923.00,51.660
924.00,51.632
925.00,51.629
926.00,51.612
927.00,51.599
928.00,51.549
929.00,51.548
930.00,51.518
931.00,51.515
932.00,51.437
933.00,51.479
934.00,51.442
935.00,51.413
936.00,51.381
937.00,51.347
938.00,51.328
939.00,51.325
940.00,51.294
941.00,51.309
942.00,51.258
943.00,51.239
944.00,51.225
945.00,51.244
946.00,51.215
947.00,51.181
948.00,51.155
949.00,51.117
950.00,51.104
951.00,51.086
952.00,51.067
953.00,51.024
954.00,51.018
955.00,50.967
956.00,50.968
957.00,50.908
958.00,50.925
959.00,50.855
960.00,50.859
961.00,50.848
962.00,50.844
963.00,50.798
964.00,50.801
965.00,50.780
966.00,50.769
967.00,50.752
968.00,50.720
969.00,50.768
970.00,50.731
971.00,50.737
972.00,50.701
973.00,50.734
974.00,50.749
975.00,50.721
976.00,50.728
977.00,50.739
978.00,50.819
979.00,50.809
980.00,50.733
981.00,50.738
982.00,50.691
983.00,50.725
984.00,50.687
985.00,50.699
986.00,50.657
987.00,50.678
988.00,50.635
989.00,50.630
990.00,50.620
991.00,50.628
992.00,50.628
993.00,50.590
994.00,50.589
995.00,50.561
996.00,50.548
997.00,50.522
998.00,50.495
999.00,50.532
1000.00,50.460
1001.00,50.451
1002.00,50.477
1003.00,50.477
1004.00,50.441
1005.00,50.406
1006.00,50.441
1007.00,50.412
1008.00,50.398
1009.00,50.389
1010.00,50.383
1011.00,50.370
1012.00,50.319
1013.00,50.346
1014.00,50.299
1015.00,50.298
1016.00,50.257
1017.00,50.243
1018.00,50.249
1019.00,50.206
1020.00,50.199
1021.00,50.211
1022.00,50.191
1023.00,50.117
1024.00,50.187
1025.00,50.133
1026.00,50.110
1027.00,50.090
1028.00,50.087
1029.00,50.076
1030.00,50.033
1031.00,50.048
1032.00,50.020
1033.00,50.016
1034.00,49.970
1035.00,49.951
1036.00,49.929
1037.00,49.902
1038.00,49.901
1039.00,49.855
1040.00,49.851
1041.00,49.818
1042.00,49.816
1043.00,49.812
1044.00,49.827
1045.00,49.809
1046.00,49.819
1047.00,49.827
1048.00,49.822
1049.00,49.845
1050.00,49.842
1051.00,49.898
1052.00,49.899
1053.00,49.893
1054.00,49.902
1055.00,49.928
1056.00,49.941
1057.00,49.941
1058.00,49.910
1059.00,49.902
1060.00,49.926
1061.00,49.884
1062.00,49.884
1063.00,49.901
1064.00,49.892
1065.00,49.884
1066.00,49.873
1067.00,49.858
1068.00,49.889
1069.00,49.835
1070.00,49.814
1071.00,49.814
1072.00,49.828
1073.00,49.806
1074.00,49.812
1075.00,49.792
1076.00,49.807
1077.00,49.774
1078.00,49.730
1079.00,49.754
1080.00,49.740
1081.00,49.715
1082.00,49.724
1083.00,49.710
1084.00,49.713
1085.00,49.731
1086.00,49.723
1087.00,49.705
1088.00,49.677
1089.00,49.675
1090.00,49.685
1091.00,49.675
1092.00,49.651
1093.00,49.648
1094.00,49.620
1095.00,49.617
1096.00,49.593
1097.00,49.580
1098.00,49.581
1099.00,49.573
1100.00,49.556
1101.00,49.575
1102.00,49.549
1103.00,49.560
1104.00,49.553
1105.00,49.537
1106.00,49.533
1107.00,49.535
1108.00,49.508
1109.00,49.513
1110.00,49.505
1111.00,49.489
1112.00,49.489
1113.00,49.483
1114.00,49.472
1115.00,49.487
1116.00,49.457
1117.00,49.448
1118.00,49.445
1119.00,49.433
1120.00,49.437
1121.00,49.437
1122.00,49.424
1123.00,49.429
1124.00,49.415
1125.00,49.407
1126.00,49.404
1127.00,49.396
1128.00,49.391
1129.00,49.372
1130.00,49.351
1131.00,49.383
1132.00,49.360
1133.00,49.352
1134.00,49.345
1135.00,49.324
1136.00,49.318
1137.00,49.337
1138.00,49.321
1139.00,49.327
1140.00,49.329
1141.00,49.306
1142.00,49.332
1143.00,49.342
1144.00,49.290
1145.00,49.319
1146.00,49.309
1147.00,49.299
1148.00,49.308
1149.00,49.317
1150.00,49.322
1151.00,49.320
1152.00,49.301
1153.00,49.306
1154.00,49.288
1155.00,49.278
1156.00,49.287
1157.00,49.282
1158.00,49.263
1159.00,49.271
1160.00,49.266
1161.00,49.289
1162.00,49.301
1163.00,49.261
1164.00,49.276
1165.00,49.273
1166.00,49.271
1167.00,49.262
1168.00,49.280
1169.00,49.257
1170.00,49.258
1171.00,49.229
1172.00,49.247
1173.00,49.247
1174.00,49.244
1175.00,49.252
1176.00,49.248
1177.00,49.229
1178.00,49.250
1179.00,49.261
1180.00,49.239
1181.00,49.267
1182.00,49.250
1183.00,49.250
1184.00,49.240
1185.00,49.243
1186.00,49.249
1187.00,49.257
1188.00,49.248
1189.00,49.275
1190.00,49.250
1191.00,49.241
1192.00,49.280
1193.00,49.257
1194.00,49.267
1195.00,49.239
1196.00,49.255
1197.00,49.261
1198.00,49.251
1199.00,49.249
1200.00,49.262
1201.00,49.275
1202.00,49.243
1203.00,49.256
1204.00,49.243
1205.00,49.265
1206.00,49.253
1207.00,49.242
1208.00,49.244
1209.00,49.261
1210.00,49.232
1211.00,49.260
1212.00,49.300
1213.00,49.227
1214.00,49.267
1215.00,49.238
1216.00,49.249
1217.00,49.251
1218.00,49.246
1219.00,49.263
1220.00,49.245
1221.00,49.251
1222.00,49.255
1223.00,49.273
1224.00,49.257
1225.00,49.247
1226.00,49.259
1227.00,49.256
1228.00,49.275
1229.00,49.269
1230.00,49.311
1231.00,49.308
1232.00,49.316
1233.00,49.331
1234.00,49.334
1235.00,49.344
1236.00,49.352
1237.00,49.340
1238.00,49.333
1239.00,49.346
1240.00,49.320
1241.00,49.355
1242.00,49.345
1243.00,49.338
1244.00,49.331
1245.00,49.360
1246.00,49.360
1247.00,49.351
1248.00,49.338
1249.00,49.355
1250.00,49.377
1251.00,49.353
1252.00,49.366
1253.00,49.363
1254.00,49.402
1255.00,49.370
1256.00,49.375
1257.00,49.352
1258.00,49.403
1259.00,49.384
1260.00,49.422
1261.00,49.430
1262.00,49.409
1263.00,49.432
1264.00,49.433
1265.00,49.433
1266.00,49.448
1267.00,49.449
1268.00,49.440
1269.00,49.475
1270.00,49.484
1271.00,49.476
1272.00,49.483
1273.00,49.489
1274.00,49.502
1275.00,49.510
1276.00,49.496
1277.00,49.520
1278.00,49.524
1279.00,49.530
1280.00,49.531
1281.00,49.540
1282.00,49.551
1283.00,49.547
1284.00,49.544
1285.00,49.556
1286.00,49.573
1287.00,49.552
1288.00,49.567
1289.00,49.547
1290.00,49.578
1291.00,49.586
1292.00,49.592
1293.00,49.598
1294.00,49.621
1295.00,49.612
1296.00,49.632
1297.00,49.622
1298.00,49.636
1299.00,49.632
1300.00,49.641
1301.00,49.634
1302.00,49.688
1303.00,49.659
1304.00,49.641
1305.00,49.676
1306.00,49.681
1307.00,49.699
1308.00,49.690
1309.00,49.707
1310.00,49.718
1311.00,49.690
1312.00,49.698
1313.00,49.737
1314.00,49.734
1315.00,49.754
1316.00,49.759
1317.00,49.781
1318.00,49.779
1319.00,49.772
1320.00,49.777
1321.00,49.962
1322.00,49.936
1323.00,49.910
1324.00,49.924
1325.00,49.933
1326.00,49.961
1327.00,49.923
1328.00,49.929
1329.00,49.967
1330.00,49.966
1331.00,49.968
1332.00,49.991
1333.00,49.961
1334.00,50.007
1335.00,50.029
1336.00,50.037
1337.00,50.077
1338.00,50.128
1339.00,50.155
1340.00,50.231
1341.00,50.286
1342.00,50.340
1343.00,50.401
1344.00,50.467
1345.00,50.538
1346.00,50.592
1347.00,50.648
1348.00,50.613
1349.00,50.636
1350.00,50.637
1351.00,50.665
1352.00,50.666
1353.00,50.685
1354.00,50.699
1355.00,50.634
1356.00,50.710
1357.00,50.729
1358.00,50.714
1359.00,50.726
1360.00,50.794
1361.00,50.777
1362.00,50.641
1363.00,50.780
1364.00,50.799
1365.00,50.732
1366.00,50.808
1367.00,50.755
1368.00,50.671
1369.00,50.756
1370.00,50.716
1371.00,50.678
1372.00,50.713
1373.00,50.754
1374.00,50.740
1375.00,50.708
1376.00,50.728
1377.00,50.704
1378.00,50.748
1379.00,50.772
1380.00,50.740
1381.00,50.780
1382.00,50.734
1383.00,50.725
1384.00,50.676
1385.00,50.670
1386.00,50.616
1387.00,50.693
1388.00,50.665
1389.00,50.681
1390.00,50.697
1391.00,50.683
1392.00,50.682
1393.00,50.722
1394.00,50.735
1395.00,50.678
1396.00,50.643
1397.00,50.669
1398.00,50.800
1399.00,50.742
1400.00,50.627
1401.00,50.711
1402.00,50.831
1403.00,50.749
1404.00,50.741
1405.00,50.759
1406.00,50.811
1407.00,50.777
1408.00,50.754
1409.00,50.772
1410.00,50.802
1411.00,50.794
1412.00,50.857
1413.00,50.787
1414.00,50.802
1415.00,50.845
1416.00,50.846
1417.00,50.901
1418.00,50.876
1419.00,50.890
1420.00,50.926
1421.00,50.962
1422.00,50.935
1423.00,50.974
1424.00,50.959
1425.00,50.985
1426.00,50.981
1427.00,51.007
1428.00,51.036
1429.00,51.049
1430.00,51.044
1431.00,51.094
1432.00,51.096
1433.00,51.106
1434.00,51.113
1435.00,51.146
1436.00,51.168
1437.00,51.155
1438.00,51.166
1439.00,51.208
1440.00,51.204
1441.00,51.207
1442.00,51.256
1443.00,51.295
1444.00,51.381
1445.00,51.355
1446.00,51.325
1447.00,51.352
1448.00,51.401
1449.00,51.385
1450.00,51.402
1451.00,51.403
1452.00,51.426
1453.00,51.449
1454.00,51.467
1455.00,51.485
1456.00,51.510
1457.00,51.500
1458.00,51.537
1459.00,51.555
1460.00,51.588
1461.00,51.577
1462.00,51.611
1463.00,51.638
1464.00,51.643
1465.00,51.653
1466.00,51.652
1467.00,51.697
1468.00,51.728
1469.00,51.709
1470.00,51.745
1471.00,51.754
1472.00,51.769
1473.00,51.788
1474.00,51.807
1475.00,51.832
1476.00,51.827
1477.00,51.811
1478.00,51.862
1479.00,51.848
1480.00,51.864
1481.00,51.891
1482.00,51.902
1483.00,51.936
1484.00,51.944
1485.00,51.934
1486.00,51.965
1487.00,51.987
1488.00,52.015
1489.00,52.007
1490.00,52.018
1491.00,52.034
1492.00,52.063
1493.00,52.031
1494.00,52.079
1495.00,52.068
1496.00,52.087
1497.00,52.085
1498.00,52.096
1499.00,52.106
1500.00,52.145
1501.00, 
1502.00, 
1503.00, 
1504.00, 
1505.00, 
1506.00, 
1507.00, 
1508.00, 
1509.00, 
1510.00, 
1511.00, 
1512.00, 
1513.00, 
1514.00, 
1515.00, 
1516.00, 
1517.00, 
1518.00, 
1519.00, 
1520.00, 
1521.00, 
1522.00, 
1523.00, 
1524.00, 
1525.00, 
1526.00, 
1527.00, 
1528.00, 
1529.00, 
1530.00, 
1531.00, 
1532.00, 
1533.00, 
1534.00, 
1535.00, 
1536.00, 
1537.00, 
1538.00, 
1539.00, 
1540.00, 
1541.00, 
1542.00, 
1543.00, 
1544.00, 
1545.00, 
1546.00, 
1547.00, 
1548.00, 
1549.00, 
1550.00, 
1551.00, 
1552.00, 
1553.00, 
1554.00, 
1555.00, 
1556.00, 
1557.00, 
1558.00, 
1559.00, 
1560.00, 
1561.00, 
1562.00, 
1563.00, 
1564.00, 
1565.00, 
1566.00, 
1567.00, 
1568.00, 
1569.00, 
1570.00, 
1571.00, 
1572.00, 
1573.00, 
1574.00, 
1575.00, 
1576.00, 
1577.00, 
1578.00, 
1579.00, 
1580.00, 
1581.00, 
1582.00, 
1583.00, 
1584.00, 
1585.00, 
1586.00, 
1587.00, 
1588.00, 
1589.00, 
1590.00, 
1591.00, 
1592.00, 
1593.00, 
1594.00, 
1595.00, 
1596.00, 
1597.00, 
1598.00, 
1599.00, 
1600.00, 
1601.00, 
1602.00, 
1603.00, 
1604.00, 
1605.00, 
1606.00, 
1607.00, 
1608.00, 
1609.00, 
1610.00, 
1611.00, 
1612.00, 
1613.00, 
1614.00, 
1615.00, 
1616.00, 
1617.00, 
1618.00, 
1619.00, 
1620.00, 
1621.00, 
1622.00, 
1623.00, 
1624.00, 
1625.00, 
1626.00, 
1627.00, 
1628.00, 
1629.00, 
1630.00, 
1631.00, 
1632.00, 
1633.00, 
1634.00, 
1635.00, 
1636.00, 
1637.00, 
1638.00, 
1639.00, 
1640.00, 
1641.00, 
1642.00, 
1643.00, 
1644.00, 
1645.00, 
1646.00, 
1647.00, 
1648.00, 
1649.00, 
1650.00, 
1651.00, 
1652.00, 
1653.00, 
1654.00, 
1655.00, 
1656.00, 
1657.00, 
1658.00, 
1659.00, 
1660.00, 
1661.00, 
1662.00, 
1663.00, 
1664.00, 
1665.00, 
1666.00, 
1667.00, 
1668.00, 
1669.00, 
1670.00, 
1671.00, 
1672.00, 
1673.00, 
1674.00, 
1675.00, 
1676.00, 
1677.00, 
1678.00, 
1679.00, 
1680.00, 
1681.00, 
1682.00, 
1683.00, 
1684.00, 
1685.00, 
1686.00, 
1687.00, 
1688.00, 
1689.00, 
1690.00, 
1691.00, 
1692.00, 
1693.00, 
1694.00, 
1695.00, 
1696.00, 
1697.00, 
1698.00, 
1699.00, 
1700.00, 
1701.00, 
1702.00, 
1703.00, 
1704.00, 
1705.00, 
1706.00, 
1707.00, 
1708.00, 
1709.00, 
1710.00, 
1711.00, 
1712.00, 
1713.00, 
1714.00, 
1715.00, 
1716.00, 
1717.00, 
1718.00, 
1719.00, 
1720.00, 
1721.00, 
1722.00, 
1723.00, 
1724.00, 
1725.00, 
1726.00, 
1727.00, 
1728.00, 
1729.00, 
1730.00, 
1731.00, 
1732.00, 
1733.00, 
1734.00, 
1735.00, 
1736.00, 
1737.00, 
1738.00, 
1739.00, 
1740.00, 
1741.00, 
1742.00, 
1743.00, 
1744.00, 
1745.00, 
1746.00, 
1747.00, 
1748.00, 
1749.00, 
1750.00, 
1751.00, 
1752.00, 
1753.00, 
1754.00, 
1755.00, 
1756.00, 
1757.00, 
1758.00, 
1759.00, 
1760.00, 
1761.00, 
1762.00, 
1763.00, 
1764.00, 
1765.00, 
1766.00, 
1767.00, 
1768.00, 
1769.00, 
1770.00, 
1771.00, 
1772.00, 
1773.00, 
1774.00, 
1775.00, 
1776.00, 
1777.00, 
1778.00, 
1779.00, 
1780.00, 
1781.00, 
1782.00, 
1783.00, 
1784.00, 
1785.00, 
1786.00, 
1787.00, 
1788.00, 
1789.00, 
1790.00, 
1791.00, 
1792.00, 
1793.00, 
1794.00, 
1795.00, 
1796.00, 
1797.00, 
1798.00, 
1799.00, 
1800.00, 
1801.00, 
1802.00, 
1803.00, 
1804.00, 
1805.00, 
1806.00, 
1807.00, 
1808.00, 
1809.00, 
1810.00, 
1811.00, 
1812.00, 
1813.00, 
1814.00, 
1815.00, 
1816.00, 
1817.00, 
1818.00, 
1819.00, 
1820.00, 
1821.00, 
1822.00, 
1823.00, 
1824.00, 
1825.00, 
1826.00, 
1827.00, 
1828.00, 
1829.00, 
1830.00, 
1831.00, 
1832.00, 
1833.00, 
1834.00, 
1835.00, 
1836.00, 
1837.00, 
1838.00, 
1839.00, 
1840.00, 
1841.00, 
1842.00, 
1843.00, 
1844.00, 
1845.00, 
1846.00, 
1847.00, 
1848.00, 
1849.00, 
1850.00, 
1851.00, 
1852.00, 
1853.00, 
1854.00, 
1855.00, 
1856.00, 
1857.00, 
1858.00, 
1859.00, 
1860.00, 
1861.00, 
1862.00, 
1863.00, 
1864.00, 
1865.00, 
1866.00, 
1867.00, 
1868.00, 
1869.00, 
1870.00, 
1871.00, 
1872.00, 
1873.00, 
1874.00, 
1875.00, 
1876.00, 
1877.00, 
1878.00, 
1879.00, 
1880.00, 
1881.00, 
1882.00, 
1883.00, 
1884.00, 
1885.00, 
1886.00, 
1887.00, 
1888.00, 
1889.00, 
1890.00, 
1891.00, 
1892.00, 
1893.00, 
1894.00, 
1895.00, 
1896.00, 
1897.00, 
1898.00, 
1899.00, 
1900.00, 
1901.00, 
1902.00, 
1903.00, 
1904.00, 
1905.00, 
1906.00, 
1907.00, 
1908.00, 
1909.00, 
1910.00, 
1911.00, 
1912.00, 
1913.00, 
1914.00, 
1915.00, 
1916.00, 
1917.00, 
1918.00, 
1919.00, 
1920.00, 
1921.00, 
1922.00, 
1923.00, 
1924.00, 
1925.00, 
1926.00, 
1927.00, 
1928.00, 
1929.00, 
1930.00, 
1931.00, 
1932.00, 
1933.00, 
1934.00, 
1935.00, 
1936.00, 
1937.00, 
1938.00, 
1939.00, 
1940.00, 
1941.00, 
1942.00, 
1943.00, 
1944.00, 
1945.00, 
1946.00, 
1947.00, 
1948.00, 
1949.00, 
1950.00, 
1951.00, 
1952.00, 
1953.00, 
1954.00, 
1955.00, 
1956.00, 
1957.00, 
1958.00, 
1959.00, 
1960.00, 
1961.00, 
1962.00, 
1963.00, 
1964.00, 
1965.00, 
1966.00, 
1967.00, 
1968.00, 
1969.00, 
1970.00, 
1971.00, 
1972.00, 
1973.00, 
1974.00, 
1975.00, 
1976.00, 
1977.00, 
1978.00, 
1979.00, 
1980.00, 
1981.00, 
1982.00, 
1983.00, 
1984.00, 
1985.00, 
1986.00, 
1987.00, 
1988.00, 
1989.00, 
1990.00, 
1991.00, 
1992.00, 
1993.00, 
1994.00, 
1995.00, 
1996.00, 
1997.00, 
1998.00, 
1999.00, 
2000.00, 
2001.00, 
2002.00, 
2003.00, 
2004.00, 
2005.00, 
2006.00, 
2007.00, 
2008.00, 
2009.00, 
2010.00, 
2011.00, 
2012.00, 
2013.00, 
2014.00, 
2015.00, 
2016.00, 
2017.00, 
2018.00, 
2019.00, 
2020.00, 
2021.00, 
2022.00, 
2023.00, 
2024.00, 
2025.00, 
2026.00, 
2027.00, 
2028.00, 
2029.00, 
2030.00, 
2031.00, 
2032.00, 
2033.00, 
2034.00, 
2035.00, 
2036.00, 
2037.00, 
2038.00, 
2039.00, 
2040.00, 
2041.00, 
2042.00, 
2043.00, 
2044.00, 
2045.00, 
2046.00, 
2047.00, 
2048.00, 
2049.00, 
2050.00, 
2051.00, 
2052.00, 
2053.00, 
2054.00, 
2055.00, 
2056.00, 
2057.00, 
2058.00, 
2059.00, 
2060.00, 
2061.00, 
2062.00, 
2063.00, 
2064.00, 
2065.00, 
2066.00, 
2067.00, 
2068.00, 
2069.00, 
2070.00, 
2071.00, 
2072.00, 
2073.00, 
2074.00, 
2075.00, 
2076.00, 
2077.00, 
2078.00, 
2079.00, 
2080.00, 
2081.00, 
2082.00, 
2083.00, 
2084.00, 
2085.00, 
2086.00, 
2087.00, 
2088.00, 
2089.00, 
2090.00, 
2091.00, 
2092.00, 
2093.00, 
2094.00, 
2095.00, 
2096.00, 
2097.00, 
2098.00, 
2099.00, 
2100.00, 
2101.00, 
2102.00, 
2103.00, 
2104.00, 
2105.00, 
2106.00, 
2107.00, 
2108.00, 
2109.00, 
2110.00, 
2111.00, 
2112.00, 
2113.00, 
2114.00, 
2115.00, 
2116.00, 
2117.00, 
2118.00, 
2119.00, 
2120.00, 
2121.00, 
2122.00, 
2123.00, 
2124.00, 
2125.00, 
2126.00, 
2127.00, 
2128.00, 
2129.00, 
2130.00, 
2131.00, 
2132.00, 
2133.00, 
2134.00, 
2135.00, 
2136.00, 
2137.00, 
2138.00, 
2139.00, 
2140.00, 
2141.00, 
2142.00, 
2143.00, 
2144.00, 
2145.00, 
2146.00, 
2147.00, 
2148.00, 
2149.00, 
2150.00, 
2151.00, 
2152.00, 
2153.00, 
2154.00, 
2155.00, 
2156.00, 
2157.00, 
2158.00, 
2159.00, 
2160.00, 
2161.00, 
2162.00, 
2163.00, 
2164.00, 
2165.00, 
2166.00, 
2167.00, 
2168.00, 
2169.00, 
2170.00, 
2171.00, 
2172.00, 
2173.00, 
2174.00, 
2175.00, 
2176.00, 
2177.00, 
2178.00, 
2179.00, 
2180.00, 
2181.00, 
2182.00, 
2183.00, 
2184.00, 
2185.00, 
2186.00, 
2187.00, 
2188.00, 
2189.00, 
2190.00, 
2191.00, 
2192.00, 
2193.00, 
2194.00, 
2195.00, 
2196.00, 
2197.00, 
2198.00, 
2199.00, 
2200.00, 
2201.00, 
2202.00, 
2203.00, 
2204.00, 
2205.00, 
2206.00, 
2207.00, 
2208.00, 
2209.00, 
2210.00, 
2211.00, 
2212.00, 
2213.00, 
2214.00, 
2215.00, 
2216.00, 
2217.00, 
2218.00, 
2219.00, 
2220.00, 
2221.00, 
2222.00, 
2223.00, 
2224.00, 
2225.00, 
2226.00, 
2227.00, 
2228.00, 
2229.00, 
2230.00, 
2231.00, 
2232.00, 
2233.00, 
2234.00, 
2235.00, 
2236.00, 
2237.00, 
2238.00, 
2239.00, 
2240.00, 
2241.00, 
2242.00, 
2243.00, 
2244.00, 
2245.00, 
2246.00, 
2247.00, 
2248.00, 
2249.00, 
2250.00, 
2251.00, 
2252.00, 
2253.00, 
2254.00, 
2255.00, 
2256.00, 
2257.00, 
2258.00, 
2259.00, 
2260.00, 
2261.00, 
2262.00, 
2263.00, 
2264.00, 
2265.00, 
2266.00, 
2267.00, 
2268.00, 
2269.00, 
2270.00, 
2271.00, 
2272.00, 
2273.00, 
2274.00, 
2275.00, 
2276.00, 
2277.00, 
2278.00, 
2279.00, 
2280.00, 
2281.00, 
2282.00, 
2283.00, 
2284.00, 
2285.00, 
2286.00, 
2287.00, 
2288.00, 
2289.00, 
2290.00, 
2291.00, 
2292.00, 
2293.00, 
2294.00, 
2295.00, 
2296.00, 
2297.00, 
2298.00, 
2299.00, 
2300.00, 
2301.00, 
2302.00, 
2303.00, 
2304.00, 
2305.00, 
2306.00, 
2307.00, 
2308.00, 
2309.00, 
2310.00, 
2311.00, 
2312.00, 
2313.00, 
2314.00, 
2315.00, 
2316.00, 
2317.00, 
2318.00, 
2319.00, 
2320.00, 
2321.00, 
2322.00, 
2323.00, 
2324.00, 
2325.00, 
2326.00, 
2327.00, 
2328.00, 
2329.00, 
2330.00, 
2331.00, 
2332.00, 
2333.00, 
2334.00, 
2335.00, 
2336.00, 
2337.00, 
2338.00, 
2339.00, 
2340.00, 
2341.00, 
2342.00, 
2343.00, 
2344.00, 
2345.00, 
2346.00, 
2347.00, 
2348.00, 
2349.00, 
2350.00, 
2351.00, 
2352.00, 
2353.00, 
2354.00, 
2355.00, 
2356.00, 
2357.00, 
2358.00, 
2359.00, 
2360.00, 
2361.00, 
2362.00, 
2363.00, 
2364.00, 
2365.00, 
2366.00, 
2367.00, 
2368.00, 
2369.00, 
2370.00, 
2371.00, 
2372.00, 
2373.00, 
2374.00, 
2375.00, 
2376.00, 
2377.00, 
2378.00, 
2379.00, 
2380.00, 
2381.00, 
2382.00, 
2383.00, 
2384.00, 
2385.00, 
2386.00, 
2387.00, 
2388.00, 
2389.00, 
2390.00, 
2391.00, 
2392.00, 
2393.00, 
2394.00, 
2395.00, 
2396.00, 
2397.00, 
2398.00, 
2399.00, 
2400.00, 
2401.00, 
2402.00, 
2403.00, 
2404.00, 
2405.00, 
2406.00, 
2407.00, 
2408.00, 
2409.00, 
2410.00, 
2411.00, 
2412.00, 
2413.00, 
2414.00, 
2415.00, 
2416.00, 
2417.00, 
2418.00, 
2419.00, 
2420.00, 
2421.00, 
2422.00, 
2423.00, 
2424.00, 
2425.00, 
2426.00, 
2427.00, 
2428.00, 
2429.00, 
2430.00, 
2431.00, 
2432.00, 
2433.00, 
2434.00, 
2435.00, 
2436.00, 
2437.00, 
2438.00, 
2439.00, 
2440.00, 
2441.00, 
2442.00, 
2443.00, 
2444.00, 
2445.00, 
2446.00, 
2447.00, 
2448.00, 
2449.00, 
2450.00, 
2451.00, 
2452.00, 
2453.00, 
2454.00, 
2455.00, 
2456.00, 
2457.00, 
2458.00, 
2459.00, 
2460.00, 
2461.00, 
2462.00, 
2463.00, 
2464.00, 
2465.00, 
2466.00, 
2467.00, 
2468.00, 
2469.00, 
2470.00, 
2471.00, 
2472.00, 
2473.00, 
2474.00, 
2475.00, 
2476.00, 
2477.00, 
2478.00, 
2479.00, 
2480.00, 
2481.00, 
2482.00, 
2483.00, 
2484.00, 
2485.00, 
2486.00, 
2487.00, 
2488.00, 
2489.00, 
2490.00, 
2491.00, 
2492.00, 
2493.00, 
2494.00, 
2495.00, 
2496.00, 
2497.00, 
2498.00, 
2499.00, 
2500.00, 
2501.00, 
2502.00, 
2503.00, 
2504.00, 
2505.00, 
2506.00, 
2507.00, 
2508.00, 
2509.00, 
2510.00, 
2511.00, 
2512.00, 
2513.00, 
2514.00, 
2515.00, 
2516.00, 
2517.00, 
2518.00, 
2519.00, 
2520.00, 
2521.00, 
2522.00, 
2523.00, 
2524.00, 
2525.00, 
2526.00, 
2527.00, 
2528.00, 
2529.00, 
2530.00, 
2531.00, 
2532.00, 
2533.00, 
2534.00, 
2535.00, 
2536.00, 
2537.00, 
2538.00, 
2539.00, 
2540.00, 
2541.00, 
2542.00, 
2543.00, 
2544.00, 
2545.00, 
2546.00, 
2547.00, 
2548.00, 
2549.00, 
2550.00, 
2551.00, 
2552.00, 
2553.00, 
2554.00, 
2555.00, 
2556.00, 
2557.00, 
2558.00, 
2559.00, 
2560.00, 
2561.00, 
2562.00, 
2563.00, 
2564.00, 
2565.00, 
2566.00, 
2567.00, 
2568.00, 
2569.00, 
2570.00, 
2571.00, 
2572.00, 
2573.00, 
2574.00, 
2575.00, 
2576.00, 
2577.00, 
2578.00, 
2579.00, 
2580.00, 
2581.00, 
2582.00, 
2583.00, 
2584.00, 
2585.00, 
2586.00, 
2587.00, 
2588.00, 
2589.00, 
2590.00, 
2591.00, 
2592.00, 
2593.00, 
2594.00, 
2595.00, 
2596.00, 
2597.00, 
2598.00, 
2599.00, 
2600.00, 
