"2bP2 - RawData"
"Wavelength nm.","T%"
200.00,0.001
201.00,0.003
202.00,0.001
203.00,0.001
204.00,0.003
205.00,0.001
206.00,-0.001
207.00,0.001
208.00,0.004
209.00,0.000
210.00,0.001
211.00,0.001
212.00,-0.001
213.00,0.002
214.00,-0.000
215.00,-0.001
216.00,0.002
217.00,-0.001
218.00,0.001
219.00,0.002
220.00,-0.001
221.00,-0.001
222.00,0.001
223.00,0.001
224.00,-0.001
225.00,0.001
226.00,0.003
227.00,0.003
228.00,0.000
229.00,-0.001
230.00,0.001
231.00,-0.001
232.00,-0.000
233.00,0.002
234.00,-0.000
235.00,0.001
236.00,0.002
237.00,0.000
238.00,0.002
239.00,0.002
240.00,0.000
241.00,0.001
242.00,0.000
243.00,-0.001
244.00,0.001
245.00,0.002
246.00,0.001
247.00,-0.001
248.00,0.003
249.00,-0.001
250.00,-0.000
251.00,-0.000
252.00,-0.000
253.00,0.001
254.00,0.001
255.00,-0.000
256.00,0.001
257.00,-0.000
258.00,0.002
259.00,0.000
260.00,-0.000
261.00,0.000
262.00,-0.000
263.00,-0.000
264.00,0.000
265.00,-0.001
266.00,-0.000
267.00,0.003
268.00,0.000
269.00,-0.001
270.00,0.002
271.00,-0.001
272.00,0.000
273.00,0.000
274.00,-0.000
275.00,-0.000
276.00,0.001
277.00,0.001
278.00,-0.000
279.00,0.000
280.00,-0.001
281.00,-0.000
282.00,0.001
283.00,0.000
284.00,0.001
285.00,-0.001
286.00,0.001
287.00,-0.000
288.00,0.000
289.00,-0.000
290.00,0.001
291.00,-0.000
292.00,-0.000
293.00,0.002
294.00,-0.001
295.00,-0.000
296.00,-0.000
297.00,-0.000
298.00,-0.001
299.00,0.001
300.00,0.002
301.00,0.005
302.00,0.006
303.00,0.011
304.00,0.013
305.00,0.023
306.00,0.032
307.00,0.050
308.00,0.077
309.00,0.121
310.00,0.164
311.00,0.220
312.00,0.298
313.00,0.404
314.00,0.527
315.00,0.684
316.00,0.867
317.00,1.091
318.00,1.338
319.00,1.623
320.00,1.946
321.00,2.332
322.00,2.755
323.00,3.232
324.00,3.719
325.00,4.222
326.00,4.739
327.00,5.339
328.00,5.976
329.00,6.571
330.00,7.195
331.00,7.821
332.00,8.507
333.00,9.217
334.00,9.887
335.00,10.529
336.00,11.216
337.00,11.780
338.00,12.525
339.00,13.131
340.00,13.724
341.00,14.320
342.00,14.905
343.00,15.425
344.00,15.963
345.00,16.502
346.00,16.936
347.00,17.339
348.00,17.762
349.00,18.153
350.00,18.515
351.00,18.812
352.00,19.176
353.00,19.462
354.00,19.739
355.00,20.001
356.00,20.265
357.00,20.490
358.00,20.682
359.00,20.891
360.00,21.121
361.00,21.219
362.00,21.364
363.00,21.530
364.00,21.618
365.00,21.673
366.00,21.756
367.00,21.861
368.00,21.891
369.00,21.936
370.00,22.007
371.00,22.027
372.00,21.983
373.00,22.002
374.00,22.029
375.00,22.004
376.00,21.944
377.00,21.906
378.00,21.848
379.00,21.764
380.00,21.715
381.00,21.728
382.00,21.727
383.00,21.722
384.00,21.783
385.00,21.769
386.00,21.785
387.00,21.835
388.00,21.885
389.00,21.853
390.00,21.892
391.00,21.908
392.00,21.917
393.00,21.919
394.00,21.950
395.00,21.939
396.00,21.923
397.00,21.950
398.00,21.954
399.00,21.941
400.00,21.954
401.00,21.939
402.00,21.876
403.00,21.911
404.00,21.928
405.00,21.885
406.00,21.884
407.00,21.829
408.00,21.841
409.00,21.742
410.00,21.717
411.00,21.716
412.00,21.705
413.00,21.728
414.00,21.699
415.00,21.716
416.00,21.731
417.00,21.750
418.00,21.763
419.00,21.839
420.00,21.903
421.00,21.901
422.00,21.920
423.00,21.962
424.00,21.981
425.00,22.029
426.00,22.040
427.00,22.127
428.00,22.116
429.00,22.157
430.00,22.223
431.00,22.257
432.00,22.337
433.00,22.384
434.00,22.453
435.00,22.522
436.00,22.575
437.00,22.642
438.00,22.723
439.00,22.772
440.00,22.865
441.00,22.923
442.00,22.989
443.00,23.069
444.00,23.186
445.00,23.269
446.00,23.378
447.00,23.459
448.00,23.562
449.00,23.673
450.00,23.750
451.00,23.865
452.00,23.980
453.00,24.062
454.00,24.184
455.00,24.286
456.00,24.392
457.00,24.512
458.00,24.630
459.00,24.757
460.00,24.846
461.00,25.012
462.00,25.079
463.00,25.261
464.00,25.385
465.00,25.509
466.00,25.645
467.00,25.750
468.00,25.864
469.00,25.997
470.00,26.089
471.00,26.217
472.00,26.315
473.00,26.423
474.00,26.581
475.00,26.642
476.00,26.735
477.00,26.859
478.00,27.020
479.00,27.198
480.00,27.309
481.00,27.447
482.00,27.594
483.00,27.739
484.00,27.909
485.00,28.040
486.00,28.229
487.00,28.393
488.00,28.541
489.00,28.695
490.00,28.883
491.00,28.966
492.00,29.212
493.00,29.341
494.00,29.357
495.00,29.473
496.00,29.617
497.00,29.735
498.00,29.910
499.00,30.019
500.00,30.167
501.00,30.281
502.00,30.453
503.00,30.566
504.00,30.620
505.00,30.794
506.00,30.878
507.00,31.001
508.00,31.081
509.00,31.283
510.00,31.394
511.00,31.472
512.00,31.641
513.00,31.784
514.00,31.915
515.00,32.027
516.00,32.150
517.00,32.197
518.00,32.345
519.00,32.453
520.00,32.467
521.00,32.635
522.00,32.651
523.00,32.731
524.00,32.847
525.00,32.933
526.00,33.045
527.00,33.123
528.00,33.202
529.00,33.411
530.00,33.524
531.00,33.590
532.00,33.721
533.00,33.801
534.00,33.810
535.00,33.919
536.00,34.099
537.00,34.121
538.00,34.259
539.00,34.269
540.00,34.411
541.00,34.444
542.00,34.468
543.00,34.517
544.00,34.633
545.00,34.693
546.00,34.687
547.00,34.839
548.00,34.946
549.00,35.036
550.00,35.036
551.00,35.112
552.00,35.247
553.00,35.226
554.00,35.398
555.00,35.437
556.00,35.460
557.00,35.564
558.00,35.602
559.00,35.680
560.00,35.763
561.00,35.791
562.00,35.852
563.00,35.916
564.00,35.928
565.00,35.986
566.00,35.997
567.00,36.039
568.00,36.094
569.00,36.127
570.00,36.171
571.00,36.233
572.00,36.278
573.00,36.273
574.00,36.316
575.00,36.314
576.00,36.368
577.00,36.453
578.00,36.473
579.00,36.519
580.00,36.563
581.00,36.755
582.00,36.791
583.00,36.781
584.00,36.918
585.00,36.977
586.00,37.035
587.00,37.136
588.00,37.137
589.00,37.111
590.00,37.240
591.00,37.220
592.00,37.322
593.00,37.388
594.00,37.386
595.00,37.447
596.00,37.513
597.00,37.552
598.00,37.603
599.00,37.594
600.00,37.720
601.00,37.755
602.00,37.745
603.00,37.785
604.00,37.850
605.00,37.872
606.00,37.890
607.00,37.981
608.00,38.084
609.00,38.213
610.00,38.070
611.00,38.126
612.00,38.194
613.00,38.268
614.00,38.308
615.00,38.396
616.00,38.502
617.00,38.515
618.00,38.467
619.00,38.574
620.00,38.619
621.00,38.683
622.00,38.732
623.00,38.811
624.00,38.921
625.00,38.947
626.00,39.015
627.00,39.035
628.00,39.027
629.00,39.138
630.00,39.202
631.00,39.208
632.00,39.325
633.00,39.442
634.00,39.516
635.00,39.674
636.00,39.665
637.00,39.682
638.00,39.744
639.00,39.943
640.00,40.002
641.00,40.000
642.00,40.092
643.00,40.206
644.00,40.348
645.00,40.409
646.00,40.448
647.00,40.522
648.00,40.563
649.00,40.580
650.00,40.662
651.00,40.841
652.00,40.927
653.00,40.902
654.00,40.979
655.00,41.152
656.00,41.400
657.00,41.217
658.00,41.405
659.00,41.504
660.00,41.493
661.00,41.557
662.00,41.685
663.00,41.836
664.00,42.129
665.00,42.242
666.00,42.134
667.00,42.189
668.00,42.360
669.00,42.484
670.00,42.742
671.00,42.822
672.00,42.894
673.00,42.812
674.00,42.923
675.00,43.036
676.00,43.227
677.00,43.444
678.00,43.203
679.00,43.319
680.00,43.562
681.00,43.760
682.00,43.702
683.00,43.749
684.00,44.059
685.00,44.087
686.00,43.917
687.00,44.046
688.00,44.176
689.00,44.319
690.00,44.477
691.00,44.775
692.00,44.609
693.00,44.574
694.00,44.761
695.00,44.953
696.00,44.996
697.00,44.944
698.00,45.172
699.00,45.424
700.00,45.365
701.00,45.370
702.00,45.464
703.00,45.744
704.00,45.758
705.00,45.717
706.00,45.878
707.00,45.859
708.00,45.937
709.00,46.417
710.00,46.155
711.00,46.133
712.00,46.202
713.00,46.433
714.00,46.574
715.00,46.515
716.00,46.474
717.00,46.674
718.00,46.771
719.00,46.776
720.00,46.903
721.00,51.181
722.00,51.267
723.00,51.304
724.00,51.287
725.00,51.350
726.00,51.375
727.00,51.411
728.00,51.385
729.00,51.427
730.00,51.533
731.00,51.488
732.00,51.580
733.00,51.626
734.00,51.685
735.00,51.716
736.00,51.711
737.00,51.784
738.00,51.805
739.00,51.855
740.00,51.864
741.00,51.934
742.00,52.006
743.00,51.974
744.00,51.967
745.00,52.086
746.00,51.986
747.00,52.033
748.00,51.954
749.00,52.072
750.00,52.052
751.00,52.041
752.00,52.034
753.00,52.109
754.00,52.120
755.00,52.071
756.00,52.105
757.00,52.133
758.00,52.202
759.00,52.163
760.00,52.132
761.00,52.229
762.00,52.186
763.00,52.213
764.00,52.267
765.00,52.240
766.00,52.289
767.00,52.296
768.00,52.402
769.00,52.325
770.00,52.405
771.00,52.372
772.00,52.394
773.00,52.309
774.00,52.426
775.00,52.426
776.00,52.425
777.00,52.465
778.00,52.450
779.00,52.532
780.00,52.470
781.00,52.441
782.00,52.528
783.00,52.501
784.00,52.513
785.00,52.428
786.00,52.500
787.00,52.501
788.00,52.459
789.00,52.427
790.00,52.453
791.00,52.532
792.00,52.445
793.00,52.442
794.00,52.445
795.00,52.487
796.00,52.461
797.00,52.391
798.00,52.455
799.00,52.349
800.00,52.360
801.00,52.436
802.00,52.427
803.00,52.371
804.00,52.313
805.00,52.354
806.00,52.316
807.00,52.394
808.00,52.366
809.00,52.300
810.00,52.268
811.00,52.326
812.00,52.321
813.00,52.219
814.00,52.278
815.00,52.253
816.00,52.326
817.00,52.238
818.00,52.213
819.00,52.122
820.00,52.128
821.00,52.161
822.00,52.219
823.00,52.099
824.00,52.159
825.00,52.143
826.00,52.094
827.00,52.197
828.00,52.159
829.00,52.016
830.00,52.077
831.00,54.503
832.00,54.526
833.00,54.469
834.00,54.498
835.00,54.444
836.00,54.412
837.00,54.385
838.00,54.406
839.00,54.332
840.00,54.286
841.00,54.379
842.00,54.310
843.00,54.340
844.00,54.339
845.00,54.297
846.00,54.320
847.00,54.275
848.00,54.268
849.00,54.180
850.00,54.161
851.00,54.092
852.00,54.155
853.00,54.094
854.00,54.060
855.00,54.011
856.00,54.051
857.00,53.982
858.00,53.949
859.00,53.902
860.00,53.943
861.00,53.962
862.00,53.909
863.00,53.899
864.00,53.870
865.00,53.878
866.00,53.865
867.00,53.898
868.00,53.845
869.00,53.835
870.00,53.858
871.00,53.847
872.00,53.836
873.00,53.789
874.00,53.819
875.00,53.783
876.00,53.811
877.00,53.688
878.00,53.874
879.00,53.746
880.00,53.744
881.00,53.709
882.00,53.753
883.00,53.692
884.00,53.644
885.00,53.681
886.00,53.641
887.00,53.609
888.00,53.616
889.00,53.531
890.00,53.542
891.00,53.526
892.00,53.506
893.00,53.492
894.00,53.505
895.00,53.464
896.00,53.447
897.00,53.440
898.00,53.423
899.00,53.428
900.00,53.402
901.00,53.383
902.00,53.391
903.00,53.375
904.00,53.350
905.00,53.351
906.00,53.338
907.00,53.303
908.00,53.254
909.00,53.254
910.00,53.243
911.00,53.230
912.00,53.219
913.00,53.176
914.00,53.167
915.00,53.126
916.00,53.106
917.00,53.116
918.00,53.103
919.00,53.049
920.00,53.040
921.00,53.025
922.00,53.018
923.00,52.987
924.00,52.959
925.00,52.975
926.00,52.942
927.00,52.920
928.00,52.884
929.00,52.899
930.00,52.892
931.00,52.858
932.00,52.782
933.00,52.915
934.00,52.805
935.00,52.783
936.00,52.768
937.00,52.754
938.00,52.740
939.00,52.737
940.00,52.690
941.00,52.682
942.00,52.658
943.00,52.640
944.00,52.604
945.00,52.615
946.00,52.594
947.00,52.515
948.00,52.570
949.00,52.515
950.00,52.519
951.00,52.498
952.00,52.475
953.00,52.429
954.00,52.418
955.00,52.373
956.00,52.368
957.00,52.322
958.00,52.347
959.00,52.294
960.00,52.280
961.00,52.291
962.00,52.251
963.00,52.217
964.00,52.216
965.00,52.221
966.00,52.211
967.00,52.212
968.00,52.172
969.00,52.210
970.00,52.183
971.00,52.182
972.00,52.137
973.00,52.229
974.00,52.229
975.00,52.189
976.00,52.215
977.00,52.201
978.00,52.238
979.00,52.184
980.00,52.199
981.00,52.196
982.00,52.154
983.00,52.171
984.00,52.144
985.00,52.162
986.00,52.136
987.00,52.162
988.00,52.121
989.00,52.111
990.00,52.118
991.00,52.147
992.00,52.128
993.00,52.055
994.00,52.087
995.00,52.066
996.00,52.038
997.00,52.019
998.00,51.994
999.00,52.026
1000.00,51.954
1001.00,51.949
1002.00,51.975
1003.00,51.969
1004.00,51.937
1005.00,51.899
1006.00,51.945
1007.00,51.900
1008.00,51.878
1009.00,51.907
1010.00,51.869
1011.00,51.862
1012.00,51.833
1013.00,51.846
1014.00,51.798
1015.00,51.813
1016.00,51.782
1017.00,51.768
1018.00,51.766
1019.00,51.719
1020.00,51.721
1021.00,51.706
1022.00,51.710
1023.00,51.661
1024.00,51.684
1025.00,51.670
1026.00,51.655
1027.00,51.631
1028.00,51.622
1029.00,51.599
1030.00,51.570
1031.00,51.584
1032.00,51.538
1033.00,51.537
1034.00,51.493
1035.00,51.469
1036.00,51.439
1037.00,51.428
1038.00,51.406
1039.00,51.388
1040.00,51.393
1041.00,51.356
1042.00,51.345
1043.00,51.324
1044.00,51.341
1045.00,51.323
1046.00,51.315
1047.00,51.339
1048.00,51.340
1049.00,51.358
1050.00,51.350
1051.00,51.403
1052.00,51.410
1053.00,51.388
1054.00,51.395
1055.00,51.458
1056.00,51.445
1057.00,51.439
1058.00,51.421
1059.00,51.409
1060.00,51.440
1061.00,51.393
1062.00,51.389
1063.00,51.398
1064.00,51.399
1065.00,51.379
1066.00,51.376
1067.00,51.374
1068.00,51.396
1069.00,51.346
1070.00,51.346
1071.00,51.320
1072.00,51.332
1073.00,51.303
1074.00,51.298
1075.00,51.284
1076.00,51.291
1077.00,51.257
1078.00,51.229
1079.00,51.258
1080.00,51.241
1081.00,51.225
1082.00,51.224
1083.00,51.222
1084.00,51.206
1085.00,51.209
1086.00,51.194
1087.00,51.197
1088.00,51.170
1089.00,51.174
1090.00,51.157
1091.00,51.152
1092.00,51.139
1093.00,51.134
1094.00,51.108
1095.00,51.109
1096.00,51.094
1097.00,51.087
1098.00,51.086
1099.00,51.076
1100.00,51.058
1101.00,51.063
1102.00,51.041
1103.00,51.047
1104.00,51.036
1105.00,51.021
1106.00,51.014
1107.00,51.014
1108.00,50.995
1109.00,50.998
1110.00,50.988
1111.00,50.969
1112.00,50.960
1113.00,50.944
1114.00,50.938
1115.00,50.958
1116.00,50.955
1117.00,50.920
1118.00,50.905
1119.00,50.905
1120.00,50.896
1121.00,50.902
1122.00,50.894
1123.00,50.895
1124.00,50.892
1125.00,50.888
1126.00,50.879
1127.00,50.887
1128.00,50.863
1129.00,50.838
1130.00,50.821
1131.00,50.827
1132.00,50.833
1133.00,50.794
1134.00,50.818
1135.00,50.803
1136.00,50.797
1137.00,50.799
1138.00,50.791
1139.00,50.802
1140.00,50.783
1141.00,50.771
1142.00,50.778
1143.00,50.786
1144.00,50.746
1145.00,50.758
1146.00,50.754
1147.00,50.748
1148.00,50.746
1149.00,50.754
1150.00,50.757
1151.00,50.751
1152.00,50.735
1153.00,50.749
1154.00,50.720
1155.00,50.717
1156.00,50.718
1157.00,50.724
1158.00,50.714
1159.00,50.707
1160.00,50.701
1161.00,50.697
1162.00,50.685
1163.00,50.677
1164.00,50.707
1165.00,50.699
1166.00,50.684
1167.00,50.686
1168.00,50.724
1169.00,50.706
1170.00,50.679
1171.00,50.659
1172.00,50.665
1173.00,50.656
1174.00,50.652
1175.00,50.658
1176.00,50.649
1177.00,50.624
1178.00,50.648
1179.00,50.645
1180.00,50.663
1181.00,50.694
1182.00,50.670
1183.00,50.684
1184.00,50.637
1185.00,50.639
1186.00,50.641
1187.00,50.643
1188.00,50.637
1189.00,50.637
1190.00,50.607
1191.00,50.595
1192.00,50.635
1193.00,50.607
1194.00,50.611
1195.00,50.590
1196.00,50.624
1197.00,50.623
1198.00,50.607
1199.00,50.606
1200.00,50.620
1201.00,50.639
1202.00,50.618
1203.00,50.621
1204.00,50.619
1205.00,50.634
1206.00,50.626
1207.00,50.626
1208.00,50.622
1209.00,50.610
1210.00,50.604
1211.00,50.610
1212.00,50.615
1213.00,50.598
1214.00,50.642
1215.00,50.604
1216.00,50.604
1217.00,50.602
1218.00,50.609
1219.00,50.623
1220.00,50.600
1221.00,50.599
1222.00,50.599
1223.00,50.612
1224.00,50.610
1225.00,50.607
1226.00,50.606
1227.00,50.611
1228.00,50.620
1229.00,50.587
1230.00,50.654
1231.00,50.636
1232.00,50.652
1233.00,50.662
1234.00,50.650
1235.00,50.657
1236.00,50.659
1237.00,50.654
1238.00,50.642
1239.00,50.644
1240.00,50.621
1241.00,50.640
1242.00,50.638
1243.00,50.635
1244.00,50.628
1245.00,50.659
1246.00,50.669
1247.00,50.647
1248.00,50.632
1249.00,50.642
1250.00,50.663
1251.00,50.641
1252.00,50.658
1253.00,50.658
1254.00,50.704
1255.00,50.662
1256.00,50.655
1257.00,50.660
1258.00,50.701
1259.00,50.674
1260.00,50.702
1261.00,50.703
1262.00,50.672
1263.00,50.683
1264.00,50.682
1265.00,50.686
1266.00,50.693
1267.00,50.718
1268.00,50.713
1269.00,50.724
1270.00,50.742
1271.00,50.744
1272.00,50.746
1273.00,50.749
1274.00,50.771
1275.00,50.788
1276.00,50.758
1277.00,50.768
1278.00,50.771
1279.00,50.766
1280.00,50.767
1281.00,50.782
1282.00,50.788
1283.00,50.785
1284.00,50.786
1285.00,50.785
1286.00,50.793
1287.00,50.791
1288.00,50.787
1289.00,50.785
1290.00,50.835
1291.00,50.820
1292.00,50.807
1293.00,50.799
1294.00,50.822
1295.00,50.833
1296.00,50.831
1297.00,50.846
1298.00,50.858
1299.00,50.835
1300.00,50.856
1301.00,50.836
1302.00,50.863
1303.00,50.856
1304.00,50.840
1305.00,50.866
1306.00,50.870
1307.00,50.869
1308.00,50.870
1309.00,50.874
1310.00,50.885
1311.00,50.869
1312.00,50.869
1313.00,50.898
1314.00,50.913
1315.00,50.931
1316.00,50.919
1317.00,50.936
1318.00,50.936
1319.00,50.932
1320.00,50.939
1321.00,51.102
1322.00,51.077
1323.00,51.055
1324.00,51.044
1325.00,51.037
1326.00,51.088
1327.00,51.051
1328.00,51.062
1329.00,51.081
1330.00,51.079
1331.00,51.074
1332.00,51.080
1333.00,51.058
1334.00,51.103
1335.00,51.109
1336.00,51.126
1337.00,51.187
1338.00,51.224
1339.00,51.260
1340.00,51.322
1341.00,51.381
1342.00,51.440
1343.00,51.486
1344.00,51.530
1345.00,51.610
1346.00,51.641
1347.00,51.661
1348.00,51.695
1349.00,51.728
1350.00,51.728
1351.00,51.750
1352.00,51.742
1353.00,51.751
1354.00,51.771
1355.00,51.703
1356.00,51.772
1357.00,51.806
1358.00,51.792
1359.00,51.812
1360.00,51.839
1361.00,51.805
1362.00,51.744
1363.00,51.865
1364.00,51.858
1365.00,51.785
1366.00,51.835
1367.00,51.773
1368.00,51.677
1369.00,51.751
1370.00,51.774
1371.00,51.698
1372.00,51.724
1373.00,51.771
1374.00,51.764
1375.00,51.746
1376.00,51.743
1377.00,51.721
1378.00,51.728
1379.00,51.770
1380.00,51.736
1381.00,51.818
1382.00,51.742
1383.00,51.733
1384.00,51.703
1385.00,51.686
1386.00,51.744
1387.00,51.709
1388.00,51.678
1389.00,51.681
1390.00,51.763
1391.00,51.681
1392.00,51.697
1393.00,51.715
1394.00,51.740
1395.00,51.716
1396.00,51.660
1397.00,51.692
1398.00,51.795
1399.00,51.743
1400.00,51.668
1401.00,51.696
1402.00,51.805
1403.00,51.787
1404.00,51.741
1405.00,51.777
1406.00,51.796
1407.00,51.799
1408.00,51.831
1409.00,51.788
1410.00,51.798
1411.00,51.789
1412.00,51.834
1413.00,51.800
1414.00,51.808
1415.00,51.834
1416.00,51.837
1417.00,51.886
1418.00,51.862
1419.00,51.864
1420.00,51.875
1421.00,51.921
1422.00,51.897
1423.00,51.917
1424.00,51.912
1425.00,51.934
1426.00,51.945
1427.00,51.940
1428.00,51.954
1429.00,51.999
1430.00,51.982
1431.00,52.014
1432.00,52.026
1433.00,52.033
1434.00,52.031
1435.00,52.076
1436.00,52.103
1437.00,52.070
1438.00,52.078
1439.00,52.118
1440.00,52.116
1441.00,52.109
1442.00,52.148
1443.00,52.161
1444.00,52.199
1445.00,52.178
1446.00,52.206
1447.00,52.258
1448.00,52.315
1449.00,52.284
1450.00,52.337
1451.00,52.295
1452.00,52.312
1453.00,52.330
1454.00,52.330
1455.00,52.350
1456.00,52.371
1457.00,52.344
1458.00,52.399
1459.00,52.404
1460.00,52.430
1461.00,52.429
1462.00,52.447
1463.00,52.492
1464.00,52.483
1465.00,52.491
1466.00,52.500
1467.00,52.536
1468.00,52.564
1469.00,52.544
1470.00,52.554
1471.00,52.567
1472.00,52.578
1473.00,52.582
1474.00,52.625
1475.00,52.639
1476.00,52.633
1477.00,52.615
1478.00,52.660
1479.00,52.661
1480.00,52.700
1481.00,52.705
1482.00,52.699
1483.00,52.721
1484.00,52.714
1485.00,52.714
1486.00,52.731
1487.00,52.750
1488.00,52.786
1489.00,52.766
1490.00,52.778
1491.00,52.802
1492.00,52.818
1493.00,52.788
1494.00,52.838
1495.00,52.826
1496.00,52.841
1497.00,52.838
1498.00,52.845
1499.00,52.847
1500.00,52.879
1501.00, 
1502.00, 
1503.00, 
1504.00, 
1505.00, 
1506.00, 
1507.00, 
1508.00, 
1509.00, 
1510.00, 
1511.00, 
1512.00, 
1513.00, 
1514.00, 
1515.00, 
1516.00, 
1517.00, 
1518.00, 
1519.00, 
1520.00, 
1521.00, 
1522.00, 
1523.00, 
1524.00, 
1525.00, 
1526.00, 
1527.00, 
1528.00, 
1529.00, 
1530.00, 
1531.00, 
1532.00, 
1533.00, 
1534.00, 
1535.00, 
1536.00, 
1537.00, 
1538.00, 
1539.00, 
1540.00, 
1541.00, 
1542.00, 
1543.00, 
1544.00, 
1545.00, 
1546.00, 
1547.00, 
1548.00, 
1549.00, 
1550.00, 
1551.00, 
1552.00, 
1553.00, 
1554.00, 
1555.00, 
1556.00, 
1557.00, 
1558.00, 
1559.00, 
1560.00, 
1561.00, 
1562.00, 
1563.00, 
1564.00, 
1565.00, 
1566.00, 
1567.00, 
1568.00, 
1569.00, 
1570.00, 
1571.00, 
1572.00, 
1573.00, 
1574.00, 
1575.00, 
1576.00, 
1577.00, 
1578.00, 
1579.00, 
1580.00, 
1581.00, 
1582.00, 
1583.00, 
1584.00, 
1585.00, 
1586.00, 
1587.00, 
1588.00, 
1589.00, 
1590.00, 
1591.00, 
1592.00, 
1593.00, 
1594.00, 
1595.00, 
1596.00, 
1597.00, 
1598.00, 
1599.00, 
1600.00, 
1601.00, 
1602.00, 
1603.00, 
1604.00, 
1605.00, 
1606.00, 
1607.00, 
1608.00, 
1609.00, 
1610.00, 
1611.00, 
1612.00, 
1613.00, 
1614.00, 
1615.00, 
1616.00, 
1617.00, 
1618.00, 
1619.00, 
1620.00, 
1621.00, 
1622.00, 
1623.00, 
1624.00, 
1625.00, 
1626.00, 
1627.00, 
1628.00, 
1629.00, 
1630.00, 
1631.00, 
1632.00, 
1633.00, 
1634.00, 
1635.00, 
1636.00, 
1637.00, 
1638.00, 
1639.00, 
1640.00, 
1641.00, 
1642.00, 
1643.00, 
1644.00, 
1645.00, 
1646.00, 
1647.00, 
1648.00, 
1649.00, 
1650.00, 
1651.00, 
1652.00, 
1653.00, 
1654.00, 
1655.00, 
1656.00, 
1657.00, 
1658.00, 
1659.00, 
1660.00, 
1661.00, 
1662.00, 
1663.00, 
1664.00, 
1665.00, 
1666.00, 
1667.00, 
1668.00, 
1669.00, 
1670.00, 
1671.00, 
1672.00, 
1673.00, 
1674.00, 
1675.00, 
1676.00, 
1677.00, 
1678.00, 
1679.00, 
1680.00, 
1681.00, 
1682.00, 
1683.00, 
1684.00, 
1685.00, 
1686.00, 
1687.00, 
1688.00, 
1689.00, 
1690.00, 
1691.00, 
1692.00, 
1693.00, 
1694.00, 
1695.00, 
1696.00, 
1697.00, 
1698.00, 
1699.00, 
1700.00, 
1701.00, 
1702.00, 
1703.00, 
1704.00, 
1705.00, 
1706.00, 
1707.00, 
1708.00, 
1709.00, 
1710.00, 
1711.00, 
1712.00, 
1713.00, 
1714.00, 
1715.00, 
1716.00, 
1717.00, 
1718.00, 
1719.00, 
1720.00, 
1721.00, 
1722.00, 
1723.00, 
1724.00, 
1725.00, 
1726.00, 
1727.00, 
1728.00, 
1729.00, 
1730.00, 
1731.00, 
1732.00, 
1733.00, 
1734.00, 
1735.00, 
1736.00, 
1737.00, 
1738.00, 
1739.00, 
1740.00, 
1741.00, 
1742.00, 
1743.00, 
1744.00, 
1745.00, 
1746.00, 
1747.00, 
1748.00, 
1749.00, 
1750.00, 
1751.00, 
1752.00, 
1753.00, 
1754.00, 
1755.00, 
1756.00, 
1757.00, 
1758.00, 
1759.00, 
1760.00, 
1761.00, 
1762.00, 
1763.00, 
1764.00, 
1765.00, 
1766.00, 
1767.00, 
1768.00, 
1769.00, 
1770.00, 
1771.00, 
1772.00, 
1773.00, 
1774.00, 
1775.00, 
1776.00, 
1777.00, 
1778.00, 
1779.00, 
1780.00, 
1781.00, 
1782.00, 
1783.00, 
1784.00, 
1785.00, 
1786.00, 
1787.00, 
1788.00, 
1789.00, 
1790.00, 
1791.00, 
1792.00, 
1793.00, 
1794.00, 
1795.00, 
1796.00, 
1797.00, 
1798.00, 
1799.00, 
1800.00, 
1801.00, 
1802.00, 
1803.00, 
1804.00, 
1805.00, 
1806.00, 
1807.00, 
1808.00, 
1809.00, 
1810.00, 
1811.00, 
1812.00, 
1813.00, 
1814.00, 
1815.00, 
1816.00, 
1817.00, 
1818.00, 
1819.00, 
1820.00, 
1821.00, 
1822.00, 
1823.00, 
1824.00, 
1825.00, 
1826.00, 
1827.00, 
1828.00, 
1829.00, 
1830.00, 
1831.00, 
1832.00, 
1833.00, 
1834.00, 
1835.00, 
1836.00, 
1837.00, 
1838.00, 
1839.00, 
1840.00, 
1841.00, 
1842.00, 
1843.00, 
1844.00, 
1845.00, 
1846.00, 
1847.00, 
1848.00, 
1849.00, 
1850.00, 
1851.00, 
1852.00, 
1853.00, 
1854.00, 
1855.00, 
1856.00, 
1857.00, 
1858.00, 
1859.00, 
1860.00, 
1861.00, 
1862.00, 
1863.00, 
1864.00, 
1865.00, 
1866.00, 
1867.00, 
1868.00, 
1869.00, 
1870.00, 
1871.00, 
1872.00, 
1873.00, 
1874.00, 
1875.00, 
1876.00, 
1877.00, 
1878.00, 
1879.00, 
1880.00, 
1881.00, 
1882.00, 
1883.00, 
1884.00, 
1885.00, 
1886.00, 
1887.00, 
1888.00, 
1889.00, 
1890.00, 
1891.00, 
1892.00, 
1893.00, 
1894.00, 
1895.00, 
1896.00, 
1897.00, 
1898.00, 
1899.00, 
1900.00, 
1901.00, 
1902.00, 
1903.00, 
1904.00, 
1905.00, 
1906.00, 
1907.00, 
1908.00, 
1909.00, 
1910.00, 
1911.00, 
1912.00, 
1913.00, 
1914.00, 
1915.00, 
1916.00, 
1917.00, 
1918.00, 
1919.00, 
1920.00, 
1921.00, 
1922.00, 
1923.00, 
1924.00, 
1925.00, 
1926.00, 
1927.00, 
1928.00, 
1929.00, 
1930.00, 
1931.00, 
1932.00, 
1933.00, 
1934.00, 
1935.00, 
1936.00, 
1937.00, 
1938.00, 
1939.00, 
1940.00, 
1941.00, 
1942.00, 
1943.00, 
1944.00, 
1945.00, 
1946.00, 
1947.00, 
1948.00, 
1949.00, 
1950.00, 
1951.00, 
1952.00, 
1953.00, 
1954.00, 
1955.00, 
1956.00, 
1957.00, 
1958.00, 
1959.00, 
1960.00, 
1961.00, 
1962.00, 
1963.00, 
1964.00, 
1965.00, 
1966.00, 
1967.00, 
1968.00, 
1969.00, 
1970.00, 
1971.00, 
1972.00, 
1973.00, 
1974.00, 
1975.00, 
1976.00, 
1977.00, 
1978.00, 
1979.00, 
1980.00, 
1981.00, 
1982.00, 
1983.00, 
1984.00, 
1985.00, 
1986.00, 
1987.00, 
1988.00, 
1989.00, 
1990.00, 
1991.00, 
1992.00, 
1993.00, 
1994.00, 
1995.00, 
1996.00, 
1997.00, 
1998.00, 
1999.00, 
2000.00, 
2001.00, 
2002.00, 
2003.00, 
2004.00, 
2005.00, 
2006.00, 
2007.00, 
2008.00, 
2009.00, 
2010.00, 
2011.00, 
2012.00, 
2013.00, 
2014.00, 
2015.00, 
2016.00, 
2017.00, 
2018.00, 
2019.00, 
2020.00, 
2021.00, 
2022.00, 
2023.00, 
2024.00, 
2025.00, 
2026.00, 
2027.00, 
2028.00, 
2029.00, 
2030.00, 
2031.00, 
2032.00, 
2033.00, 
2034.00, 
2035.00, 
2036.00, 
2037.00, 
2038.00, 
2039.00, 
2040.00, 
2041.00, 
2042.00, 
2043.00, 
2044.00, 
2045.00, 
2046.00, 
2047.00, 
2048.00, 
2049.00, 
2050.00, 
2051.00, 
2052.00, 
2053.00, 
2054.00, 
2055.00, 
2056.00, 
2057.00, 
2058.00, 
2059.00, 
2060.00, 
2061.00, 
2062.00, 
2063.00, 
2064.00, 
2065.00, 
2066.00, 
2067.00, 
2068.00, 
2069.00, 
2070.00, 
2071.00, 
2072.00, 
2073.00, 
2074.00, 
2075.00, 
2076.00, 
2077.00, 
2078.00, 
2079.00, 
2080.00, 
2081.00, 
2082.00, 
2083.00, 
2084.00, 
2085.00, 
2086.00, 
2087.00, 
2088.00, 
2089.00, 
2090.00, 
2091.00, 
2092.00, 
2093.00, 
2094.00, 
2095.00, 
2096.00, 
2097.00, 
2098.00, 
2099.00, 
2100.00, 
2101.00, 
2102.00, 
2103.00, 
2104.00, 
2105.00, 
2106.00, 
2107.00, 
2108.00, 
2109.00, 
2110.00, 
2111.00, 
2112.00, 
2113.00, 
2114.00, 
2115.00, 
2116.00, 
2117.00, 
2118.00, 
2119.00, 
2120.00, 
2121.00, 
2122.00, 
2123.00, 
2124.00, 
2125.00, 
2126.00, 
2127.00, 
2128.00, 
2129.00, 
2130.00, 
2131.00, 
2132.00, 
2133.00, 
2134.00, 
2135.00, 
2136.00, 
2137.00, 
2138.00, 
2139.00, 
2140.00, 
2141.00, 
2142.00, 
2143.00, 
2144.00, 
2145.00, 
2146.00, 
2147.00, 
2148.00, 
2149.00, 
2150.00, 
2151.00, 
2152.00, 
2153.00, 
2154.00, 
2155.00, 
2156.00, 
2157.00, 
2158.00, 
2159.00, 
2160.00, 
2161.00, 
2162.00, 
2163.00, 
2164.00, 
2165.00, 
2166.00, 
2167.00, 
2168.00, 
2169.00, 
2170.00, 
2171.00, 
2172.00, 
2173.00, 
2174.00, 
2175.00, 
2176.00, 
2177.00, 
2178.00, 
2179.00, 
2180.00, 
2181.00, 
2182.00, 
2183.00, 
2184.00, 
2185.00, 
2186.00, 
2187.00, 
2188.00, 
2189.00, 
2190.00, 
2191.00, 
2192.00, 
2193.00, 
2194.00, 
2195.00, 
2196.00, 
2197.00, 
2198.00, 
2199.00, 
2200.00, 
2201.00, 
2202.00, 
2203.00, 
2204.00, 
2205.00, 
2206.00, 
2207.00, 
2208.00, 
2209.00, 
2210.00, 
2211.00, 
2212.00, 
2213.00, 
2214.00, 
2215.00, 
2216.00, 
2217.00, 
2218.00, 
2219.00, 
2220.00, 
2221.00, 
2222.00, 
2223.00, 
2224.00, 
2225.00, 
2226.00, 
2227.00, 
2228.00, 
2229.00, 
2230.00, 
2231.00, 
2232.00, 
2233.00, 
2234.00, 
2235.00, 
2236.00, 
2237.00, 
2238.00, 
2239.00, 
2240.00, 
2241.00, 
2242.00, 
2243.00, 
2244.00, 
2245.00, 
2246.00, 
2247.00, 
2248.00, 
2249.00, 
2250.00, 
2251.00, 
2252.00, 
2253.00, 
2254.00, 
2255.00, 
2256.00, 
2257.00, 
2258.00, 
2259.00, 
2260.00, 
2261.00, 
2262.00, 
2263.00, 
2264.00, 
2265.00, 
2266.00, 
2267.00, 
2268.00, 
2269.00, 
2270.00, 
2271.00, 
2272.00, 
2273.00, 
2274.00, 
2275.00, 
2276.00, 
2277.00, 
2278.00, 
2279.00, 
2280.00, 
2281.00, 
2282.00, 
2283.00, 
2284.00, 
2285.00, 
2286.00, 
2287.00, 
2288.00, 
2289.00, 
2290.00, 
2291.00, 
2292.00, 
2293.00, 
2294.00, 
2295.00, 
2296.00, 
2297.00, 
2298.00, 
2299.00, 
2300.00, 
2301.00, 
2302.00, 
2303.00, 
2304.00, 
2305.00, 
2306.00, 
2307.00, 
2308.00, 
2309.00, 
2310.00, 
2311.00, 
2312.00, 
2313.00, 
2314.00, 
2315.00, 
2316.00, 
2317.00, 
2318.00, 
2319.00, 
2320.00, 
2321.00, 
2322.00, 
2323.00, 
2324.00, 
2325.00, 
2326.00, 
2327.00, 
2328.00, 
2329.00, 
2330.00, 
2331.00, 
2332.00, 
2333.00, 
2334.00, 
2335.00, 
2336.00, 
2337.00, 
2338.00, 
2339.00, 
2340.00, 
2341.00, 
2342.00, 
2343.00, 
2344.00, 
2345.00, 
2346.00, 
2347.00, 
2348.00, 
2349.00, 
2350.00, 
2351.00, 
2352.00, 
2353.00, 
2354.00, 
2355.00, 
2356.00, 
2357.00, 
2358.00, 
2359.00, 
2360.00, 
2361.00, 
2362.00, 
2363.00, 
2364.00, 
2365.00, 
2366.00, 
2367.00, 
2368.00, 
2369.00, 
2370.00, 
2371.00, 
2372.00, 
2373.00, 
2374.00, 
2375.00, 
2376.00, 
2377.00, 
2378.00, 
2379.00, 
2380.00, 
2381.00, 
2382.00, 
2383.00, 
2384.00, 
2385.00, 
2386.00, 
2387.00, 
2388.00, 
2389.00, 
2390.00, 
2391.00, 
2392.00, 
2393.00, 
2394.00, 
2395.00, 
2396.00, 
2397.00, 
2398.00, 
2399.00, 
2400.00, 
2401.00, 
2402.00, 
2403.00, 
2404.00, 
2405.00, 
2406.00, 
2407.00, 
2408.00, 
2409.00, 
2410.00, 
2411.00, 
2412.00, 
2413.00, 
2414.00, 
2415.00, 
2416.00, 
2417.00, 
2418.00, 
2419.00, 
2420.00, 
2421.00, 
2422.00, 
2423.00, 
2424.00, 
2425.00, 
2426.00, 
2427.00, 
2428.00, 
2429.00, 
2430.00, 
2431.00, 
2432.00, 
2433.00, 
2434.00, 
2435.00, 
2436.00, 
2437.00, 
2438.00, 
2439.00, 
2440.00, 
2441.00, 
2442.00, 
2443.00, 
2444.00, 
2445.00, 
2446.00, 
2447.00, 
2448.00, 
2449.00, 
2450.00, 
2451.00, 
2452.00, 
2453.00, 
2454.00, 
2455.00, 
2456.00, 
2457.00, 
2458.00, 
2459.00, 
2460.00, 
2461.00, 
2462.00, 
2463.00, 
2464.00, 
2465.00, 
2466.00, 
2467.00, 
2468.00, 
2469.00, 
2470.00, 
2471.00, 
2472.00, 
2473.00, 
2474.00, 
2475.00, 
2476.00, 
2477.00, 
2478.00, 
2479.00, 
2480.00, 
2481.00, 
2482.00, 
2483.00, 
2484.00, 
2485.00, 
2486.00, 
2487.00, 
2488.00, 
2489.00, 
2490.00, 
2491.00, 
2492.00, 
2493.00, 
2494.00, 
2495.00, 
2496.00, 
2497.00, 
2498.00, 
2499.00, 
2500.00, 
2501.00, 
2502.00, 
2503.00, 
2504.00, 
2505.00, 
2506.00, 
2507.00, 
2508.00, 
2509.00, 
2510.00, 
2511.00, 
2512.00, 
2513.00, 
2514.00, 
2515.00, 
2516.00, 
2517.00, 
2518.00, 
2519.00, 
2520.00, 
2521.00, 
2522.00, 
2523.00, 
2524.00, 
2525.00, 
2526.00, 
2527.00, 
2528.00, 
2529.00, 
2530.00, 
2531.00, 
2532.00, 
2533.00, 
2534.00, 
2535.00, 
2536.00, 
2537.00, 
2538.00, 
2539.00, 
2540.00, 
2541.00, 
2542.00, 
2543.00, 
2544.00, 
2545.00, 
2546.00, 
2547.00, 
2548.00, 
2549.00, 
2550.00, 
2551.00, 
2552.00, 
2553.00, 
2554.00, 
2555.00, 
2556.00, 
2557.00, 
2558.00, 
2559.00, 
2560.00, 
2561.00, 
2562.00, 
2563.00, 
2564.00, 
2565.00, 
2566.00, 
2567.00, 
2568.00, 
2569.00, 
2570.00, 
2571.00, 
2572.00, 
2573.00, 
2574.00, 
2575.00, 
2576.00, 
2577.00, 
2578.00, 
2579.00, 
2580.00, 
2581.00, 
2582.00, 
2583.00, 
2584.00, 
2585.00, 
2586.00, 
2587.00, 
2588.00, 
2589.00, 
2590.00, 
2591.00, 
2592.00, 
2593.00, 
2594.00, 
2595.00, 
2596.00, 
2597.00, 
2598.00, 
2599.00, 
2600.00, 
