"2cP1 - RawData"
"Wavelength nm.","T%"
200.00,0.001
201.00,0.001
202.00,0.001
203.00,-0.001
204.00,0.001
205.00,-0.002
206.00,-0.001
207.00,0.000
208.00,0.002
209.00,-0.000
210.00,0.002
211.00,0.001
212.00,0.002
213.00,0.002
214.00,-0.001
215.00,0.002
216.00,0.004
217.00,0.002
218.00,0.003
219.00,0.004
220.00,0.002
221.00,0.001
222.00,-0.001
223.00,0.001
224.00,0.002
225.00,0.004
226.00,0.002
227.00,-0.002
228.00,0.000
229.00,0.001
230.00,0.002
231.00,0.002
232.00,0.000
233.00,-0.001
234.00,-0.000
235.00,0.001
236.00,0.002
237.00,0.001
238.00,-0.000
239.00,-0.000
240.00,0.001
241.00,-0.002
242.00,0.001
243.00,-0.000
244.00,-0.000
245.00,-0.002
246.00,-0.000
247.00,-0.001
248.00,0.001
249.00,0.003
250.00,-0.000
251.00,-0.001
252.00,0.000
253.00,0.001
254.00,0.002
255.00,-0.001
256.00,0.001
257.00,-0.000
258.00,0.001
259.00,-0.001
260.00,-0.001
261.00,-0.002
262.00,0.001
263.00,-0.000
264.00,-0.001
265.00,0.001
266.00,0.001
267.00,0.001
268.00,0.002
269.00,0.001
270.00,-0.000
271.00,-0.001
272.00,0.001
273.00,0.001
274.00,-0.001
275.00,-0.001
276.00,-0.000
277.00,0.000
278.00,0.001
279.00,0.001
280.00,0.000
281.00,0.002
282.00,0.002
283.00,0.001
284.00,-0.000
285.00,0.001
286.00,0.000
287.00,-0.001
288.00,-0.001
289.00,0.002
290.00,-0.000
291.00,0.001
292.00,-0.001
293.00,-0.000
294.00,0.001
295.00,0.001
296.00,0.001
297.00,-0.001
298.00,-0.000
299.00,0.002
300.00,0.002
301.00,0.001
302.00,0.006
303.00,0.008
304.00,0.011
305.00,0.021
306.00,0.029
307.00,0.044
308.00,0.068
309.00,0.105
310.00,0.145
311.00,0.198
312.00,0.275
313.00,0.371
314.00,0.489
315.00,0.636
316.00,0.814
317.00,1.022
318.00,1.268
319.00,1.548
320.00,1.895
321.00,2.277
322.00,2.708
323.00,3.183
324.00,3.599
325.00,4.178
326.00,4.733
327.00,5.341
328.00,5.951
329.00,6.631
330.00,7.293
331.00,7.959
332.00,8.677
333.00,9.407
334.00,10.098
335.00,10.839
336.00,11.529
337.00,12.268
338.00,12.974
339.00,13.603
340.00,14.308
341.00,14.954
342.00,15.526
343.00,16.162
344.00,16.702
345.00,17.249
346.00,17.714
347.00,18.251
348.00,18.717
349.00,19.164
350.00,19.572
351.00,19.942
352.00,20.315
353.00,20.667
354.00,20.982
355.00,21.290
356.00,21.582
357.00,21.884
358.00,22.067
359.00,22.295
360.00,22.523
361.00,22.717
362.00,22.885
363.00,23.086
364.00,23.251
365.00,23.339
366.00,23.483
367.00,23.589
368.00,23.625
369.00,23.710
370.00,23.796
371.00,23.812
372.00,23.829
373.00,23.857
374.00,23.854
375.00,23.845
376.00,23.844
377.00,23.774
378.00,23.776
379.00,23.684
380.00,23.685
381.00,23.687
382.00,23.701
383.00,23.725
384.00,23.733
385.00,23.800
386.00,23.846
387.00,23.921
388.00,23.984
389.00,23.995
390.00,24.015
391.00,24.052
392.00,24.091
393.00,24.102
394.00,24.131
395.00,24.154
396.00,24.143
397.00,24.180
398.00,24.185
399.00,24.186
400.00,24.224
401.00,24.202
402.00,24.170
403.00,24.189
404.00,24.219
405.00,24.196
406.00,24.206
407.00,24.135
408.00,24.134
409.00,24.093
410.00,24.037
411.00,24.056
412.00,23.980
413.00,24.027
414.00,23.945
415.00,24.006
416.00,24.039
417.00,24.072
418.00,24.068
419.00,24.092
420.00,24.122
421.00,24.235
422.00,24.245
423.00,24.289
424.00,24.281
425.00,24.338
426.00,24.367
427.00,24.400
428.00,24.403
429.00,24.477
430.00,24.504
431.00,24.531
432.00,24.593
433.00,24.655
434.00,24.617
435.00,24.791
436.00,24.839
437.00,24.875
438.00,24.993
439.00,25.037
440.00,25.128
441.00,25.176
442.00,25.244
443.00,25.302
444.00,25.416
445.00,25.482
446.00,25.588
447.00,25.687
448.00,25.758
449.00,25.883
450.00,25.957
451.00,26.059
452.00,26.146
453.00,26.261
454.00,26.336
455.00,26.460
456.00,26.562
457.00,26.681
458.00,26.755
459.00,26.887
460.00,27.007
461.00,27.109
462.00,27.242
463.00,27.363
464.00,27.391
465.00,27.591
466.00,27.681
467.00,27.815
468.00,27.905
469.00,28.082
470.00,28.147
471.00,28.261
472.00,28.303
473.00,28.391
474.00,28.536
475.00,28.665
476.00,28.707
477.00,28.819
478.00,28.964
479.00,29.082
480.00,29.246
481.00,29.396
482.00,29.529
483.00,29.649
484.00,29.794
485.00,29.936
486.00,30.079
487.00,30.239
488.00,30.390
489.00,30.530
490.00,30.671
491.00,30.742
492.00,30.948
493.00,31.029
494.00,31.084
495.00,31.208
496.00,31.341
497.00,31.461
498.00,31.609
499.00,31.751
500.00,31.829
501.00,31.973
502.00,32.088
503.00,32.201
504.00,32.319
505.00,32.472
506.00,32.552
507.00,32.668
508.00,32.741
509.00,32.928
510.00,33.026
511.00,33.132
512.00,33.245
513.00,33.356
514.00,33.527
515.00,33.570
516.00,33.716
517.00,33.823
518.00,33.897
519.00,34.013
520.00,34.048
521.00,34.121
522.00,34.244
523.00,34.313
524.00,34.429
525.00,34.499
526.00,34.573
527.00,34.701
528.00,34.748
529.00,34.855
530.00,34.941
531.00,35.087
532.00,35.146
533.00,35.211
534.00,35.213
535.00,35.327
536.00,35.572
537.00,35.640
538.00,35.751
539.00,35.807
540.00,35.861
541.00,35.954
542.00,36.019
543.00,36.035
544.00,36.159
545.00,36.196
546.00,36.248
547.00,36.385
548.00,36.447
549.00,36.479
550.00,36.600
551.00,36.628
552.00,36.720
553.00,36.755
554.00,36.897
555.00,36.927
556.00,36.986
557.00,37.068
558.00,37.121
559.00,37.163
560.00,37.247
561.00,37.264
562.00,37.287
563.00,37.414
564.00,37.388
565.00,37.424
566.00,37.504
567.00,37.571
568.00,37.609
569.00,37.627
570.00,37.663
571.00,37.729
572.00,37.785
573.00,37.773
574.00,37.855
575.00,37.888
576.00,37.928
577.00,38.044
578.00,38.079
579.00,38.076
580.00,38.103
581.00,38.277
582.00,38.343
583.00,38.401
584.00,38.523
585.00,38.523
586.00,38.611
587.00,38.712
588.00,38.725
589.00,38.779
590.00,38.856
591.00,38.856
592.00,39.029
593.00,39.070
594.00,38.979
595.00,39.010
596.00,39.040
597.00,39.089
598.00,39.238
599.00,39.221
600.00,39.373
601.00,39.417
602.00,39.426
603.00,39.405
604.00,39.479
605.00,39.531
606.00,39.544
607.00,39.608
608.00,39.707
609.00,39.715
610.00,39.745
611.00,39.777
612.00,39.841
613.00,39.840
614.00,39.869
615.00,39.940
616.00,39.992
617.00,40.068
618.00,40.122
619.00,40.185
620.00,40.187
621.00,40.287
622.00,40.305
623.00,40.393
624.00,40.412
625.00,40.480
626.00,40.524
627.00,40.560
628.00,40.597
629.00,40.696
630.00,40.696
631.00,40.798
632.00,40.854
633.00,40.938
634.00,40.975
635.00,41.126
636.00,41.172
637.00,41.256
638.00,41.286
639.00,41.390
640.00,41.338
641.00,41.472
642.00,41.545
643.00,41.607
644.00,41.758
645.00,41.836
646.00,41.805
647.00,41.859
648.00,41.898
649.00,41.990
650.00,42.016
651.00,42.073
652.00,42.227
653.00,42.244
654.00,42.379
655.00,42.376
656.00,42.449
657.00,42.587
658.00,42.668
659.00,42.723
660.00,42.719
661.00,42.628
662.00,42.956
663.00,43.036
664.00,43.147
665.00,43.148
666.00,43.220
667.00,43.381
668.00,43.529
669.00,43.401
670.00,43.676
671.00,43.764
672.00,43.742
673.00,43.843
674.00,43.932
675.00,44.054
676.00,44.091
677.00,44.176
678.00,44.164
679.00,44.224
680.00,44.417
681.00,44.446
682.00,44.473
683.00,44.539
684.00,44.699
685.00,44.721
686.00,44.826
687.00,44.925
688.00,44.978
689.00,45.045
690.00,45.073
691.00,45.205
692.00,45.281
693.00,45.313
694.00,45.429
695.00,45.612
696.00,45.506
697.00,45.631
698.00,45.781
699.00,45.774
700.00,45.946
701.00,45.986
702.00,45.999
703.00,46.110
704.00,46.110
705.00,46.187
706.00,46.313
707.00,46.313
708.00,46.258
709.00,46.493
710.00,46.547
711.00,46.523
712.00,46.545
713.00,46.770
714.00,46.665
715.00,46.799
716.00,46.823
717.00,46.829
718.00,46.931
719.00,46.978
720.00,46.989
721.00,51.081
722.00,51.183
723.00,51.150
724.00,51.182
725.00,51.200
726.00,51.166
727.00,51.221
728.00,51.209
729.00,51.162
730.00,51.310
731.00,51.265
732.00,51.227
733.00,51.307
734.00,51.335
735.00,51.355
736.00,51.367
737.00,51.347
738.00,51.400
739.00,51.447
740.00,51.430
741.00,51.451
742.00,51.579
743.00,51.445
744.00,51.443
745.00,51.487
746.00,51.455
747.00,51.425
748.00,51.477
749.00,51.442
750.00,51.446
751.00,51.442
752.00,51.446
753.00,51.456
754.00,51.424
755.00,51.419
756.00,51.481
757.00,51.438
758.00,51.529
759.00,51.425
760.00,51.520
761.00,51.550
762.00,51.459
763.00,51.507
764.00,51.570
765.00,51.510
766.00,51.499
767.00,51.510
768.00,51.614
769.00,51.565
770.00,51.549
771.00,51.550
772.00,51.570
773.00,51.559
774.00,51.568
775.00,51.556
776.00,51.565
777.00,51.567
778.00,51.586
779.00,51.599
780.00,51.662
781.00,51.564
782.00,51.562
783.00,51.566
784.00,51.538
785.00,51.522
786.00,51.482
787.00,51.529
788.00,51.460
789.00,51.484
790.00,51.473
791.00,51.536
792.00,51.433
793.00,51.473
794.00,51.510
795.00,51.388
796.00,51.441
797.00,51.401
798.00,51.402
799.00,51.398
800.00,51.327
801.00,51.329
802.00,51.293
803.00,51.319
804.00,51.252
805.00,51.231
806.00,51.252
807.00,51.244
808.00,51.208
809.00,51.150
810.00,51.200
811.00,51.220
812.00,51.140
813.00,51.101
814.00,51.158
815.00,51.127
816.00,51.144
817.00,51.036
818.00,51.054
819.00,51.034
820.00,51.022
821.00,51.000
822.00,50.960
823.00,50.908
824.00,50.964
825.00,50.901
826.00,50.997
827.00,50.978
828.00,50.872
829.00,50.862
830.00,50.850
831.00,53.405
832.00,53.408
833.00,53.316
834.00,53.414
835.00,53.324
836.00,53.335
837.00,53.312
838.00,53.248
839.00,53.222
840.00,53.192
841.00,53.220
842.00,53.154
843.00,53.188
844.00,53.196
845.00,53.119
846.00,53.171
847.00,53.133
848.00,53.078
849.00,53.019
850.00,53.027
851.00,52.940
852.00,52.948
853.00,52.897
854.00,52.887
855.00,52.808
856.00,52.845
857.00,52.804
858.00,52.792
859.00,52.700
860.00,52.814
861.00,52.757
862.00,52.675
863.00,52.721
864.00,52.664
865.00,52.675
866.00,52.640
867.00,52.685
868.00,52.642
869.00,52.612
870.00,52.588
871.00,52.628
872.00,52.611
873.00,52.560
874.00,52.594
875.00,52.605
876.00,52.589
877.00,52.521
878.00,52.534
879.00,52.504
880.00,52.514
881.00,52.436
882.00,52.464
883.00,52.431
884.00,52.369
885.00,52.357
886.00,52.327
887.00,52.312
888.00,52.333
889.00,52.235
890.00,52.217
891.00,52.395
892.00,52.206
893.00,52.187
894.00,52.194
895.00,52.150
896.00,52.123
897.00,52.115
898.00,52.096
899.00,52.093
900.00,52.079
901.00,52.086
902.00,52.086
903.00,52.070
904.00,52.045
905.00,52.030
906.00,52.022
907.00,51.970
908.00,51.967
909.00,51.930
910.00,51.887
911.00,51.915
912.00,51.896
913.00,51.836
914.00,51.825
915.00,51.806
916.00,51.788
917.00,51.770
918.00,51.736
919.00,51.708
920.00,51.687
921.00,51.680
922.00,51.682
923.00,51.633
924.00,51.604
925.00,51.627
926.00,51.595
927.00,51.548
928.00,51.666
929.00,51.534
930.00,51.534
931.00,51.535
932.00,51.466
933.00,51.482
934.00,51.464
935.00,51.429
936.00,51.416
937.00,51.396
938.00,51.367
939.00,51.367
940.00,51.325
941.00,51.335
942.00,51.278
943.00,51.283
944.00,51.262
945.00,51.255
946.00,51.256
947.00,51.205
948.00,51.167
949.00,51.147
950.00,51.155
951.00,51.121
952.00,51.091
953.00,51.151
954.00,51.041
955.00,51.010
956.00,51.003
957.00,50.955
958.00,50.973
959.00,50.920
960.00,50.911
961.00,50.902
962.00,50.903
963.00,50.855
964.00,50.859
965.00,50.837
966.00,50.845
967.00,50.833
968.00,50.798
969.00,50.833
970.00,50.795
971.00,50.809
972.00,50.779
973.00,50.800
974.00,50.833
975.00,50.798
976.00,50.824
977.00,50.797
978.00,50.832
979.00,50.778
980.00,50.831
981.00,50.816
982.00,50.774
983.00,50.855
984.00,50.783
985.00,50.785
986.00,50.771
987.00,50.773
988.00,50.722
989.00,50.719
990.00,50.725
991.00,50.715
992.00,50.722
993.00,50.691
994.00,50.687
995.00,50.678
996.00,50.645
997.00,50.633
998.00,50.610
999.00,50.646
1000.00,50.576
1001.00,50.592
1002.00,50.599
1003.00,50.578
1004.00,50.583
1005.00,50.529
1006.00,50.539
1007.00,50.516
1008.00,50.498
1009.00,50.485
1010.00,50.480
1011.00,50.472
1012.00,50.424
1013.00,50.449
1014.00,50.392
1015.00,50.414
1016.00,50.378
1017.00,50.379
1018.00,50.366
1019.00,50.328
1020.00,50.312
1021.00,50.295
1022.00,50.296
1023.00,50.238
1024.00,50.265
1025.00,50.242
1026.00,50.232
1027.00,50.213
1028.00,50.198
1029.00,50.197
1030.00,50.166
1031.00,50.173
1032.00,50.139
1033.00,50.136
1034.00,50.100
1035.00,50.078
1036.00,50.071
1037.00,50.025
1038.00,50.014
1039.00,49.981
1040.00,49.984
1041.00,49.949
1042.00,49.938
1043.00,49.922
1044.00,49.946
1045.00,49.926
1046.00,49.939
1047.00,49.924
1048.00,49.942
1049.00,49.951
1050.00,49.951
1051.00,49.997
1052.00,49.987
1053.00,49.985
1054.00,49.986
1055.00,50.007
1056.00,50.011
1057.00,50.016
1058.00,50.004
1059.00,49.997
1060.00,50.014
1061.00,49.987
1062.00,49.969
1063.00,49.983
1064.00,49.962
1065.00,49.958
1066.00,49.968
1067.00,49.970
1068.00,49.958
1069.00,49.920
1070.00,49.913
1071.00,49.902
1072.00,49.907
1073.00,49.881
1074.00,49.893
1075.00,49.868
1076.00,49.866
1077.00,49.846
1078.00,49.821
1079.00,49.831
1080.00,49.826
1081.00,49.802
1082.00,49.805
1083.00,49.794
1084.00,49.796
1085.00,49.783
1086.00,49.764
1087.00,49.773
1088.00,49.749
1089.00,49.742
1090.00,49.743
1091.00,49.728
1092.00,49.718
1093.00,49.694
1094.00,49.684
1095.00,49.680
1096.00,49.665
1097.00,49.668
1098.00,49.658
1099.00,49.640
1100.00,49.619
1101.00,49.612
1102.00,49.613
1103.00,49.605
1104.00,49.606
1105.00,49.581
1106.00,49.579
1107.00,49.575
1108.00,49.553
1109.00,49.552
1110.00,49.548
1111.00,49.534
1112.00,49.534
1113.00,49.509
1114.00,49.512
1115.00,49.505
1116.00,49.495
1117.00,49.488
1118.00,49.482
1119.00,49.469
1120.00,49.477
1121.00,49.469
1122.00,49.442
1123.00,49.431
1124.00,49.435
1125.00,49.411
1126.00,49.409
1127.00,49.407
1128.00,49.396
1129.00,49.381
1130.00,49.364
1131.00,49.375
1132.00,49.363
1133.00,49.354
1134.00,49.360
1135.00,49.345
1136.00,49.333
1137.00,49.334
1138.00,49.339
1139.00,49.328
1140.00,49.329
1141.00,49.299
1142.00,49.333
1143.00,49.321
1144.00,49.287
1145.00,49.296
1146.00,49.292
1147.00,49.274
1148.00,49.280
1149.00,49.282
1150.00,49.285
1151.00,49.284
1152.00,49.258
1153.00,49.270
1154.00,49.258
1155.00,49.241
1156.00,49.250
1157.00,49.256
1158.00,49.260
1159.00,49.238
1160.00,49.236
1161.00,49.239
1162.00,49.226
1163.00,49.225
1164.00,49.231
1165.00,49.226
1166.00,49.206
1167.00,49.218
1168.00,49.226
1169.00,49.210
1170.00,49.213
1171.00,49.184
1172.00,49.204
1173.00,49.207
1174.00,49.191
1175.00,49.208
1176.00,49.201
1177.00,49.185
1178.00,49.200
1179.00,49.209
1180.00,49.189
1181.00,49.200
1182.00,49.198
1183.00,49.188
1184.00,49.162
1185.00,49.170
1186.00,49.172
1187.00,49.178
1188.00,49.165
1189.00,49.176
1190.00,49.161
1191.00,49.162
1192.00,49.180
1193.00,49.162
1194.00,49.171
1195.00,49.139
1196.00,49.159
1197.00,49.161
1198.00,49.156
1199.00,49.141
1200.00,49.141
1201.00,49.142
1202.00,49.131
1203.00,49.167
1204.00,49.144
1205.00,49.131
1206.00,49.128
1207.00,49.139
1208.00,49.143
1209.00,49.122
1210.00,49.120
1211.00,49.131
1212.00,49.143
1213.00,49.105
1214.00,49.138
1215.00,49.107
1216.00,49.111
1217.00,49.124
1218.00,49.113
1219.00,49.127
1220.00,49.107
1221.00,49.111
1222.00,49.114
1223.00,49.118
1224.00,49.122
1225.00,49.116
1226.00,49.125
1227.00,49.111
1228.00,49.117
1229.00,49.114
1230.00,49.148
1231.00,49.146
1232.00,49.146
1233.00,49.154
1234.00,49.158
1235.00,49.155
1236.00,49.167
1237.00,49.146
1238.00,49.152
1239.00,49.159
1240.00,49.142
1241.00,49.168
1242.00,49.155
1243.00,49.169
1244.00,49.148
1245.00,49.165
1246.00,49.170
1247.00,49.180
1248.00,49.164
1249.00,49.163
1250.00,49.178
1251.00,49.164
1252.00,49.196
1253.00,49.177
1254.00,49.196
1255.00,49.211
1256.00,49.170
1257.00,49.165
1258.00,49.213
1259.00,49.188
1260.00,49.208
1261.00,49.204
1262.00,49.184
1263.00,49.202
1264.00,49.218
1265.00,49.209
1266.00,49.221
1267.00,49.221
1268.00,49.236
1269.00,49.236
1270.00,49.230
1271.00,49.231
1272.00,49.236
1273.00,49.233
1274.00,49.255
1275.00,49.252
1276.00,49.240
1277.00,49.252
1278.00,49.265
1279.00,49.267
1280.00,49.275
1281.00,49.270
1282.00,49.283
1283.00,49.272
1284.00,49.263
1285.00,49.259
1286.00,49.272
1287.00,49.266
1288.00,49.290
1289.00,49.280
1290.00,49.291
1291.00,49.296
1292.00,49.302
1293.00,49.300
1294.00,49.323
1295.00,49.321
1296.00,49.333
1297.00,49.336
1298.00,49.347
1299.00,49.343
1300.00,49.346
1301.00,49.347
1302.00,49.353
1303.00,49.366
1304.00,49.348
1305.00,49.365
1306.00,49.359
1307.00,49.374
1308.00,49.377
1309.00,49.394
1310.00,49.392
1311.00,49.396
1312.00,49.394
1313.00,49.396
1314.00,49.400
1315.00,49.407
1316.00,49.413
1317.00,49.415
1318.00,49.432
1319.00,49.426
1320.00,49.445
1321.00,49.619
1322.00,49.614
1323.00,49.602
1324.00,49.614
1325.00,49.583
1326.00,49.623
1327.00,49.593
1328.00,49.592
1329.00,49.602
1330.00,49.624
1331.00,49.600
1332.00,49.618
1333.00,49.602
1334.00,49.642
1335.00,49.649
1336.00,49.675
1337.00,49.720
1338.00,49.770
1339.00,49.803
1340.00,49.884
1341.00,49.917
1342.00,49.996
1343.00,50.058
1344.00,50.093
1345.00,50.153
1346.00,50.192
1347.00,50.204
1348.00,50.237
1349.00,50.265
1350.00,50.257
1351.00,50.299
1352.00,50.285
1353.00,50.321
1354.00,50.315
1355.00,50.267
1356.00,50.295
1357.00,50.350
1358.00,50.325
1359.00,50.355
1360.00,50.375
1361.00,50.332
1362.00,50.261
1363.00,50.384
1364.00,50.347
1365.00,50.334
1366.00,50.358
1367.00,50.333
1368.00,50.267
1369.00,50.339
1370.00,50.303
1371.00,50.244
1372.00,50.274
1373.00,50.300
1374.00,50.307
1375.00,50.277
1376.00,50.287
1377.00,50.256
1378.00,50.254
1379.00,50.285
1380.00,50.283
1381.00,50.306
1382.00,50.274
1383.00,50.257
1384.00,50.164
1385.00,50.214
1386.00,50.274
1387.00,50.205
1388.00,50.212
1389.00,50.262
1390.00,50.298
1391.00,50.200
1392.00,50.239
1393.00,50.256
1394.00,50.231
1395.00,50.216
1396.00,50.203
1397.00,50.232
1398.00,50.287
1399.00,50.220
1400.00,50.426
1401.00,50.244
1402.00,50.292
1403.00,50.286
1404.00,50.245
1405.00,50.287
1406.00,50.275
1407.00,50.307
1408.00,50.320
1409.00,50.280
1410.00,50.308
1411.00,50.285
1412.00,50.345
1413.00,50.279
1414.00,50.305
1415.00,50.334
1416.00,50.362
1417.00,50.388
1418.00,50.374
1419.00,50.353
1420.00,50.394
1421.00,50.416
1422.00,50.399
1423.00,50.411
1424.00,50.424
1425.00,50.436
1426.00,50.466
1427.00,50.457
1428.00,50.494
1429.00,50.519
1430.00,50.525
1431.00,50.574
1432.00,50.540
1433.00,50.561
1434.00,50.552
1435.00,50.576
1436.00,50.611
1437.00,50.590
1438.00,50.596
1439.00,50.648
1440.00,50.650
1441.00,50.653
1442.00,50.667
1443.00,50.708
1444.00,50.719
1445.00,50.698
1446.00,50.711
1447.00,50.771
1448.00,50.789
1449.00,50.793
1450.00,50.800
1451.00,50.799
1452.00,50.796
1453.00,50.838
1454.00,50.827
1455.00,50.855
1456.00,50.880
1457.00,50.870
1458.00,50.905
1459.00,50.917
1460.00,50.923
1461.00,50.940
1462.00,50.949
1463.00,50.991
1464.00,50.987
1465.00,50.984
1466.00,50.993
1467.00,51.029
1468.00,51.035
1469.00,51.056
1470.00,51.058
1471.00,51.055
1472.00,51.079
1473.00,51.089
1474.00,51.117
1475.00,51.130
1476.00,51.136
1477.00,51.136
1478.00,51.160
1479.00,51.151
1480.00,51.197
1481.00,51.199
1482.00,51.211
1483.00,51.247
1484.00,51.238
1485.00,51.251
1486.00,51.260
1487.00,51.278
1488.00,51.269
1489.00,51.291
1490.00,51.293
1491.00,51.314
1492.00,51.331
1493.00,51.308
1494.00,51.338
1495.00,51.334
1496.00,51.330
1497.00,51.361
1498.00,51.348
1499.00,51.351
1500.00,51.409
1501.00, 
1502.00, 
1503.00, 
1504.00, 
1505.00, 
1506.00, 
1507.00, 
1508.00, 
1509.00, 
1510.00, 
1511.00, 
1512.00, 
1513.00, 
1514.00, 
1515.00, 
1516.00, 
1517.00, 
1518.00, 
1519.00, 
1520.00, 
1521.00, 
1522.00, 
1523.00, 
1524.00, 
1525.00, 
1526.00, 
1527.00, 
1528.00, 
1529.00, 
1530.00, 
1531.00, 
1532.00, 
1533.00, 
1534.00, 
1535.00, 
1536.00, 
1537.00, 
1538.00, 
1539.00, 
1540.00, 
1541.00, 
1542.00, 
1543.00, 
1544.00, 
1545.00, 
1546.00, 
1547.00, 
1548.00, 
1549.00, 
1550.00, 
1551.00, 
1552.00, 
1553.00, 
1554.00, 
1555.00, 
1556.00, 
1557.00, 
1558.00, 
1559.00, 
1560.00, 
1561.00, 
1562.00, 
1563.00, 
1564.00, 
1565.00, 
1566.00, 
1567.00, 
1568.00, 
1569.00, 
1570.00, 
1571.00, 
1572.00, 
1573.00, 
1574.00, 
1575.00, 
1576.00, 
1577.00, 
1578.00, 
1579.00, 
1580.00, 
1581.00, 
1582.00, 
1583.00, 
1584.00, 
1585.00, 
1586.00, 
1587.00, 
1588.00, 
1589.00, 
1590.00, 
1591.00, 
1592.00, 
1593.00, 
1594.00, 
1595.00, 
1596.00, 
1597.00, 
1598.00, 
1599.00, 
1600.00, 
1601.00, 
1602.00, 
1603.00, 
1604.00, 
1605.00, 
1606.00, 
1607.00, 
1608.00, 
1609.00, 
1610.00, 
1611.00, 
1612.00, 
1613.00, 
1614.00, 
1615.00, 
1616.00, 
1617.00, 
1618.00, 
1619.00, 
1620.00, 
1621.00, 
1622.00, 
1623.00, 
1624.00, 
1625.00, 
1626.00, 
1627.00, 
1628.00, 
1629.00, 
1630.00, 
1631.00, 
1632.00, 
1633.00, 
1634.00, 
1635.00, 
1636.00, 
1637.00, 
1638.00, 
1639.00, 
1640.00, 
1641.00, 
1642.00, 
1643.00, 
1644.00, 
1645.00, 
1646.00, 
1647.00, 
1648.00, 
1649.00, 
1650.00, 
1651.00, 
1652.00, 
1653.00, 
1654.00, 
1655.00, 
1656.00, 
1657.00, 
1658.00, 
1659.00, 
1660.00, 
1661.00, 
1662.00, 
1663.00, 
1664.00, 
1665.00, 
1666.00, 
1667.00, 
1668.00, 
1669.00, 
1670.00, 
1671.00, 
1672.00, 
1673.00, 
1674.00, 
1675.00, 
1676.00, 
1677.00, 
1678.00, 
1679.00, 
1680.00, 
1681.00, 
1682.00, 
1683.00, 
1684.00, 
1685.00, 
1686.00, 
1687.00, 
1688.00, 
1689.00, 
1690.00, 
1691.00, 
1692.00, 
1693.00, 
1694.00, 
1695.00, 
1696.00, 
1697.00, 
1698.00, 
1699.00, 
1700.00, 
1701.00, 
1702.00, 
1703.00, 
1704.00, 
1705.00, 
1706.00, 
1707.00, 
1708.00, 
1709.00, 
1710.00, 
1711.00, 
1712.00, 
1713.00, 
1714.00, 
1715.00, 
1716.00, 
1717.00, 
1718.00, 
1719.00, 
1720.00, 
1721.00, 
1722.00, 
1723.00, 
1724.00, 
1725.00, 
1726.00, 
1727.00, 
1728.00, 
1729.00, 
1730.00, 
1731.00, 
1732.00, 
1733.00, 
1734.00, 
1735.00, 
1736.00, 
1737.00, 
1738.00, 
1739.00, 
1740.00, 
1741.00, 
1742.00, 
1743.00, 
1744.00, 
1745.00, 
1746.00, 
1747.00, 
1748.00, 
1749.00, 
1750.00, 
1751.00, 
1752.00, 
1753.00, 
1754.00, 
1755.00, 
1756.00, 
1757.00, 
1758.00, 
1759.00, 
1760.00, 
1761.00, 
1762.00, 
1763.00, 
1764.00, 
1765.00, 
1766.00, 
1767.00, 
1768.00, 
1769.00, 
1770.00, 
1771.00, 
1772.00, 
1773.00, 
1774.00, 
1775.00, 
1776.00, 
1777.00, 
1778.00, 
1779.00, 
1780.00, 
1781.00, 
1782.00, 
1783.00, 
1784.00, 
1785.00, 
1786.00, 
1787.00, 
1788.00, 
1789.00, 
1790.00, 
1791.00, 
1792.00, 
1793.00, 
1794.00, 
1795.00, 
1796.00, 
1797.00, 
1798.00, 
1799.00, 
1800.00, 
1801.00, 
1802.00, 
1803.00, 
1804.00, 
1805.00, 
1806.00, 
1807.00, 
1808.00, 
1809.00, 
1810.00, 
1811.00, 
1812.00, 
1813.00, 
1814.00, 
1815.00, 
1816.00, 
1817.00, 
1818.00, 
1819.00, 
1820.00, 
1821.00, 
1822.00, 
1823.00, 
1824.00, 
1825.00, 
1826.00, 
1827.00, 
1828.00, 
1829.00, 
1830.00, 
1831.00, 
1832.00, 
1833.00, 
1834.00, 
1835.00, 
1836.00, 
1837.00, 
1838.00, 
1839.00, 
1840.00, 
1841.00, 
1842.00, 
1843.00, 
1844.00, 
1845.00, 
1846.00, 
1847.00, 
1848.00, 
1849.00, 
1850.00, 
1851.00, 
1852.00, 
1853.00, 
1854.00, 
1855.00, 
1856.00, 
1857.00, 
1858.00, 
1859.00, 
1860.00, 
1861.00, 
1862.00, 
1863.00, 
1864.00, 
1865.00, 
1866.00, 
1867.00, 
1868.00, 
1869.00, 
1870.00, 
1871.00, 
1872.00, 
1873.00, 
1874.00, 
1875.00, 
1876.00, 
1877.00, 
1878.00, 
1879.00, 
1880.00, 
1881.00, 
1882.00, 
1883.00, 
1884.00, 
1885.00, 
1886.00, 
1887.00, 
1888.00, 
1889.00, 
1890.00, 
1891.00, 
1892.00, 
1893.00, 
1894.00, 
1895.00, 
1896.00, 
1897.00, 
1898.00, 
1899.00, 
1900.00, 
1901.00, 
1902.00, 
1903.00, 
1904.00, 
1905.00, 
1906.00, 
1907.00, 
1908.00, 
1909.00, 
1910.00, 
1911.00, 
1912.00, 
1913.00, 
1914.00, 
1915.00, 
1916.00, 
1917.00, 
1918.00, 
1919.00, 
1920.00, 
1921.00, 
1922.00, 
1923.00, 
1924.00, 
1925.00, 
1926.00, 
1927.00, 
1928.00, 
1929.00, 
1930.00, 
1931.00, 
1932.00, 
1933.00, 
1934.00, 
1935.00, 
1936.00, 
1937.00, 
1938.00, 
1939.00, 
1940.00, 
1941.00, 
1942.00, 
1943.00, 
1944.00, 
1945.00, 
1946.00, 
1947.00, 
1948.00, 
1949.00, 
1950.00, 
1951.00, 
1952.00, 
1953.00, 
1954.00, 
1955.00, 
1956.00, 
1957.00, 
1958.00, 
1959.00, 
1960.00, 
1961.00, 
1962.00, 
1963.00, 
1964.00, 
1965.00, 
1966.00, 
1967.00, 
1968.00, 
1969.00, 
1970.00, 
1971.00, 
1972.00, 
1973.00, 
1974.00, 
1975.00, 
1976.00, 
1977.00, 
1978.00, 
1979.00, 
1980.00, 
1981.00, 
1982.00, 
1983.00, 
1984.00, 
1985.00, 
1986.00, 
1987.00, 
1988.00, 
1989.00, 
1990.00, 
1991.00, 
1992.00, 
1993.00, 
1994.00, 
1995.00, 
1996.00, 
1997.00, 
1998.00, 
1999.00, 
2000.00, 
2001.00, 
2002.00, 
2003.00, 
2004.00, 
2005.00, 
2006.00, 
2007.00, 
2008.00, 
2009.00, 
2010.00, 
2011.00, 
2012.00, 
2013.00, 
2014.00, 
2015.00, 
2016.00, 
2017.00, 
2018.00, 
2019.00, 
2020.00, 
2021.00, 
2022.00, 
2023.00, 
2024.00, 
2025.00, 
2026.00, 
2027.00, 
2028.00, 
2029.00, 
2030.00, 
2031.00, 
2032.00, 
2033.00, 
2034.00, 
2035.00, 
2036.00, 
2037.00, 
2038.00, 
2039.00, 
2040.00, 
2041.00, 
2042.00, 
2043.00, 
2044.00, 
2045.00, 
2046.00, 
2047.00, 
2048.00, 
2049.00, 
2050.00, 
2051.00, 
2052.00, 
2053.00, 
2054.00, 
2055.00, 
2056.00, 
2057.00, 
2058.00, 
2059.00, 
2060.00, 
2061.00, 
2062.00, 
2063.00, 
2064.00, 
2065.00, 
2066.00, 
2067.00, 
2068.00, 
2069.00, 
2070.00, 
2071.00, 
2072.00, 
2073.00, 
2074.00, 
2075.00, 
2076.00, 
2077.00, 
2078.00, 
2079.00, 
2080.00, 
2081.00, 
2082.00, 
2083.00, 
2084.00, 
2085.00, 
2086.00, 
2087.00, 
2088.00, 
2089.00, 
2090.00, 
2091.00, 
2092.00, 
2093.00, 
2094.00, 
2095.00, 
2096.00, 
2097.00, 
2098.00, 
2099.00, 
2100.00, 
2101.00, 
2102.00, 
2103.00, 
2104.00, 
2105.00, 
2106.00, 
2107.00, 
2108.00, 
2109.00, 
2110.00, 
2111.00, 
2112.00, 
2113.00, 
2114.00, 
2115.00, 
2116.00, 
2117.00, 
2118.00, 
2119.00, 
2120.00, 
2121.00, 
2122.00, 
2123.00, 
2124.00, 
2125.00, 
2126.00, 
2127.00, 
2128.00, 
2129.00, 
2130.00, 
2131.00, 
2132.00, 
2133.00, 
2134.00, 
2135.00, 
2136.00, 
2137.00, 
2138.00, 
2139.00, 
2140.00, 
2141.00, 
2142.00, 
2143.00, 
2144.00, 
2145.00, 
2146.00, 
2147.00, 
2148.00, 
2149.00, 
2150.00, 
2151.00, 
2152.00, 
2153.00, 
2154.00, 
2155.00, 
2156.00, 
2157.00, 
2158.00, 
2159.00, 
2160.00, 
2161.00, 
2162.00, 
2163.00, 
2164.00, 
2165.00, 
2166.00, 
2167.00, 
2168.00, 
2169.00, 
2170.00, 
2171.00, 
2172.00, 
2173.00, 
2174.00, 
2175.00, 
2176.00, 
2177.00, 
2178.00, 
2179.00, 
2180.00, 
2181.00, 
2182.00, 
2183.00, 
2184.00, 
2185.00, 
2186.00, 
2187.00, 
2188.00, 
2189.00, 
2190.00, 
2191.00, 
2192.00, 
2193.00, 
2194.00, 
2195.00, 
2196.00, 
2197.00, 
2198.00, 
2199.00, 
2200.00, 
2201.00, 
2202.00, 
2203.00, 
2204.00, 
2205.00, 
2206.00, 
2207.00, 
2208.00, 
2209.00, 
2210.00, 
2211.00, 
2212.00, 
2213.00, 
2214.00, 
2215.00, 
2216.00, 
2217.00, 
2218.00, 
2219.00, 
2220.00, 
2221.00, 
2222.00, 
2223.00, 
2224.00, 
2225.00, 
2226.00, 
2227.00, 
2228.00, 
2229.00, 
2230.00, 
2231.00, 
2232.00, 
2233.00, 
2234.00, 
2235.00, 
2236.00, 
2237.00, 
2238.00, 
2239.00, 
2240.00, 
2241.00, 
2242.00, 
2243.00, 
2244.00, 
2245.00, 
2246.00, 
2247.00, 
2248.00, 
2249.00, 
2250.00, 
2251.00, 
2252.00, 
2253.00, 
2254.00, 
2255.00, 
2256.00, 
2257.00, 
2258.00, 
2259.00, 
2260.00, 
2261.00, 
2262.00, 
2263.00, 
2264.00, 
2265.00, 
2266.00, 
2267.00, 
2268.00, 
2269.00, 
2270.00, 
2271.00, 
2272.00, 
2273.00, 
2274.00, 
2275.00, 
2276.00, 
2277.00, 
2278.00, 
2279.00, 
2280.00, 
2281.00, 
2282.00, 
2283.00, 
2284.00, 
2285.00, 
2286.00, 
2287.00, 
2288.00, 
2289.00, 
2290.00, 
2291.00, 
2292.00, 
2293.00, 
2294.00, 
2295.00, 
2296.00, 
2297.00, 
2298.00, 
2299.00, 
2300.00, 
2301.00, 
2302.00, 
2303.00, 
2304.00, 
2305.00, 
2306.00, 
2307.00, 
2308.00, 
2309.00, 
2310.00, 
2311.00, 
2312.00, 
2313.00, 
2314.00, 
2315.00, 
2316.00, 
2317.00, 
2318.00, 
2319.00, 
2320.00, 
2321.00, 
2322.00, 
2323.00, 
2324.00, 
2325.00, 
2326.00, 
2327.00, 
2328.00, 
2329.00, 
2330.00, 
2331.00, 
2332.00, 
2333.00, 
2334.00, 
2335.00, 
2336.00, 
2337.00, 
2338.00, 
2339.00, 
2340.00, 
2341.00, 
2342.00, 
2343.00, 
2344.00, 
2345.00, 
2346.00, 
2347.00, 
2348.00, 
2349.00, 
2350.00, 
2351.00, 
2352.00, 
2353.00, 
2354.00, 
2355.00, 
2356.00, 
2357.00, 
2358.00, 
2359.00, 
2360.00, 
2361.00, 
2362.00, 
2363.00, 
2364.00, 
2365.00, 
2366.00, 
2367.00, 
2368.00, 
2369.00, 
2370.00, 
2371.00, 
2372.00, 
2373.00, 
2374.00, 
2375.00, 
2376.00, 
2377.00, 
2378.00, 
2379.00, 
2380.00, 
2381.00, 
2382.00, 
2383.00, 
2384.00, 
2385.00, 
2386.00, 
2387.00, 
2388.00, 
2389.00, 
2390.00, 
2391.00, 
2392.00, 
2393.00, 
2394.00, 
2395.00, 
2396.00, 
2397.00, 
2398.00, 
2399.00, 
2400.00, 
2401.00, 
2402.00, 
2403.00, 
2404.00, 
2405.00, 
2406.00, 
2407.00, 
2408.00, 
2409.00, 
2410.00, 
2411.00, 
2412.00, 
2413.00, 
2414.00, 
2415.00, 
2416.00, 
2417.00, 
2418.00, 
2419.00, 
2420.00, 
2421.00, 
2422.00, 
2423.00, 
2424.00, 
2425.00, 
2426.00, 
2427.00, 
2428.00, 
2429.00, 
2430.00, 
2431.00, 
2432.00, 
2433.00, 
2434.00, 
2435.00, 
2436.00, 
2437.00, 
2438.00, 
2439.00, 
2440.00, 
2441.00, 
2442.00, 
2443.00, 
2444.00, 
2445.00, 
2446.00, 
2447.00, 
2448.00, 
2449.00, 
2450.00, 
2451.00, 
2452.00, 
2453.00, 
2454.00, 
2455.00, 
2456.00, 
2457.00, 
2458.00, 
2459.00, 
2460.00, 
2461.00, 
2462.00, 
2463.00, 
2464.00, 
2465.00, 
2466.00, 
2467.00, 
2468.00, 
2469.00, 
2470.00, 
2471.00, 
2472.00, 
2473.00, 
2474.00, 
2475.00, 
2476.00, 
2477.00, 
2478.00, 
2479.00, 
2480.00, 
2481.00, 
2482.00, 
2483.00, 
2484.00, 
2485.00, 
2486.00, 
2487.00, 
2488.00, 
2489.00, 
2490.00, 
2491.00, 
2492.00, 
2493.00, 
2494.00, 
2495.00, 
2496.00, 
2497.00, 
2498.00, 
2499.00, 
2500.00, 
2501.00, 
2502.00, 
2503.00, 
2504.00, 
2505.00, 
2506.00, 
2507.00, 
2508.00, 
2509.00, 
2510.00, 
2511.00, 
2512.00, 
2513.00, 
2514.00, 
2515.00, 
2516.00, 
2517.00, 
2518.00, 
2519.00, 
2520.00, 
2521.00, 
2522.00, 
2523.00, 
2524.00, 
2525.00, 
2526.00, 
2527.00, 
2528.00, 
2529.00, 
2530.00, 
2531.00, 
2532.00, 
2533.00, 
2534.00, 
2535.00, 
2536.00, 
2537.00, 
2538.00, 
2539.00, 
2540.00, 
2541.00, 
2542.00, 
2543.00, 
2544.00, 
2545.00, 
2546.00, 
2547.00, 
2548.00, 
2549.00, 
2550.00, 
2551.00, 
2552.00, 
2553.00, 
2554.00, 
2555.00, 
2556.00, 
2557.00, 
2558.00, 
2559.00, 
2560.00, 
2561.00, 
2562.00, 
2563.00, 
2564.00, 
2565.00, 
2566.00, 
2567.00, 
2568.00, 
2569.00, 
2570.00, 
2571.00, 
2572.00, 
2573.00, 
2574.00, 
2575.00, 
2576.00, 
2577.00, 
2578.00, 
2579.00, 
2580.00, 
2581.00, 
2582.00, 
2583.00, 
2584.00, 
2585.00, 
2586.00, 
2587.00, 
2588.00, 
2589.00, 
2590.00, 
2591.00, 
2592.00, 
2593.00, 
2594.00, 
2595.00, 
2596.00, 
2597.00, 
2598.00, 
2599.00, 
2600.00, 
