"1aP2 - RawData"
"Wavelength nm.","T%"
200.00,0.002
201.00,0.000
202.00,0.001
203.00,0.000
204.00,0.002
205.00,0.002
206.00,0.001
207.00,0.003
208.00,0.001
209.00,0.002
210.00,0.001
211.00,0.001
212.00,0.002
213.00,0.003
214.00,0.002
215.00,0.002
216.00,-0.002
217.00,0.004
218.00,-0.001
219.00,0.003
220.00,0.001
221.00,-0.001
222.00,0.001
223.00,0.004
224.00,0.003
225.00,0.001
226.00,-0.000
227.00,0.001
228.00,0.000
229.00,0.000
230.00,0.000
231.00,0.003
232.00,0.003
233.00,-0.002
234.00,0.002
235.00,0.001
236.00,0.000
237.00,0.003
238.00,0.000
239.00,-0.000
240.00,0.001
241.00,-0.001
242.00,0.001
243.00,0.000
244.00,-0.000
245.00,0.001
246.00,0.002
247.00,0.004
248.00,0.001
249.00,0.002
250.00,0.003
251.00,-0.001
252.00,-0.001
253.00,0.002
254.00,0.000
255.00,-0.000
256.00,0.001
257.00,0.000
258.00,0.000
259.00,-0.001
260.00,0.000
261.00,0.002
262.00,0.001
263.00,0.001
264.00,0.001
265.00,0.000
266.00,-0.000
267.00,-0.001
268.00,0.002
269.00,0.002
270.00,0.000
271.00,0.002
272.00,0.001
273.00,0.001
274.00,-0.000
275.00,-0.000
276.00,0.000
277.00,-0.000
278.00,0.002
279.00,-0.000
280.00,0.001
281.00,-0.001
282.00,0.001
283.00,0.001
284.00,0.001
285.00,0.003
286.00,0.000
287.00,-0.001
288.00,0.001
289.00,0.000
290.00,0.001
291.00,0.002
292.00,0.001
293.00,0.001
294.00,0.002
295.00,-0.000
296.00,0.001
297.00,0.001
298.00,0.001
299.00,0.004
300.00,0.004
301.00,0.007
302.00,0.011
303.00,0.016
304.00,0.021
305.00,0.033
306.00,0.054
307.00,0.082
308.00,0.125
309.00,0.192
310.00,0.257
311.00,0.346
312.00,0.473
313.00,0.636
314.00,0.845
315.00,1.092
316.00,1.371
317.00,1.712
318.00,2.095
319.00,2.553
320.00,3.090
321.00,3.662
322.00,4.337
323.00,5.068
324.00,5.744
325.00,6.574
326.00,7.393
327.00,8.229
328.00,9.141
329.00,10.029
330.00,10.977
331.00,11.921
332.00,12.934
333.00,13.930
334.00,14.860
335.00,15.862
336.00,16.758
337.00,17.738
338.00,18.639
339.00,19.450
340.00,20.323
341.00,21.184
342.00,21.943
343.00,22.743
344.00,23.465
345.00,24.018
346.00,24.780
347.00,25.409
348.00,25.971
349.00,26.424
350.00,26.999
351.00,27.517
352.00,27.916
353.00,28.407
354.00,28.672
355.00,29.046
356.00,29.344
357.00,29.674
358.00,29.980
359.00,30.244
360.00,30.458
361.00,30.751
362.00,30.919
363.00,31.089
364.00,31.331
365.00,31.478
366.00,31.683
367.00,31.656
368.00,31.794
369.00,31.848
370.00,31.899
371.00,31.977
372.00,31.995
373.00,32.022
374.00,31.873
375.00,31.929
376.00,31.924
377.00,31.877
378.00,31.817
379.00,31.718
380.00,31.736
381.00,31.691
382.00,31.767
383.00,31.758
384.00,31.809
385.00,31.915
386.00,31.942
387.00,32.027
388.00,32.047
389.00,32.093
390.00,32.133
391.00,32.249
392.00,32.306
393.00,32.354
394.00,32.330
395.00,32.388
396.00,32.349
397.00,32.422
398.00,32.499
399.00,32.506
400.00,32.493
401.00,32.502
402.00,32.512
403.00,32.467
404.00,32.486
405.00,32.500
406.00,32.542
407.00,32.453
408.00,32.430
409.00,32.424
410.00,32.340
411.00,32.379
412.00,32.347
413.00,32.368
414.00,32.359
415.00,32.339
416.00,32.350
417.00,32.374
418.00,32.450
419.00,32.466
420.00,32.392
421.00,32.552
422.00,32.603
423.00,32.654
424.00,32.648
425.00,32.730
426.00,32.772
427.00,32.816
428.00,32.859
429.00,32.898
430.00,32.906
431.00,32.964
432.00,32.982
433.00,33.075
434.00,33.079
435.00,33.174
436.00,33.256
437.00,33.322
438.00,33.390
439.00,33.469
440.00,33.500
441.00,33.620
442.00,33.646
443.00,33.692
444.00,33.865
445.00,33.880
446.00,34.007
447.00,34.071
448.00,34.055
449.00,34.287
450.00,34.337
451.00,34.500
452.00,34.613
453.00,34.656
454.00,34.827
455.00,34.929
456.00,35.025
457.00,35.138
458.00,35.259
459.00,35.371
460.00,35.470
461.00,35.557
462.00,35.712
463.00,35.770
464.00,35.928
465.00,36.019
466.00,36.076
467.00,36.200
468.00,36.317
469.00,36.501
470.00,36.562
471.00,36.671
472.00,36.843
473.00,36.806
474.00,36.930
475.00,37.009
476.00,37.098
477.00,37.265
478.00,37.298
479.00,37.429
480.00,37.480
481.00,37.686
482.00,37.828
483.00,37.928
484.00,38.041
485.00,38.295
486.00,38.341
487.00,38.464
488.00,38.590
489.00,38.728
490.00,38.853
491.00,38.958
492.00,39.083
493.00,39.227
494.00,39.203
495.00,39.333
496.00,39.540
497.00,39.567
498.00,39.741
499.00,39.850
500.00,39.907
501.00,40.022
502.00,40.159
503.00,40.277
504.00,40.402
505.00,40.488
506.00,40.588
507.00,40.669
508.00,40.726
509.00,40.859
510.00,40.946
511.00,41.069
512.00,41.137
513.00,41.287
514.00,41.415
515.00,41.438
516.00,41.530
517.00,41.732
518.00,41.665
519.00,41.860
520.00,41.926
521.00,41.902
522.00,42.007
523.00,42.161
524.00,42.178
525.00,42.176
526.00,42.322
527.00,42.401
528.00,42.461
529.00,42.408
530.00,42.395
531.00,42.687
532.00,42.730
533.00,42.836
534.00,42.846
535.00,42.858
536.00,43.073
537.00,43.070
538.00,43.150
539.00,43.173
540.00,43.216
541.00,43.264
542.00,43.252
543.00,43.323
544.00,43.410
545.00,43.357
546.00,43.376
547.00,43.469
548.00,43.528
549.00,43.679
550.00,43.772
551.00,43.833
552.00,43.849
553.00,43.914
554.00,44.025
555.00,44.051
556.00,44.030
557.00,44.106
558.00,44.142
559.00,44.181
560.00,44.236
561.00,44.298
562.00,44.340
563.00,44.308
564.00,44.374
565.00,44.405
566.00,44.363
567.00,44.402
568.00,44.484
569.00,44.370
570.00,44.348
571.00,44.509
572.00,44.435
573.00,44.527
574.00,44.517
575.00,44.467
576.00,44.601
577.00,44.671
578.00,44.669
579.00,44.598
580.00,44.704
581.00,44.673
582.00,44.885
583.00,44.933
584.00,45.062
585.00,45.100
586.00,45.046
587.00,45.067
588.00,45.180
589.00,45.249
590.00,45.152
591.00,45.157
592.00,45.186
593.00,45.309
594.00,45.260
595.00,45.193
596.00,45.239
597.00,45.413
598.00,45.450
599.00,45.394
600.00,45.517
601.00,45.562
602.00,45.640
603.00,45.763
604.00,45.700
605.00,45.696
606.00,45.688
607.00,45.809
608.00,45.866
609.00,45.626
610.00,45.656
611.00,45.821
612.00,45.906
613.00,45.788
614.00,45.875
615.00,45.939
616.00,45.966
617.00,46.024
618.00,46.037
619.00,46.100
620.00,46.113
621.00,46.089
622.00,46.129
623.00,46.172
624.00,46.227
625.00,46.302
626.00,46.313
627.00,46.391
628.00,46.409
629.00,46.376
630.00,46.427
631.00,46.449
632.00,46.476
633.00,46.552
634.00,46.615
635.00,46.646
636.00,46.654
637.00,46.808
638.00,46.926
639.00,46.998
640.00,46.960
641.00,47.025
642.00,47.074
643.00,47.080
644.00,47.290
645.00,47.198
646.00,47.202
647.00,47.295
648.00,47.302
649.00,47.532
650.00,47.466
651.00,47.403
652.00,47.440
653.00,47.689
654.00,47.709
655.00,47.561
656.00,47.510
657.00,48.025
658.00,48.068
659.00,48.040
660.00,48.045
661.00,47.979
662.00,48.199
663.00,48.233
664.00,48.250
665.00,48.219
666.00,48.341
667.00,48.520
668.00,48.452
669.00,48.533
670.00,48.591
671.00,48.627
672.00,48.622
673.00,48.813
674.00,48.894
675.00,48.906
676.00,48.950
677.00,48.881
678.00,49.201
679.00,49.070
680.00,49.102
681.00,49.190
682.00,49.315
683.00,49.373
684.00,49.547
685.00,49.622
686.00,49.426
687.00,49.500
688.00,49.587
689.00,49.615
690.00,49.676
691.00,49.609
692.00,49.785
693.00,49.907
694.00,49.868
695.00,49.730
696.00,49.800
697.00,50.056
698.00,50.128
699.00,50.273
700.00,50.249
701.00,50.411
702.00,50.184
703.00,50.334
704.00,50.699
705.00,50.548
706.00,50.632
707.00,50.811
708.00,50.514
709.00,50.608
710.00,50.729
711.00,50.783
712.00,50.694
713.00,50.913
714.00,50.690
715.00,50.876
716.00,50.992
717.00,50.861
718.00,50.901
719.00,51.034
720.00,51.087
721.00,55.186
722.00,55.146
723.00,55.103
724.00,55.109
725.00,55.141
726.00,55.188
727.00,55.107
728.00,55.161
729.00,55.110
730.00,55.075
731.00,55.100
732.00,55.113
733.00,55.189
734.00,55.116
735.00,55.236
736.00,55.145
737.00,55.191
738.00,55.218
739.00,55.160
740.00,55.177
741.00,55.274
742.00,55.182
743.00,55.130
744.00,55.118
745.00,55.167
746.00,55.113
747.00,55.092
748.00,55.102
749.00,55.177
750.00,55.076
751.00,54.982
752.00,54.957
753.00,54.946
754.00,54.986
755.00,54.921
756.00,54.960
757.00,54.976
758.00,54.968
759.00,54.974
760.00,54.958
761.00,54.869
762.00,54.844
763.00,54.883
764.00,54.892
765.00,54.935
766.00,54.911
767.00,54.829
768.00,54.915
769.00,54.803
770.00,54.963
771.00,54.815
772.00,54.834
773.00,54.812
774.00,54.771
775.00,54.791
776.00,54.715
777.00,54.844
778.00,54.653
779.00,54.781
780.00,54.778
781.00,54.755
782.00,54.766
783.00,54.748
784.00,54.796
785.00,54.620
786.00,54.623
787.00,54.726
788.00,54.601
789.00,54.656
790.00,54.598
791.00,54.665
792.00,54.532
793.00,54.557
794.00,54.525
795.00,54.467
796.00,54.454
797.00,54.343
798.00,54.438
799.00,54.383
800.00,54.422
801.00,54.361
802.00,54.248
803.00,54.349
804.00,54.267
805.00,54.268
806.00,54.244
807.00,54.251
808.00,54.201
809.00,54.189
810.00,54.275
811.00,54.131
812.00,54.179
813.00,54.135
814.00,54.088
815.00,54.127
816.00,54.097
817.00,53.998
818.00,53.934
819.00,53.961
820.00,53.929
821.00,53.965
822.00,53.911
823.00,53.946
824.00,53.926
825.00,53.853
826.00,53.880
827.00,53.898
828.00,53.934
829.00,53.780
830.00,53.792
831.00,56.326
832.00,56.295
833.00,56.292
834.00,56.269
835.00,56.155
836.00,56.246
837.00,56.179
838.00,56.159
839.00,56.164
840.00,56.104
841.00,56.167
842.00,56.086
843.00,56.076
844.00,56.080
845.00,56.008
846.00,56.048
847.00,55.944
848.00,55.971
849.00,55.913
850.00,55.897
851.00,55.825
852.00,55.880
853.00,55.806
854.00,55.755
855.00,55.717
856.00,55.727
857.00,55.657
858.00,55.645
859.00,55.659
860.00,55.705
861.00,55.685
862.00,55.621
863.00,55.643
864.00,55.578
865.00,55.609
866.00,55.604
867.00,55.600
868.00,55.586
869.00,55.541
870.00,55.543
871.00,55.559
872.00,55.521
873.00,55.526
874.00,55.521
875.00,55.452
876.00,55.488
877.00,55.448
878.00,55.458
879.00,55.431
880.00,55.396
881.00,55.405
882.00,55.466
883.00,55.369
884.00,55.292
885.00,55.307
886.00,55.293
887.00,55.317
888.00,55.221
889.00,55.224
890.00,55.248
891.00,55.214
892.00,55.164
893.00,55.280
894.00,55.169
895.00,55.148
896.00,55.107
897.00,55.083
898.00,55.079
899.00,55.109
900.00,55.017
901.00,55.052
902.00,55.067
903.00,55.024
904.00,54.990
905.00,54.984
906.00,54.966
907.00,54.947
908.00,54.903
909.00,54.908
910.00,54.883
911.00,54.840
912.00,54.837
913.00,54.845
914.00,54.824
915.00,54.802
916.00,54.779
917.00,54.757
918.00,54.741
919.00,54.706
920.00,54.688
921.00,54.691
922.00,54.602
923.00,54.657
924.00,54.612
925.00,54.616
926.00,54.608
927.00,54.584
928.00,54.572
929.00,54.564
930.00,54.498
931.00,54.510
932.00,54.482
933.00,54.438
934.00,54.430
935.00,54.412
936.00,54.404
937.00,54.364
938.00,54.362
939.00,54.355
940.00,54.322
941.00,54.302
942.00,54.277
943.00,54.282
944.00,54.234
945.00,54.228
946.00,54.233
947.00,54.221
948.00,54.185
949.00,54.163
950.00,54.143
951.00,54.125
952.00,54.097
953.00,54.100
954.00,54.048
955.00,54.025
956.00,54.012
957.00,53.986
958.00,53.994
959.00,53.923
960.00,53.922
961.00,53.918
962.00,53.922
963.00,53.905
964.00,53.883
965.00,53.881
966.00,53.873
967.00,53.819
968.00,53.824
969.00,53.919
970.00,53.820
971.00,53.844
972.00,53.806
973.00,53.833
974.00,53.827
975.00,53.836
976.00,53.824
977.00,53.811
978.00,53.846
979.00,53.832
980.00,53.860
981.00,53.796
982.00,53.759
983.00,53.887
984.00,53.868
985.00,53.817
986.00,53.784
987.00,53.810
988.00,53.744
989.00,53.747
990.00,53.751
991.00,53.737
992.00,53.737
993.00,53.689
994.00,53.709
995.00,53.685
996.00,53.696
997.00,53.674
998.00,53.661
999.00,53.665
1000.00,53.613
1001.00,53.640
1002.00,53.612
1003.00,53.638
1004.00,53.600
1005.00,53.582
1006.00,53.596
1007.00,53.570
1008.00,53.584
1009.00,53.560
1010.00,53.574
1011.00,53.535
1012.00,53.521
1013.00,53.510
1014.00,53.500
1015.00,53.520
1016.00,53.475
1017.00,53.473
1018.00,53.454
1019.00,53.450
1020.00,53.426
1021.00,53.408
1022.00,53.404
1023.00,53.362
1024.00,53.358
1025.00,53.325
1026.00,53.345
1027.00,53.294
1028.00,53.300
1029.00,53.290
1030.00,53.300
1031.00,53.274
1032.00,53.252
1033.00,53.273
1034.00,53.214
1035.00,53.195
1036.00,53.151
1037.00,53.144
1038.00,53.114
1039.00,53.073
1040.00,53.072
1041.00,53.016
1042.00,53.043
1043.00,53.007
1044.00,53.049
1045.00,53.008
1046.00,53.033
1047.00,53.046
1048.00,53.077
1049.00,53.076
1050.00,53.084
1051.00,53.092
1052.00,53.115
1053.00,53.121
1054.00,53.114
1055.00,53.136
1056.00,53.140
1057.00,53.146
1058.00,53.120
1059.00,53.117
1060.00,53.152
1061.00,53.113
1062.00,53.103
1063.00,53.130
1064.00,53.124
1065.00,53.125
1066.00,53.121
1067.00,53.127
1068.00,53.138
1069.00,53.111
1070.00,53.090
1071.00,53.060
1072.00,53.075
1073.00,53.036
1074.00,53.022
1075.00,53.021
1076.00,53.028
1077.00,53.006
1078.00,53.010
1079.00,53.013
1080.00,53.034
1081.00,53.002
1082.00,53.003
1083.00,52.974
1084.00,52.985
1085.00,52.982
1086.00,52.981
1087.00,52.972
1088.00,52.949
1089.00,52.934
1090.00,52.943
1091.00,52.938
1092.00,52.940
1093.00,52.910
1094.00,52.896
1095.00,52.890
1096.00,52.885
1097.00,52.883
1098.00,52.876
1099.00,52.864
1100.00,52.872
1101.00,52.862
1102.00,52.843
1103.00,52.839
1104.00,52.831
1105.00,52.803
1106.00,52.793
1107.00,52.801
1108.00,52.806
1109.00,52.790
1110.00,52.786
1111.00,52.778
1112.00,52.771
1113.00,52.772
1114.00,52.752
1115.00,52.767
1116.00,52.768
1117.00,52.726
1118.00,52.729
1119.00,52.732
1120.00,52.733
1121.00,52.714
1122.00,52.710
1123.00,52.709
1124.00,52.693
1125.00,52.685
1126.00,52.694
1127.00,52.700
1128.00,52.674
1129.00,52.663
1130.00,52.647
1131.00,52.647
1132.00,52.641
1133.00,52.625
1134.00,52.648
1135.00,52.630
1136.00,52.644
1137.00,52.644
1138.00,52.636
1139.00,52.627
1140.00,52.621
1141.00,52.616
1142.00,52.601
1143.00,52.627
1144.00,52.596
1145.00,52.599
1146.00,52.597
1147.00,52.582
1148.00,52.579
1149.00,52.592
1150.00,52.596
1151.00,52.598
1152.00,52.595
1153.00,52.588
1154.00,52.565
1155.00,52.573
1156.00,52.572
1157.00,52.590
1158.00,52.558
1159.00,52.580
1160.00,52.547
1161.00,52.575
1162.00,52.574
1163.00,52.580
1164.00,52.565
1165.00,52.567
1166.00,52.567
1167.00,52.566
1168.00,52.571
1169.00,52.569
1170.00,52.562
1171.00,52.551
1172.00,52.541
1173.00,52.528
1174.00,52.553
1175.00,52.529
1176.00,52.550
1177.00,52.526
1178.00,52.529
1179.00,52.542
1180.00,52.530
1181.00,52.556
1182.00,52.534
1183.00,52.544
1184.00,52.516
1185.00,52.559
1186.00,52.528
1187.00,52.533
1188.00,52.516
1189.00,52.521
1190.00,52.515
1191.00,52.519
1192.00,52.534
1193.00,52.522
1194.00,52.522
1195.00,52.505
1196.00,52.532
1197.00,52.540
1198.00,52.557
1199.00,52.532
1200.00,52.549
1201.00,52.540
1202.00,52.513
1203.00,52.524
1204.00,52.521
1205.00,52.539
1206.00,52.518
1207.00,52.547
1208.00,52.517
1209.00,52.555
1210.00,52.551
1211.00,52.541
1212.00,52.553
1213.00,52.512
1214.00,52.559
1215.00,52.522
1216.00,52.553
1217.00,52.551
1218.00,52.545
1219.00,52.541
1220.00,52.517
1221.00,52.540
1222.00,52.499
1223.00,52.544
1224.00,52.533
1225.00,52.532
1226.00,52.518
1227.00,52.534
1228.00,52.549
1229.00,52.531
1230.00,52.561
1231.00,52.538
1232.00,52.578
1233.00,52.562
1234.00,52.583
1235.00,52.578
1236.00,52.592
1237.00,52.581
1238.00,52.577
1239.00,52.574
1240.00,52.565
1241.00,52.587
1242.00,52.601
1243.00,52.629
1244.00,52.589
1245.00,52.634
1246.00,52.637
1247.00,52.640
1248.00,52.623
1249.00,52.628
1250.00,52.627
1251.00,52.615
1252.00,52.618
1253.00,52.624
1254.00,52.632
1255.00,52.621
1256.00,52.614
1257.00,52.627
1258.00,52.677
1259.00,52.662
1260.00,52.672
1261.00,52.675
1262.00,52.678
1263.00,52.667
1264.00,52.679
1265.00,52.691
1266.00,52.680
1267.00,52.690
1268.00,52.697
1269.00,52.680
1270.00,52.717
1271.00,52.708
1272.00,52.719
1273.00,52.727
1274.00,52.720
1275.00,52.728
1276.00,52.734
1277.00,52.757
1278.00,52.775
1279.00,52.780
1280.00,52.765
1281.00,52.782
1282.00,52.786
1283.00,52.771
1284.00,52.795
1285.00,52.772
1286.00,52.791
1287.00,52.775
1288.00,52.788
1289.00,52.784
1290.00,52.821
1291.00,52.819
1292.00,52.801
1293.00,52.827
1294.00,52.843
1295.00,52.861
1296.00,52.849
1297.00,52.855
1298.00,52.893
1299.00,52.864
1300.00,52.872
1301.00,52.857
1302.00,52.883
1303.00,52.884
1304.00,52.877
1305.00,52.893
1306.00,52.867
1307.00,52.886
1308.00,52.883
1309.00,52.891
1310.00,52.916
1311.00,52.888
1312.00,52.907
1313.00,52.932
1314.00,52.961
1315.00,52.958
1316.00,52.971
1317.00,52.987
1318.00,52.986
1319.00,52.984
1320.00,52.978
1321.00,53.134
1322.00,53.124
1323.00,53.125
1324.00,53.130
1325.00,53.102
1326.00,53.118
1327.00,53.101
1328.00,53.103
1329.00,53.086
1330.00,53.074
1331.00,53.098
1332.00,53.139
1333.00,53.040
1334.00,53.146
1335.00,53.167
1336.00,53.200
1337.00,53.214
1338.00,53.293
1339.00,53.319
1340.00,53.399
1341.00,53.448
1342.00,53.511
1343.00,53.552
1344.00,53.593
1345.00,53.664
1346.00,53.695
1347.00,53.708
1348.00,53.734
1349.00,53.751
1350.00,53.750
1351.00,53.790
1352.00,53.788
1353.00,53.805
1354.00,53.769
1355.00,53.732
1356.00,53.894
1357.00,53.844
1358.00,53.751
1359.00,53.779
1360.00,53.838
1361.00,53.874
1362.00,53.660
1363.00,53.783
1364.00,53.994
1365.00,53.874
1366.00,54.028
1367.00,53.882
1368.00,53.761
1369.00,53.876
1370.00,53.833
1371.00,53.784
1372.00,53.818
1373.00,53.831
1374.00,53.845
1375.00,53.810
1376.00,53.826
1377.00,53.772
1378.00,54.092
1379.00,53.767
1380.00,53.872
1381.00,53.847
1382.00,53.873
1383.00,53.860
1384.00,53.822
1385.00,53.779
1386.00,53.816
1387.00,53.791
1388.00,53.795
1389.00,53.715
1390.00,53.826
1391.00,53.788
1392.00,53.822
1393.00,53.893
1394.00,53.874
1395.00,53.718
1396.00,53.747
1397.00,53.771
1398.00,53.887
1399.00,53.832
1400.00,53.857
1401.00,53.775
1402.00,54.303
1403.00,53.895
1404.00,53.812
1405.00,53.865
1406.00,53.849
1407.00,53.834
1408.00,53.881
1409.00,53.910
1410.00,53.917
1411.00,53.848
1412.00,53.992
1413.00,53.892
1414.00,53.871
1415.00,53.885
1416.00,53.915
1417.00,53.954
1418.00,53.956
1419.00,53.952
1420.00,53.975
1421.00,53.992
1422.00,54.000
1423.00,54.002
1424.00,54.010
1425.00,54.029
1426.00,54.020
1427.00,54.062
1428.00,54.053
1429.00,54.068
1430.00,54.100
1431.00,54.101
1432.00,54.106
1433.00,54.144
1434.00,54.109
1435.00,54.174
1436.00,54.175
1437.00,54.188
1438.00,54.163
1439.00,54.242
1440.00,54.273
1441.00,54.251
1442.00,54.249
1443.00,54.280
1444.00,54.325
1445.00,54.303
1446.00,54.332
1447.00,54.353
1448.00,54.355
1449.00,54.350
1450.00,54.373
1451.00,54.374
1452.00,54.389
1453.00,54.401
1454.00,54.434
1455.00,54.475
1456.00,54.469
1457.00,54.468
1458.00,54.481
1459.00,54.500
1460.00,54.497
1461.00,54.515
1462.00,54.535
1463.00,54.543
1464.00,54.562
1465.00,54.580
1466.00,54.594
1467.00,54.617
1468.00,54.647
1469.00,54.629
1470.00,54.657
1471.00,54.667
1472.00,54.668
1473.00,54.673
1474.00,54.706
1475.00,54.712
1476.00,54.724
1477.00,54.715
1478.00,54.730
1479.00,54.744
1480.00,54.763
1481.00,54.769
1482.00,54.759
1483.00,54.779
1484.00,54.797
1485.00,54.807
1486.00,54.813
1487.00,54.852
1488.00,54.868
1489.00,54.862
1490.00,54.870
1491.00,54.882
1492.00,54.892
1493.00,54.885
1494.00,54.916
1495.00,54.907
1496.00,54.934
1497.00,54.940
1498.00,54.938
1499.00,54.968
1500.00,54.980
1501.00, 
1502.00, 
1503.00, 
1504.00, 
1505.00, 
1506.00, 
1507.00, 
1508.00, 
1509.00, 
1510.00, 
1511.00, 
1512.00, 
1513.00, 
1514.00, 
1515.00, 
1516.00, 
1517.00, 
1518.00, 
1519.00, 
1520.00, 
1521.00, 
1522.00, 
1523.00, 
1524.00, 
1525.00, 
1526.00, 
1527.00, 
1528.00, 
1529.00, 
1530.00, 
1531.00, 
1532.00, 
1533.00, 
1534.00, 
1535.00, 
1536.00, 
1537.00, 
1538.00, 
1539.00, 
1540.00, 
1541.00, 
1542.00, 
1543.00, 
1544.00, 
1545.00, 
1546.00, 
1547.00, 
1548.00, 
1549.00, 
1550.00, 
1551.00, 
1552.00, 
1553.00, 
1554.00, 
1555.00, 
1556.00, 
1557.00, 
1558.00, 
1559.00, 
1560.00, 
1561.00, 
1562.00, 
1563.00, 
1564.00, 
1565.00, 
1566.00, 
1567.00, 
1568.00, 
1569.00, 
1570.00, 
1571.00, 
1572.00, 
1573.00, 
1574.00, 
1575.00, 
1576.00, 
1577.00, 
1578.00, 
1579.00, 
1580.00, 
1581.00, 
1582.00, 
1583.00, 
1584.00, 
1585.00, 
1586.00, 
1587.00, 
1588.00, 
1589.00, 
1590.00, 
1591.00, 
1592.00, 
1593.00, 
1594.00, 
1595.00, 
1596.00, 
1597.00, 
1598.00, 
1599.00, 
1600.00, 
1601.00, 
1602.00, 
1603.00, 
1604.00, 
1605.00, 
1606.00, 
1607.00, 
1608.00, 
1609.00, 
1610.00, 
1611.00, 
1612.00, 
1613.00, 
1614.00, 
1615.00, 
1616.00, 
1617.00, 
1618.00, 
1619.00, 
1620.00, 
1621.00, 
1622.00, 
1623.00, 
1624.00, 
1625.00, 
1626.00, 
1627.00, 
1628.00, 
1629.00, 
1630.00, 
1631.00, 
1632.00, 
1633.00, 
1634.00, 
1635.00, 
1636.00, 
1637.00, 
1638.00, 
1639.00, 
1640.00, 
1641.00, 
1642.00, 
1643.00, 
1644.00, 
1645.00, 
1646.00, 
1647.00, 
1648.00, 
1649.00, 
1650.00, 
1651.00, 
1652.00, 
1653.00, 
1654.00, 
1655.00, 
1656.00, 
1657.00, 
1658.00, 
1659.00, 
1660.00, 
1661.00, 
1662.00, 
1663.00, 
1664.00, 
1665.00, 
1666.00, 
1667.00, 
1668.00, 
1669.00, 
1670.00, 
1671.00, 
1672.00, 
1673.00, 
1674.00, 
1675.00, 
1676.00, 
1677.00, 
1678.00, 
1679.00, 
1680.00, 
1681.00, 
1682.00, 
1683.00, 
1684.00, 
1685.00, 
1686.00, 
1687.00, 
1688.00, 
1689.00, 
1690.00, 
1691.00, 
1692.00, 
1693.00, 
1694.00, 
1695.00, 
1696.00, 
1697.00, 
1698.00, 
1699.00, 
1700.00, 
1701.00, 
1702.00, 
1703.00, 
1704.00, 
1705.00, 
1706.00, 
1707.00, 
1708.00, 
1709.00, 
1710.00, 
1711.00, 
1712.00, 
1713.00, 
1714.00, 
1715.00, 
1716.00, 
1717.00, 
1718.00, 
1719.00, 
1720.00, 
1721.00, 
1722.00, 
1723.00, 
1724.00, 
1725.00, 
1726.00, 
1727.00, 
1728.00, 
1729.00, 
1730.00, 
1731.00, 
1732.00, 
1733.00, 
1734.00, 
1735.00, 
1736.00, 
1737.00, 
1738.00, 
1739.00, 
1740.00, 
1741.00, 
1742.00, 
1743.00, 
1744.00, 
1745.00, 
1746.00, 
1747.00, 
1748.00, 
1749.00, 
1750.00, 
1751.00, 
1752.00, 
1753.00, 
1754.00, 
1755.00, 
1756.00, 
1757.00, 
1758.00, 
1759.00, 
1760.00, 
1761.00, 
1762.00, 
1763.00, 
1764.00, 
1765.00, 
1766.00, 
1767.00, 
1768.00, 
1769.00, 
1770.00, 
1771.00, 
1772.00, 
1773.00, 
1774.00, 
1775.00, 
1776.00, 
1777.00, 
1778.00, 
1779.00, 
1780.00, 
1781.00, 
1782.00, 
1783.00, 
1784.00, 
1785.00, 
1786.00, 
1787.00, 
1788.00, 
1789.00, 
1790.00, 
1791.00, 
1792.00, 
1793.00, 
1794.00, 
1795.00, 
1796.00, 
1797.00, 
1798.00, 
1799.00, 
1800.00, 
1801.00, 
1802.00, 
1803.00, 
1804.00, 
1805.00, 
1806.00, 
1807.00, 
1808.00, 
1809.00, 
1810.00, 
1811.00, 
1812.00, 
1813.00, 
1814.00, 
1815.00, 
1816.00, 
1817.00, 
1818.00, 
1819.00, 
1820.00, 
1821.00, 
1822.00, 
1823.00, 
1824.00, 
1825.00, 
1826.00, 
1827.00, 
1828.00, 
1829.00, 
1830.00, 
1831.00, 
1832.00, 
1833.00, 
1834.00, 
1835.00, 
1836.00, 
1837.00, 
1838.00, 
1839.00, 
1840.00, 
1841.00, 
1842.00, 
1843.00, 
1844.00, 
1845.00, 
1846.00, 
1847.00, 
1848.00, 
1849.00, 
1850.00, 
1851.00, 
1852.00, 
1853.00, 
1854.00, 
1855.00, 
1856.00, 
1857.00, 
1858.00, 
1859.00, 
1860.00, 
1861.00, 
1862.00, 
1863.00, 
1864.00, 
1865.00, 
1866.00, 
1867.00, 
1868.00, 
1869.00, 
1870.00, 
1871.00, 
1872.00, 
1873.00, 
1874.00, 
1875.00, 
1876.00, 
1877.00, 
1878.00, 
1879.00, 
1880.00, 
1881.00, 
1882.00, 
1883.00, 
1884.00, 
1885.00, 
1886.00, 
1887.00, 
1888.00, 
1889.00, 
1890.00, 
1891.00, 
1892.00, 
1893.00, 
1894.00, 
1895.00, 
1896.00, 
1897.00, 
1898.00, 
1899.00, 
1900.00, 
1901.00, 
1902.00, 
1903.00, 
1904.00, 
1905.00, 
1906.00, 
1907.00, 
1908.00, 
1909.00, 
1910.00, 
1911.00, 
1912.00, 
1913.00, 
1914.00, 
1915.00, 
1916.00, 
1917.00, 
1918.00, 
1919.00, 
1920.00, 
1921.00, 
1922.00, 
1923.00, 
1924.00, 
1925.00, 
1926.00, 
1927.00, 
1928.00, 
1929.00, 
1930.00, 
1931.00, 
1932.00, 
1933.00, 
1934.00, 
1935.00, 
1936.00, 
1937.00, 
1938.00, 
1939.00, 
1940.00, 
1941.00, 
1942.00, 
1943.00, 
1944.00, 
1945.00, 
1946.00, 
1947.00, 
1948.00, 
1949.00, 
1950.00, 
1951.00, 
1952.00, 
1953.00, 
1954.00, 
1955.00, 
1956.00, 
1957.00, 
1958.00, 
1959.00, 
1960.00, 
1961.00, 
1962.00, 
1963.00, 
1964.00, 
1965.00, 
1966.00, 
1967.00, 
1968.00, 
1969.00, 
1970.00, 
1971.00, 
1972.00, 
1973.00, 
1974.00, 
1975.00, 
1976.00, 
1977.00, 
1978.00, 
1979.00, 
1980.00, 
1981.00, 
1982.00, 
1983.00, 
1984.00, 
1985.00, 
1986.00, 
1987.00, 
1988.00, 
1989.00, 
1990.00, 
1991.00, 
1992.00, 
1993.00, 
1994.00, 
1995.00, 
1996.00, 
1997.00, 
1998.00, 
1999.00, 
2000.00, 
2001.00, 
2002.00, 
2003.00, 
2004.00, 
2005.00, 
2006.00, 
2007.00, 
2008.00, 
2009.00, 
2010.00, 
2011.00, 
2012.00, 
2013.00, 
2014.00, 
2015.00, 
2016.00, 
2017.00, 
2018.00, 
2019.00, 
2020.00, 
2021.00, 
2022.00, 
2023.00, 
2024.00, 
2025.00, 
2026.00, 
2027.00, 
2028.00, 
2029.00, 
2030.00, 
2031.00, 
2032.00, 
2033.00, 
2034.00, 
2035.00, 
2036.00, 
2037.00, 
2038.00, 
2039.00, 
2040.00, 
2041.00, 
2042.00, 
2043.00, 
2044.00, 
2045.00, 
2046.00, 
2047.00, 
2048.00, 
2049.00, 
2050.00, 
2051.00, 
2052.00, 
2053.00, 
2054.00, 
2055.00, 
2056.00, 
2057.00, 
2058.00, 
2059.00, 
2060.00, 
2061.00, 
2062.00, 
2063.00, 
2064.00, 
2065.00, 
2066.00, 
2067.00, 
2068.00, 
2069.00, 
2070.00, 
2071.00, 
2072.00, 
2073.00, 
2074.00, 
2075.00, 
2076.00, 
2077.00, 
2078.00, 
2079.00, 
2080.00, 
2081.00, 
2082.00, 
2083.00, 
2084.00, 
2085.00, 
2086.00, 
2087.00, 
2088.00, 
2089.00, 
2090.00, 
2091.00, 
2092.00, 
2093.00, 
2094.00, 
2095.00, 
2096.00, 
2097.00, 
2098.00, 
2099.00, 
2100.00, 
2101.00, 
2102.00, 
2103.00, 
2104.00, 
2105.00, 
2106.00, 
2107.00, 
2108.00, 
2109.00, 
2110.00, 
2111.00, 
2112.00, 
2113.00, 
2114.00, 
2115.00, 
2116.00, 
2117.00, 
2118.00, 
2119.00, 
2120.00, 
2121.00, 
2122.00, 
2123.00, 
2124.00, 
2125.00, 
2126.00, 
2127.00, 
2128.00, 
2129.00, 
2130.00, 
2131.00, 
2132.00, 
2133.00, 
2134.00, 
2135.00, 
2136.00, 
2137.00, 
2138.00, 
2139.00, 
2140.00, 
2141.00, 
2142.00, 
2143.00, 
2144.00, 
2145.00, 
2146.00, 
2147.00, 
2148.00, 
2149.00, 
2150.00, 
2151.00, 
2152.00, 
2153.00, 
2154.00, 
2155.00, 
2156.00, 
2157.00, 
2158.00, 
2159.00, 
2160.00, 
2161.00, 
2162.00, 
2163.00, 
2164.00, 
2165.00, 
2166.00, 
2167.00, 
2168.00, 
2169.00, 
2170.00, 
2171.00, 
2172.00, 
2173.00, 
2174.00, 
2175.00, 
2176.00, 
2177.00, 
2178.00, 
2179.00, 
2180.00, 
2181.00, 
2182.00, 
2183.00, 
2184.00, 
2185.00, 
2186.00, 
2187.00, 
2188.00, 
2189.00, 
2190.00, 
2191.00, 
2192.00, 
2193.00, 
2194.00, 
2195.00, 
2196.00, 
2197.00, 
2198.00, 
2199.00, 
2200.00, 
2201.00, 
2202.00, 
2203.00, 
2204.00, 
2205.00, 
2206.00, 
2207.00, 
2208.00, 
2209.00, 
2210.00, 
2211.00, 
2212.00, 
2213.00, 
2214.00, 
2215.00, 
2216.00, 
2217.00, 
2218.00, 
2219.00, 
2220.00, 
2221.00, 
2222.00, 
2223.00, 
2224.00, 
2225.00, 
2226.00, 
2227.00, 
2228.00, 
2229.00, 
2230.00, 
2231.00, 
2232.00, 
2233.00, 
2234.00, 
2235.00, 
2236.00, 
2237.00, 
2238.00, 
2239.00, 
2240.00, 
2241.00, 
2242.00, 
2243.00, 
2244.00, 
2245.00, 
2246.00, 
2247.00, 
2248.00, 
2249.00, 
2250.00, 
2251.00, 
2252.00, 
2253.00, 
2254.00, 
2255.00, 
2256.00, 
2257.00, 
2258.00, 
2259.00, 
2260.00, 
2261.00, 
2262.00, 
2263.00, 
2264.00, 
2265.00, 
2266.00, 
2267.00, 
2268.00, 
2269.00, 
2270.00, 
2271.00, 
2272.00, 
2273.00, 
2274.00, 
2275.00, 
2276.00, 
2277.00, 
2278.00, 
2279.00, 
2280.00, 
2281.00, 
2282.00, 
2283.00, 
2284.00, 
2285.00, 
2286.00, 
2287.00, 
2288.00, 
2289.00, 
2290.00, 
2291.00, 
2292.00, 
2293.00, 
2294.00, 
2295.00, 
2296.00, 
2297.00, 
2298.00, 
2299.00, 
2300.00, 
2301.00, 
2302.00, 
2303.00, 
2304.00, 
2305.00, 
2306.00, 
2307.00, 
2308.00, 
2309.00, 
2310.00, 
2311.00, 
2312.00, 
2313.00, 
2314.00, 
2315.00, 
2316.00, 
2317.00, 
2318.00, 
2319.00, 
2320.00, 
2321.00, 
2322.00, 
2323.00, 
2324.00, 
2325.00, 
2326.00, 
2327.00, 
2328.00, 
2329.00, 
2330.00, 
2331.00, 
2332.00, 
2333.00, 
2334.00, 
2335.00, 
2336.00, 
2337.00, 
2338.00, 
2339.00, 
2340.00, 
2341.00, 
2342.00, 
2343.00, 
2344.00, 
2345.00, 
2346.00, 
2347.00, 
2348.00, 
2349.00, 
2350.00, 
2351.00, 
2352.00, 
2353.00, 
2354.00, 
2355.00, 
2356.00, 
2357.00, 
2358.00, 
2359.00, 
2360.00, 
2361.00, 
2362.00, 
2363.00, 
2364.00, 
2365.00, 
2366.00, 
2367.00, 
2368.00, 
2369.00, 
2370.00, 
2371.00, 
2372.00, 
2373.00, 
2374.00, 
2375.00, 
2376.00, 
2377.00, 
2378.00, 
2379.00, 
2380.00, 
2381.00, 
2382.00, 
2383.00, 
2384.00, 
2385.00, 
2386.00, 
2387.00, 
2388.00, 
2389.00, 
2390.00, 
2391.00, 
2392.00, 
2393.00, 
2394.00, 
2395.00, 
2396.00, 
2397.00, 
2398.00, 
2399.00, 
2400.00, 
2401.00, 
2402.00, 
2403.00, 
2404.00, 
2405.00, 
2406.00, 
2407.00, 
2408.00, 
2409.00, 
2410.00, 
2411.00, 
2412.00, 
2413.00, 
2414.00, 
2415.00, 
2416.00, 
2417.00, 
2418.00, 
2419.00, 
2420.00, 
2421.00, 
2422.00, 
2423.00, 
2424.00, 
2425.00, 
2426.00, 
2427.00, 
2428.00, 
2429.00, 
2430.00, 
2431.00, 
2432.00, 
2433.00, 
2434.00, 
2435.00, 
2436.00, 
2437.00, 
2438.00, 
2439.00, 
2440.00, 
2441.00, 
2442.00, 
2443.00, 
2444.00, 
2445.00, 
2446.00, 
2447.00, 
2448.00, 
2449.00, 
2450.00, 
2451.00, 
2452.00, 
2453.00, 
2454.00, 
2455.00, 
2456.00, 
2457.00, 
2458.00, 
2459.00, 
2460.00, 
2461.00, 
2462.00, 
2463.00, 
2464.00, 
2465.00, 
2466.00, 
2467.00, 
2468.00, 
2469.00, 
2470.00, 
2471.00, 
2472.00, 
2473.00, 
2474.00, 
2475.00, 
2476.00, 
2477.00, 
2478.00, 
2479.00, 
2480.00, 
2481.00, 
2482.00, 
2483.00, 
2484.00, 
2485.00, 
2486.00, 
2487.00, 
2488.00, 
2489.00, 
2490.00, 
2491.00, 
2492.00, 
2493.00, 
2494.00, 
2495.00, 
2496.00, 
2497.00, 
2498.00, 
2499.00, 
2500.00, 
2501.00, 
2502.00, 
2503.00, 
2504.00, 
2505.00, 
2506.00, 
2507.00, 
2508.00, 
2509.00, 
2510.00, 
2511.00, 
2512.00, 
2513.00, 
2514.00, 
2515.00, 
2516.00, 
2517.00, 
2518.00, 
2519.00, 
2520.00, 
2521.00, 
2522.00, 
2523.00, 
2524.00, 
2525.00, 
2526.00, 
2527.00, 
2528.00, 
2529.00, 
2530.00, 
2531.00, 
2532.00, 
2533.00, 
2534.00, 
2535.00, 
2536.00, 
2537.00, 
2538.00, 
2539.00, 
2540.00, 
2541.00, 
2542.00, 
2543.00, 
2544.00, 
2545.00, 
2546.00, 
2547.00, 
2548.00, 
2549.00, 
2550.00, 
2551.00, 
2552.00, 
2553.00, 
2554.00, 
2555.00, 
2556.00, 
2557.00, 
2558.00, 
2559.00, 
2560.00, 
2561.00, 
2562.00, 
2563.00, 
2564.00, 
2565.00, 
2566.00, 
2567.00, 
2568.00, 
2569.00, 
2570.00, 
2571.00, 
2572.00, 
2573.00, 
2574.00, 
2575.00, 
2576.00, 
2577.00, 
2578.00, 
2579.00, 
2580.00, 
2581.00, 
2582.00, 
2583.00, 
2584.00, 
2585.00, 
2586.00, 
2587.00, 
2588.00, 
2589.00, 
2590.00, 
2591.00, 
2592.00, 
2593.00, 
2594.00, 
2595.00, 
2596.00, 
2597.00, 
2598.00, 
2599.00, 
2600.00, 
