"1bP2 - RawData"
"Wavelength nm.","T%"
200.00,0.005
201.00,0.001
202.00,0.004
203.00,0.000
204.00,0.003
205.00,0.001
206.00,0.003
207.00,0.003
208.00,0.003
209.00,0.001
210.00,0.002
211.00,0.001
212.00,-0.002
213.00,0.002
214.00,0.002
215.00,0.002
216.00,0.002
217.00,0.002
218.00,0.005
219.00,0.002
220.00,0.001
221.00,0.003
222.00,0.001
223.00,0.001
224.00,0.000
225.00,0.001
226.00,0.000
227.00,0.001
228.00,0.000
229.00,0.002
230.00,0.001
231.00,0.002
232.00,-0.000
233.00,0.002
234.00,0.002
235.00,0.002
236.00,0.002
237.00,0.001
238.00,-0.000
239.00,0.001
240.00,-0.000
241.00,-0.001
242.00,-0.002
243.00,0.001
244.00,0.002
245.00,0.001
246.00,0.001
247.00,0.001
248.00,0.001
249.00,0.003
250.00,-0.001
251.00,0.001
252.00,-0.000
253.00,0.002
254.00,-0.001
255.00,0.002
256.00,0.000
257.00,-0.000
258.00,0.001
259.00,0.001
260.00,0.003
261.00,-0.000
262.00,0.001
263.00,0.002
264.00,0.000
265.00,0.000
266.00,-0.001
267.00,-0.001
268.00,0.002
269.00,-0.001
270.00,0.001
271.00,0.000
272.00,0.002
273.00,0.002
274.00,0.000
275.00,0.001
276.00,-0.001
277.00,0.001
278.00,0.000
279.00,0.000
280.00,0.002
281.00,-0.000
282.00,0.001
283.00,0.000
284.00,0.001
285.00,0.003
286.00,0.002
287.00,-0.001
288.00,-0.001
289.00,0.000
290.00,0.000
291.00,-0.000
292.00,0.001
293.00,0.001
294.00,-0.001
295.00,-0.001
296.00,0.000
297.00,0.001
298.00,0.002
299.00,0.002
300.00,0.004
301.00,0.007
302.00,0.013
303.00,0.017
304.00,0.024
305.00,0.040
306.00,0.061
307.00,0.092
308.00,0.135
309.00,0.205
310.00,0.287
311.00,0.386
312.00,0.528
313.00,0.706
314.00,0.936
315.00,1.200
316.00,1.497
317.00,1.880
318.00,2.294
319.00,2.785
320.00,3.366
321.00,4.019
322.00,4.708
323.00,5.488
324.00,6.281
325.00,7.154
326.00,8.025
327.00,8.993
328.00,9.883
329.00,10.888
330.00,11.925
331.00,12.931
332.00,13.969
333.00,15.066
334.00,16.055
335.00,17.141
336.00,18.113
337.00,19.177
338.00,20.123
339.00,21.044
340.00,21.948
341.00,22.852
342.00,23.652
343.00,24.490
344.00,25.241
345.00,25.893
346.00,26.703
347.00,27.305
348.00,27.978
349.00,28.503
350.00,29.102
351.00,29.577
352.00,29.907
353.00,30.410
354.00,30.871
355.00,31.292
356.00,31.611
357.00,31.953
358.00,32.317
359.00,32.538
360.00,32.751
361.00,33.109
362.00,33.303
363.00,33.482
364.00,33.697
365.00,33.918
366.00,34.089
367.00,34.138
368.00,34.254
369.00,34.297
370.00,34.355
371.00,34.437
372.00,34.462
373.00,34.479
374.00,34.398
375.00,34.503
376.00,34.450
377.00,34.343
378.00,34.306
379.00,34.245
380.00,34.179
381.00,34.220
382.00,34.259
383.00,34.245
384.00,34.340
385.00,34.398
386.00,34.443
387.00,34.532
388.00,34.580
389.00,34.667
390.00,34.681
391.00,34.859
392.00,34.919
393.00,34.905
394.00,34.876
395.00,34.825
396.00,34.996
397.00,35.016
398.00,35.096
399.00,35.067
400.00,35.074
401.00,35.109
402.00,35.092
403.00,35.083
404.00,35.100
405.00,35.076
406.00,35.122
407.00,35.036
408.00,35.020
409.00,35.012
410.00,34.936
411.00,34.931
412.00,34.936
413.00,34.867
414.00,34.894
415.00,34.866
416.00,34.874
417.00,34.914
418.00,34.973
419.00,34.984
420.00,34.880
421.00,35.081
422.00,35.110
423.00,35.076
424.00,35.149
425.00,35.196
426.00,35.259
427.00,35.276
428.00,35.312
429.00,35.355
430.00,35.361
431.00,35.378
432.00,35.393
433.00,35.512
434.00,35.534
435.00,35.551
436.00,35.668
437.00,35.726
438.00,35.738
439.00,35.805
440.00,35.844
441.00,35.984
442.00,36.020
443.00,36.056
444.00,36.166
445.00,36.203
446.00,36.307
447.00,36.388
448.00,36.383
449.00,36.562
450.00,36.583
451.00,36.720
452.00,36.850
453.00,36.834
454.00,37.042
455.00,37.093
456.00,37.159
457.00,37.282
458.00,37.365
459.00,37.457
460.00,37.528
461.00,37.622
462.00,37.749
463.00,37.756
464.00,37.955
465.00,38.056
466.00,38.064
467.00,38.267
468.00,38.346
469.00,38.447
470.00,38.503
471.00,38.614
472.00,38.750
473.00,38.737
474.00,38.805
475.00,38.860
476.00,38.975
477.00,39.043
478.00,39.170
479.00,39.262
480.00,39.421
481.00,39.503
482.00,39.555
483.00,39.689
484.00,39.694
485.00,39.990
486.00,40.059
487.00,40.201
488.00,40.287
489.00,40.393
490.00,40.545
491.00,40.625
492.00,40.710
493.00,40.853
494.00,40.834
495.00,40.964
496.00,41.132
497.00,41.148
498.00,41.291
499.00,41.421
500.00,41.428
501.00,41.527
502.00,41.731
503.00,41.728
504.00,41.891
505.00,41.997
506.00,42.046
507.00,42.114
508.00,42.176
509.00,42.309
510.00,42.355
511.00,42.456
512.00,42.542
513.00,42.624
514.00,42.727
515.00,42.843
516.00,42.872
517.00,43.096
518.00,43.109
519.00,43.164
520.00,43.287
521.00,43.249
522.00,43.329
523.00,43.424
524.00,43.431
525.00,43.448
526.00,43.579
527.00,43.625
528.00,43.690
529.00,43.658
530.00,43.689
531.00,43.915
532.00,43.958
533.00,44.014
534.00,44.079
535.00,44.140
536.00,44.252
537.00,44.226
538.00,44.343
539.00,44.360
540.00,44.417
541.00,44.472
542.00,44.447
543.00,44.530
544.00,44.594
545.00,44.563
546.00,44.642
547.00,44.725
548.00,44.690
549.00,44.759
550.00,44.895
551.00,44.943
552.00,44.983
553.00,45.024
554.00,45.110
555.00,45.140
556.00,45.109
557.00,45.230
558.00,45.178
559.00,45.248
560.00,45.316
561.00,45.291
562.00,45.369
563.00,45.407
564.00,45.395
565.00,45.518
566.00,45.487
567.00,45.413
568.00,45.486
569.00,45.450
570.00,45.196
571.00,45.529
572.00,45.546
573.00,45.536
574.00,45.665
575.00,45.683
576.00,45.640
577.00,45.666
578.00,45.725
579.00,45.634
580.00,45.757
581.00,45.865
582.00,45.837
583.00,45.856
584.00,46.012
585.00,46.015
586.00,46.031
587.00,46.173
588.00,46.202
589.00,46.180
590.00,46.165
591.00,46.152
592.00,46.113
593.00,46.272
594.00,46.277
595.00,46.211
596.00,46.248
597.00,46.260
598.00,46.341
599.00,46.393
600.00,46.511
601.00,46.540
602.00,46.591
603.00,46.683
604.00,46.579
605.00,46.583
606.00,46.616
607.00,46.740
608.00,46.766
609.00,46.568
610.00,46.576
611.00,46.692
612.00,46.779
613.00,46.690
614.00,46.726
615.00,46.772
616.00,46.839
617.00,46.881
618.00,46.821
619.00,46.980
620.00,46.941
621.00,46.819
622.00,46.973
623.00,46.994
624.00,46.965
625.00,46.999
626.00,46.941
627.00,47.084
628.00,47.167
629.00,47.169
630.00,47.261
631.00,47.195
632.00,47.290
633.00,47.288
634.00,47.251
635.00,47.390
636.00,47.483
637.00,47.561
638.00,47.658
639.00,47.671
640.00,47.646
641.00,47.681
642.00,47.752
643.00,47.748
644.00,47.851
645.00,47.775
646.00,47.855
647.00,47.923
648.00,47.880
649.00,48.152
650.00,48.071
651.00,48.074
652.00,48.031
653.00,48.200
654.00,48.202
655.00,48.092
656.00,48.012
657.00,48.492
658.00,48.490
659.00,48.473
660.00,48.505
661.00,48.411
662.00,48.640
663.00,48.593
664.00,48.559
665.00,48.472
666.00,48.703
667.00,48.846
668.00,48.684
669.00,48.793
670.00,48.752
671.00,48.828
672.00,48.830
673.00,48.982
674.00,49.039
675.00,49.070
676.00,49.114
677.00,49.052
678.00,49.345
679.00,49.117
680.00,49.353
681.00,49.260
682.00,49.332
683.00,49.444
684.00,49.582
685.00,49.556
686.00,49.558
687.00,49.629
688.00,49.735
689.00,49.608
690.00,49.605
691.00,49.651
692.00,49.642
693.00,49.856
694.00,49.710
695.00,49.604
696.00,49.619
697.00,49.726
698.00,50.026
699.00,50.046
700.00,50.155
701.00,50.182
702.00,50.306
703.00,50.226
704.00,50.275
705.00,50.292
706.00,50.367
707.00,50.558
708.00,50.321
709.00,50.315
710.00,50.286
711.00,50.408
712.00,50.307
713.00,50.543
714.00,50.310
715.00,50.511
716.00,50.529
717.00,50.446
718.00,50.564
719.00,50.627
720.00,50.663
721.00,54.911
722.00,54.854
723.00,54.838
724.00,54.766
725.00,54.787
726.00,54.730
727.00,54.685
728.00,54.799
729.00,54.735
730.00,54.626
731.00,54.715
732.00,54.653
733.00,54.659
734.00,54.674
735.00,54.615
736.00,54.668
737.00,54.650
738.00,54.646
739.00,54.642
740.00,54.495
741.00,54.639
742.00,54.614
743.00,54.558
744.00,54.521
745.00,54.532
746.00,54.464
747.00,54.432
748.00,54.427
749.00,54.426
750.00,54.397
751.00,54.281
752.00,54.350
753.00,54.275
754.00,54.253
755.00,54.307
756.00,54.277
757.00,54.226
758.00,54.190
759.00,54.237
760.00,54.214
761.00,54.121
762.00,54.104
763.00,54.090
764.00,54.038
765.00,54.070
766.00,54.085
767.00,54.035
768.00,54.037
769.00,53.975
770.00,54.125
771.00,53.993
772.00,53.994
773.00,54.027
774.00,54.000
775.00,53.952
776.00,53.883
777.00,53.978
778.00,53.847
779.00,53.960
780.00,53.922
781.00,53.864
782.00,53.896
783.00,53.813
784.00,53.880
785.00,53.712
786.00,53.697
787.00,53.762
788.00,53.799
789.00,53.776
790.00,53.637
791.00,53.775
792.00,53.551
793.00,53.654
794.00,53.584
795.00,53.459
796.00,53.477
797.00,53.440
798.00,53.416
799.00,53.432
800.00,53.515
801.00,53.342
802.00,53.346
803.00,53.389
804.00,53.283
805.00,53.252
806.00,53.317
807.00,53.283
808.00,53.251
809.00,53.154
810.00,53.212
811.00,53.103
812.00,53.155
813.00,53.130
814.00,53.094
815.00,53.084
816.00,53.038
817.00,53.042
818.00,52.808
819.00,52.965
820.00,52.915
821.00,52.863
822.00,52.809
823.00,52.977
824.00,52.971
825.00,52.831
826.00,52.894
827.00,52.858
828.00,52.889
829.00,52.805
830.00,52.784
831.00,55.350
832.00,55.311
833.00,55.326
834.00,55.241
835.00,55.207
836.00,55.237
837.00,55.152
838.00,55.168
839.00,55.143
840.00,55.100
841.00,55.171
842.00,55.127
843.00,55.093
844.00,55.088
845.00,55.001
846.00,55.084
847.00,54.949
848.00,54.969
849.00,54.927
850.00,54.899
851.00,54.867
852.00,54.842
853.00,54.779
854.00,54.771
855.00,54.717
856.00,54.738
857.00,54.739
858.00,54.642
859.00,54.629
860.00,54.664
861.00,54.622
862.00,54.582
863.00,54.559
864.00,54.519
865.00,54.553
866.00,54.516
867.00,54.533
868.00,54.535
869.00,54.499
870.00,54.491
871.00,54.472
872.00,54.505
873.00,54.443
874.00,54.430
875.00,54.381
876.00,54.382
877.00,54.379
878.00,54.369
879.00,54.352
880.00,54.315
881.00,54.341
882.00,54.363
883.00,54.325
884.00,54.277
885.00,54.248
886.00,54.236
887.00,54.229
888.00,54.190
889.00,54.195
890.00,54.207
891.00,54.150
892.00,54.124
893.00,54.087
894.00,54.085
895.00,54.059
896.00,54.047
897.00,54.020
898.00,53.973
899.00,54.004
900.00,53.950
901.00,53.965
902.00,53.984
903.00,53.940
904.00,53.940
905.00,53.910
906.00,53.888
907.00,53.791
908.00,53.842
909.00,53.830
910.00,53.782
911.00,53.763
912.00,53.763
913.00,53.718
914.00,53.727
915.00,53.702
916.00,53.684
917.00,53.654
918.00,53.659
919.00,53.634
920.00,53.629
921.00,53.597
922.00,53.581
923.00,53.554
924.00,53.524
925.00,53.519
926.00,53.531
927.00,53.498
928.00,53.460
929.00,53.459
930.00,53.413
931.00,53.419
932.00,53.379
933.00,53.367
934.00,53.348
935.00,53.331
936.00,53.307
937.00,53.269
938.00,53.294
939.00,53.283
940.00,53.248
941.00,53.245
942.00,53.218
943.00,53.216
944.00,53.181
945.00,53.173
946.00,53.163
947.00,53.114
948.00,53.088
949.00,53.096
950.00,53.059
951.00,53.041
952.00,53.016
953.00,53.020
954.00,52.970
955.00,52.947
956.00,52.919
957.00,52.902
958.00,52.882
959.00,52.827
960.00,52.835
961.00,52.805
962.00,52.851
963.00,52.784
964.00,52.791
965.00,52.771
966.00,52.766
967.00,52.730
968.00,52.734
969.00,52.741
970.00,52.717
971.00,52.763
972.00,52.703
973.00,52.795
974.00,52.785
975.00,52.774
976.00,52.788
977.00,52.752
978.00,52.798
979.00,52.766
980.00,52.788
981.00,52.750
982.00,52.752
983.00,52.751
984.00,52.749
985.00,52.758
986.00,52.723
987.00,52.759
988.00,52.707
989.00,52.703
990.00,52.688
991.00,52.669
992.00,52.678
993.00,52.651
994.00,52.665
995.00,52.637
996.00,52.637
997.00,52.623
998.00,52.604
999.00,52.616
1000.00,52.555
1001.00,52.576
1002.00,52.541
1003.00,52.555
1004.00,52.540
1005.00,52.515
1006.00,52.537
1007.00,52.503
1008.00,52.507
1009.00,52.483
1010.00,52.494
1011.00,52.452
1012.00,52.440
1013.00,52.436
1014.00,52.403
1015.00,52.428
1016.00,52.369
1017.00,52.377
1018.00,52.354
1019.00,52.349
1020.00,52.334
1021.00,52.329
1022.00,52.301
1023.00,52.281
1024.00,52.275
1025.00,52.247
1026.00,52.273
1027.00,52.213
1028.00,52.232
1029.00,52.200
1030.00,52.190
1031.00,52.183
1032.00,52.142
1033.00,52.195
1034.00,52.160
1035.00,52.097
1036.00,52.065
1037.00,52.068
1038.00,52.029
1039.00,52.002
1040.00,52.015
1041.00,51.959
1042.00,51.971
1043.00,51.941
1044.00,51.981
1045.00,51.948
1046.00,51.950
1047.00,51.952
1048.00,51.978
1049.00,51.975
1050.00,52.002
1051.00,52.024
1052.00,52.034
1053.00,52.052
1054.00,52.057
1055.00,52.063
1056.00,52.076
1057.00,52.082
1058.00,52.055
1059.00,52.060
1060.00,52.046
1061.00,52.044
1062.00,52.021
1063.00,52.030
1064.00,52.027
1065.00,52.029
1066.00,52.012
1067.00,52.021
1068.00,52.027
1069.00,51.988
1070.00,51.991
1071.00,51.970
1072.00,51.989
1073.00,51.964
1074.00,51.965
1075.00,51.956
1076.00,51.960
1077.00,51.923
1078.00,51.926
1079.00,51.922
1080.00,51.936
1081.00,51.918
1082.00,51.921
1083.00,51.904
1084.00,51.916
1085.00,51.913
1086.00,51.908
1087.00,51.897
1088.00,51.878
1089.00,51.871
1090.00,51.856
1091.00,51.857
1092.00,51.861
1093.00,51.823
1094.00,51.822
1095.00,51.803
1096.00,51.795
1097.00,51.781
1098.00,51.779
1099.00,51.754
1100.00,51.749
1101.00,51.735
1102.00,51.736
1103.00,51.743
1104.00,51.726
1105.00,51.717
1106.00,51.712
1107.00,51.701
1108.00,51.711
1109.00,51.702
1110.00,51.696
1111.00,51.677
1112.00,51.659
1113.00,51.644
1114.00,51.664
1115.00,51.651
1116.00,51.632
1117.00,51.607
1118.00,51.626
1119.00,51.631
1120.00,51.615
1121.00,51.605
1122.00,51.618
1123.00,51.586
1124.00,51.576
1125.00,51.598
1126.00,51.602
1127.00,51.576
1128.00,51.568
1129.00,51.558
1130.00,51.543
1131.00,51.542
1132.00,51.528
1133.00,51.546
1134.00,51.556
1135.00,51.543
1136.00,51.555
1137.00,51.536
1138.00,51.554
1139.00,51.549
1140.00,51.534
1141.00,51.515
1142.00,51.512
1143.00,51.532
1144.00,51.517
1145.00,51.513
1146.00,51.508
1147.00,51.502
1148.00,51.496
1149.00,51.503
1150.00,51.510
1151.00,51.504
1152.00,51.499
1153.00,51.488
1154.00,51.467
1155.00,51.492
1156.00,51.473
1157.00,51.483
1158.00,51.482
1159.00,51.488
1160.00,51.459
1161.00,51.485
1162.00,51.473
1163.00,51.471
1164.00,51.464
1165.00,51.459
1166.00,51.470
1167.00,51.464
1168.00,51.473
1169.00,51.479
1170.00,51.476
1171.00,51.473
1172.00,51.459
1173.00,51.448
1174.00,51.463
1175.00,51.435
1176.00,51.449
1177.00,51.436
1178.00,51.420
1179.00,51.434
1180.00,51.448
1181.00,51.461
1182.00,51.458
1183.00,51.470
1184.00,51.434
1185.00,51.466
1186.00,51.434
1187.00,51.436
1188.00,51.425
1189.00,51.425
1190.00,51.414
1191.00,51.424
1192.00,51.428
1193.00,51.415
1194.00,51.436
1195.00,51.424
1196.00,51.459
1197.00,51.445
1198.00,51.441
1199.00,51.448
1200.00,51.465
1201.00,51.449
1202.00,51.450
1203.00,51.453
1204.00,51.433
1205.00,51.456
1206.00,51.429
1207.00,51.444
1208.00,51.401
1209.00,51.426
1210.00,51.436
1211.00,51.427
1212.00,51.440
1213.00,51.414
1214.00,51.450
1215.00,51.410
1216.00,51.456
1217.00,51.458
1218.00,51.437
1219.00,51.445
1220.00,51.414
1221.00,51.441
1222.00,51.391
1223.00,51.434
1224.00,51.440
1225.00,51.426
1226.00,51.421
1227.00,51.447
1228.00,51.446
1229.00,51.434
1230.00,51.476
1231.00,51.458
1232.00,51.502
1233.00,51.473
1234.00,51.487
1235.00,51.486
1236.00,51.488
1237.00,51.484
1238.00,51.497
1239.00,51.480
1240.00,51.479
1241.00,51.500
1242.00,51.478
1243.00,51.517
1244.00,51.469
1245.00,51.501
1246.00,51.518
1247.00,51.540
1248.00,51.547
1249.00,51.542
1250.00,51.536
1251.00,51.531
1252.00,51.538
1253.00,51.522
1254.00,51.556
1255.00,51.500
1256.00,51.484
1257.00,51.506
1258.00,51.560
1259.00,51.537
1260.00,51.571
1261.00,51.565
1262.00,51.572
1263.00,51.549
1264.00,51.556
1265.00,51.580
1266.00,51.546
1267.00,51.561
1268.00,51.587
1269.00,51.571
1270.00,51.602
1271.00,51.605
1272.00,51.615
1273.00,51.617
1274.00,51.624
1275.00,51.620
1276.00,51.637
1277.00,51.643
1278.00,51.665
1279.00,51.684
1280.00,51.660
1281.00,51.678
1282.00,51.699
1283.00,51.672
1284.00,51.676
1285.00,51.668
1286.00,51.680
1287.00,51.684
1288.00,51.687
1289.00,51.683
1290.00,51.733
1291.00,51.713
1292.00,51.717
1293.00,51.737
1294.00,51.735
1295.00,51.749
1296.00,51.740
1297.00,51.740
1298.00,51.767
1299.00,51.730
1300.00,51.757
1301.00,51.746
1302.00,51.766
1303.00,51.770
1304.00,51.774
1305.00,51.768
1306.00,51.782
1307.00,51.800
1308.00,51.785
1309.00,51.805
1310.00,51.776
1311.00,51.757
1312.00,51.800
1313.00,51.798
1314.00,51.834
1315.00,51.836
1316.00,51.838
1317.00,51.850
1318.00,51.854
1319.00,51.857
1320.00,51.861
1321.00,52.018
1322.00,52.006
1323.00,52.004
1324.00,51.979
1325.00,51.962
1326.00,52.001
1327.00,51.961
1328.00,51.973
1329.00,51.963
1330.00,51.967
1331.00,51.973
1332.00,51.973
1333.00,51.975
1334.00,52.024
1335.00,52.028
1336.00,52.055
1337.00,52.086
1338.00,52.136
1339.00,52.181
1340.00,52.267
1341.00,52.315
1342.00,52.397
1343.00,52.437
1344.00,52.477
1345.00,52.531
1346.00,52.592
1347.00,52.703
1348.00,52.618
1349.00,52.617
1350.00,52.617
1351.00,52.669
1352.00,52.644
1353.00,52.632
1354.00,52.652
1355.00,52.648
1356.00,52.707
1357.00,52.665
1358.00,52.667
1359.00,52.660
1360.00,52.702
1361.00,52.711
1362.00,52.567
1363.00,52.792
1364.00,52.833
1365.00,52.741
1366.00,52.819
1367.00,52.772
1368.00,52.644
1369.00,52.688
1370.00,52.698
1371.00,52.666
1372.00,52.675
1373.00,52.697
1374.00,52.696
1375.00,52.680
1376.00,52.684
1377.00,52.625
1378.00,52.700
1379.00,52.660
1380.00,52.695
1381.00,52.683
1382.00,52.714
1383.00,52.712
1384.00,52.675
1385.00,52.633
1386.00,52.646
1387.00,52.683
1388.00,52.660
1389.00,52.619
1390.00,52.611
1391.00,52.654
1392.00,52.707
1393.00,52.631
1394.00,52.728
1395.00,52.605
1396.00,52.594
1397.00,52.600
1398.00,52.830
1399.00,52.633
1400.00,52.670
1401.00,52.582
1402.00,53.061
1403.00,52.715
1404.00,52.654
1405.00,52.698
1406.00,52.703
1407.00,52.673
1408.00,52.752
1409.00,52.741
1410.00,52.744
1411.00,52.699
1412.00,52.767
1413.00,52.719
1414.00,52.716
1415.00,52.719
1416.00,52.755
1417.00,52.819
1418.00,52.795
1419.00,52.782
1420.00,52.820
1421.00,52.825
1422.00,52.839
1423.00,52.828
1424.00,52.843
1425.00,52.883
1426.00,52.852
1427.00,52.890
1428.00,52.910
1429.00,52.906
1430.00,52.909
1431.00,52.934
1432.00,52.915
1433.00,52.954
1434.00,52.931
1435.00,52.990
1436.00,52.999
1437.00,53.001
1438.00,53.015
1439.00,53.054
1440.00,53.049
1441.00,53.075
1442.00,53.086
1443.00,53.091
1444.00,53.188
1445.00,53.172
1446.00,53.134
1447.00,53.172
1448.00,53.182
1449.00,53.161
1450.00,53.187
1451.00,53.202
1452.00,53.217
1453.00,53.222
1454.00,53.227
1455.00,53.278
1456.00,53.257
1457.00,53.279
1458.00,53.311
1459.00,53.302
1460.00,53.337
1461.00,53.323
1462.00,53.367
1463.00,53.373
1464.00,53.394
1465.00,53.396
1466.00,53.419
1467.00,53.412
1468.00,53.441
1469.00,53.428
1470.00,53.428
1471.00,53.457
1472.00,53.486
1473.00,53.481
1474.00,53.503
1475.00,53.507
1476.00,53.522
1477.00,53.535
1478.00,53.547
1479.00,53.567
1480.00,53.591
1481.00,53.591
1482.00,53.595
1483.00,53.621
1484.00,53.619
1485.00,53.632
1486.00,53.640
1487.00,53.657
1488.00,53.681
1489.00,53.658
1490.00,53.667
1491.00,53.698
1492.00,53.698
1493.00,53.692
1494.00,53.728
1495.00,53.717
1496.00,53.742
1497.00,53.739
1498.00,53.732
1499.00,53.767
1500.00,53.757
1501.00, 
1502.00, 
1503.00, 
1504.00, 
1505.00, 
1506.00, 
1507.00, 
1508.00, 
1509.00, 
1510.00, 
1511.00, 
1512.00, 
1513.00, 
1514.00, 
1515.00, 
1516.00, 
1517.00, 
1518.00, 
1519.00, 
1520.00, 
1521.00, 
1522.00, 
1523.00, 
1524.00, 
1525.00, 
1526.00, 
1527.00, 
1528.00, 
1529.00, 
1530.00, 
1531.00, 
1532.00, 
1533.00, 
1534.00, 
1535.00, 
1536.00, 
1537.00, 
1538.00, 
1539.00, 
1540.00, 
1541.00, 
1542.00, 
1543.00, 
1544.00, 
1545.00, 
1546.00, 
1547.00, 
1548.00, 
1549.00, 
1550.00, 
1551.00, 
1552.00, 
1553.00, 
1554.00, 
1555.00, 
1556.00, 
1557.00, 
1558.00, 
1559.00, 
1560.00, 
1561.00, 
1562.00, 
1563.00, 
1564.00, 
1565.00, 
1566.00, 
1567.00, 
1568.00, 
1569.00, 
1570.00, 
1571.00, 
1572.00, 
1573.00, 
1574.00, 
1575.00, 
1576.00, 
1577.00, 
1578.00, 
1579.00, 
1580.00, 
1581.00, 
1582.00, 
1583.00, 
1584.00, 
1585.00, 
1586.00, 
1587.00, 
1588.00, 
1589.00, 
1590.00, 
1591.00, 
1592.00, 
1593.00, 
1594.00, 
1595.00, 
1596.00, 
1597.00, 
1598.00, 
1599.00, 
1600.00, 
1601.00, 
1602.00, 
1603.00, 
1604.00, 
1605.00, 
1606.00, 
1607.00, 
1608.00, 
1609.00, 
1610.00, 
1611.00, 
1612.00, 
1613.00, 
1614.00, 
1615.00, 
1616.00, 
1617.00, 
1618.00, 
1619.00, 
1620.00, 
1621.00, 
1622.00, 
1623.00, 
1624.00, 
1625.00, 
1626.00, 
1627.00, 
1628.00, 
1629.00, 
1630.00, 
1631.00, 
1632.00, 
1633.00, 
1634.00, 
1635.00, 
1636.00, 
1637.00, 
1638.00, 
1639.00, 
1640.00, 
1641.00, 
1642.00, 
1643.00, 
1644.00, 
1645.00, 
1646.00, 
1647.00, 
1648.00, 
1649.00, 
1650.00, 
1651.00, 
1652.00, 
1653.00, 
1654.00, 
1655.00, 
1656.00, 
1657.00, 
1658.00, 
1659.00, 
1660.00, 
1661.00, 
1662.00, 
1663.00, 
1664.00, 
1665.00, 
1666.00, 
1667.00, 
1668.00, 
1669.00, 
1670.00, 
1671.00, 
1672.00, 
1673.00, 
1674.00, 
1675.00, 
1676.00, 
1677.00, 
1678.00, 
1679.00, 
1680.00, 
1681.00, 
1682.00, 
1683.00, 
1684.00, 
1685.00, 
1686.00, 
1687.00, 
1688.00, 
1689.00, 
1690.00, 
1691.00, 
1692.00, 
1693.00, 
1694.00, 
1695.00, 
1696.00, 
1697.00, 
1698.00, 
1699.00, 
1700.00, 
1701.00, 
1702.00, 
1703.00, 
1704.00, 
1705.00, 
1706.00, 
1707.00, 
1708.00, 
1709.00, 
1710.00, 
1711.00, 
1712.00, 
1713.00, 
1714.00, 
1715.00, 
1716.00, 
1717.00, 
1718.00, 
1719.00, 
1720.00, 
1721.00, 
1722.00, 
1723.00, 
1724.00, 
1725.00, 
1726.00, 
1727.00, 
1728.00, 
1729.00, 
1730.00, 
1731.00, 
1732.00, 
1733.00, 
1734.00, 
1735.00, 
1736.00, 
1737.00, 
1738.00, 
1739.00, 
1740.00, 
1741.00, 
1742.00, 
1743.00, 
1744.00, 
1745.00, 
1746.00, 
1747.00, 
1748.00, 
1749.00, 
1750.00, 
1751.00, 
1752.00, 
1753.00, 
1754.00, 
1755.00, 
1756.00, 
1757.00, 
1758.00, 
1759.00, 
1760.00, 
1761.00, 
1762.00, 
1763.00, 
1764.00, 
1765.00, 
1766.00, 
1767.00, 
1768.00, 
1769.00, 
1770.00, 
1771.00, 
1772.00, 
1773.00, 
1774.00, 
1775.00, 
1776.00, 
1777.00, 
1778.00, 
1779.00, 
1780.00, 
1781.00, 
1782.00, 
1783.00, 
1784.00, 
1785.00, 
1786.00, 
1787.00, 
1788.00, 
1789.00, 
1790.00, 
1791.00, 
1792.00, 
1793.00, 
1794.00, 
1795.00, 
1796.00, 
1797.00, 
1798.00, 
1799.00, 
1800.00, 
1801.00, 
1802.00, 
1803.00, 
1804.00, 
1805.00, 
1806.00, 
1807.00, 
1808.00, 
1809.00, 
1810.00, 
1811.00, 
1812.00, 
1813.00, 
1814.00, 
1815.00, 
1816.00, 
1817.00, 
1818.00, 
1819.00, 
1820.00, 
1821.00, 
1822.00, 
1823.00, 
1824.00, 
1825.00, 
1826.00, 
1827.00, 
1828.00, 
1829.00, 
1830.00, 
1831.00, 
1832.00, 
1833.00, 
1834.00, 
1835.00, 
1836.00, 
1837.00, 
1838.00, 
1839.00, 
1840.00, 
1841.00, 
1842.00, 
1843.00, 
1844.00, 
1845.00, 
1846.00, 
1847.00, 
1848.00, 
1849.00, 
1850.00, 
1851.00, 
1852.00, 
1853.00, 
1854.00, 
1855.00, 
1856.00, 
1857.00, 
1858.00, 
1859.00, 
1860.00, 
1861.00, 
1862.00, 
1863.00, 
1864.00, 
1865.00, 
1866.00, 
1867.00, 
1868.00, 
1869.00, 
1870.00, 
1871.00, 
1872.00, 
1873.00, 
1874.00, 
1875.00, 
1876.00, 
1877.00, 
1878.00, 
1879.00, 
1880.00, 
1881.00, 
1882.00, 
1883.00, 
1884.00, 
1885.00, 
1886.00, 
1887.00, 
1888.00, 
1889.00, 
1890.00, 
1891.00, 
1892.00, 
1893.00, 
1894.00, 
1895.00, 
1896.00, 
1897.00, 
1898.00, 
1899.00, 
1900.00, 
1901.00, 
1902.00, 
1903.00, 
1904.00, 
1905.00, 
1906.00, 
1907.00, 
1908.00, 
1909.00, 
1910.00, 
1911.00, 
1912.00, 
1913.00, 
1914.00, 
1915.00, 
1916.00, 
1917.00, 
1918.00, 
1919.00, 
1920.00, 
1921.00, 
1922.00, 
1923.00, 
1924.00, 
1925.00, 
1926.00, 
1927.00, 
1928.00, 
1929.00, 
1930.00, 
1931.00, 
1932.00, 
1933.00, 
1934.00, 
1935.00, 
1936.00, 
1937.00, 
1938.00, 
1939.00, 
1940.00, 
1941.00, 
1942.00, 
1943.00, 
1944.00, 
1945.00, 
1946.00, 
1947.00, 
1948.00, 
1949.00, 
1950.00, 
1951.00, 
1952.00, 
1953.00, 
1954.00, 
1955.00, 
1956.00, 
1957.00, 
1958.00, 
1959.00, 
1960.00, 
1961.00, 
1962.00, 
1963.00, 
1964.00, 
1965.00, 
1966.00, 
1967.00, 
1968.00, 
1969.00, 
1970.00, 
1971.00, 
1972.00, 
1973.00, 
1974.00, 
1975.00, 
1976.00, 
1977.00, 
1978.00, 
1979.00, 
1980.00, 
1981.00, 
1982.00, 
1983.00, 
1984.00, 
1985.00, 
1986.00, 
1987.00, 
1988.00, 
1989.00, 
1990.00, 
1991.00, 
1992.00, 
1993.00, 
1994.00, 
1995.00, 
1996.00, 
1997.00, 
1998.00, 
1999.00, 
2000.00, 
2001.00, 
2002.00, 
2003.00, 
2004.00, 
2005.00, 
2006.00, 
2007.00, 
2008.00, 
2009.00, 
2010.00, 
2011.00, 
2012.00, 
2013.00, 
2014.00, 
2015.00, 
2016.00, 
2017.00, 
2018.00, 
2019.00, 
2020.00, 
2021.00, 
2022.00, 
2023.00, 
2024.00, 
2025.00, 
2026.00, 
2027.00, 
2028.00, 
2029.00, 
2030.00, 
2031.00, 
2032.00, 
2033.00, 
2034.00, 
2035.00, 
2036.00, 
2037.00, 
2038.00, 
2039.00, 
2040.00, 
2041.00, 
2042.00, 
2043.00, 
2044.00, 
2045.00, 
2046.00, 
2047.00, 
2048.00, 
2049.00, 
2050.00, 
2051.00, 
2052.00, 
2053.00, 
2054.00, 
2055.00, 
2056.00, 
2057.00, 
2058.00, 
2059.00, 
2060.00, 
2061.00, 
2062.00, 
2063.00, 
2064.00, 
2065.00, 
2066.00, 
2067.00, 
2068.00, 
2069.00, 
2070.00, 
2071.00, 
2072.00, 
2073.00, 
2074.00, 
2075.00, 
2076.00, 
2077.00, 
2078.00, 
2079.00, 
2080.00, 
2081.00, 
2082.00, 
2083.00, 
2084.00, 
2085.00, 
2086.00, 
2087.00, 
2088.00, 
2089.00, 
2090.00, 
2091.00, 
2092.00, 
2093.00, 
2094.00, 
2095.00, 
2096.00, 
2097.00, 
2098.00, 
2099.00, 
2100.00, 
2101.00, 
2102.00, 
2103.00, 
2104.00, 
2105.00, 
2106.00, 
2107.00, 
2108.00, 
2109.00, 
2110.00, 
2111.00, 
2112.00, 
2113.00, 
2114.00, 
2115.00, 
2116.00, 
2117.00, 
2118.00, 
2119.00, 
2120.00, 
2121.00, 
2122.00, 
2123.00, 
2124.00, 
2125.00, 
2126.00, 
2127.00, 
2128.00, 
2129.00, 
2130.00, 
2131.00, 
2132.00, 
2133.00, 
2134.00, 
2135.00, 
2136.00, 
2137.00, 
2138.00, 
2139.00, 
2140.00, 
2141.00, 
2142.00, 
2143.00, 
2144.00, 
2145.00, 
2146.00, 
2147.00, 
2148.00, 
2149.00, 
2150.00, 
2151.00, 
2152.00, 
2153.00, 
2154.00, 
2155.00, 
2156.00, 
2157.00, 
2158.00, 
2159.00, 
2160.00, 
2161.00, 
2162.00, 
2163.00, 
2164.00, 
2165.00, 
2166.00, 
2167.00, 
2168.00, 
2169.00, 
2170.00, 
2171.00, 
2172.00, 
2173.00, 
2174.00, 
2175.00, 
2176.00, 
2177.00, 
2178.00, 
2179.00, 
2180.00, 
2181.00, 
2182.00, 
2183.00, 
2184.00, 
2185.00, 
2186.00, 
2187.00, 
2188.00, 
2189.00, 
2190.00, 
2191.00, 
2192.00, 
2193.00, 
2194.00, 
2195.00, 
2196.00, 
2197.00, 
2198.00, 
2199.00, 
2200.00, 
2201.00, 
2202.00, 
2203.00, 
2204.00, 
2205.00, 
2206.00, 
2207.00, 
2208.00, 
2209.00, 
2210.00, 
2211.00, 
2212.00, 
2213.00, 
2214.00, 
2215.00, 
2216.00, 
2217.00, 
2218.00, 
2219.00, 
2220.00, 
2221.00, 
2222.00, 
2223.00, 
2224.00, 
2225.00, 
2226.00, 
2227.00, 
2228.00, 
2229.00, 
2230.00, 
2231.00, 
2232.00, 
2233.00, 
2234.00, 
2235.00, 
2236.00, 
2237.00, 
2238.00, 
2239.00, 
2240.00, 
2241.00, 
2242.00, 
2243.00, 
2244.00, 
2245.00, 
2246.00, 
2247.00, 
2248.00, 
2249.00, 
2250.00, 
2251.00, 
2252.00, 
2253.00, 
2254.00, 
2255.00, 
2256.00, 
2257.00, 
2258.00, 
2259.00, 
2260.00, 
2261.00, 
2262.00, 
2263.00, 
2264.00, 
2265.00, 
2266.00, 
2267.00, 
2268.00, 
2269.00, 
2270.00, 
2271.00, 
2272.00, 
2273.00, 
2274.00, 
2275.00, 
2276.00, 
2277.00, 
2278.00, 
2279.00, 
2280.00, 
2281.00, 
2282.00, 
2283.00, 
2284.00, 
2285.00, 
2286.00, 
2287.00, 
2288.00, 
2289.00, 
2290.00, 
2291.00, 
2292.00, 
2293.00, 
2294.00, 
2295.00, 
2296.00, 
2297.00, 
2298.00, 
2299.00, 
2300.00, 
2301.00, 
2302.00, 
2303.00, 
2304.00, 
2305.00, 
2306.00, 
2307.00, 
2308.00, 
2309.00, 
2310.00, 
2311.00, 
2312.00, 
2313.00, 
2314.00, 
2315.00, 
2316.00, 
2317.00, 
2318.00, 
2319.00, 
2320.00, 
2321.00, 
2322.00, 
2323.00, 
2324.00, 
2325.00, 
2326.00, 
2327.00, 
2328.00, 
2329.00, 
2330.00, 
2331.00, 
2332.00, 
2333.00, 
2334.00, 
2335.00, 
2336.00, 
2337.00, 
2338.00, 
2339.00, 
2340.00, 
2341.00, 
2342.00, 
2343.00, 
2344.00, 
2345.00, 
2346.00, 
2347.00, 
2348.00, 
2349.00, 
2350.00, 
2351.00, 
2352.00, 
2353.00, 
2354.00, 
2355.00, 
2356.00, 
2357.00, 
2358.00, 
2359.00, 
2360.00, 
2361.00, 
2362.00, 
2363.00, 
2364.00, 
2365.00, 
2366.00, 
2367.00, 
2368.00, 
2369.00, 
2370.00, 
2371.00, 
2372.00, 
2373.00, 
2374.00, 
2375.00, 
2376.00, 
2377.00, 
2378.00, 
2379.00, 
2380.00, 
2381.00, 
2382.00, 
2383.00, 
2384.00, 
2385.00, 
2386.00, 
2387.00, 
2388.00, 
2389.00, 
2390.00, 
2391.00, 
2392.00, 
2393.00, 
2394.00, 
2395.00, 
2396.00, 
2397.00, 
2398.00, 
2399.00, 
2400.00, 
2401.00, 
2402.00, 
2403.00, 
2404.00, 
2405.00, 
2406.00, 
2407.00, 
2408.00, 
2409.00, 
2410.00, 
2411.00, 
2412.00, 
2413.00, 
2414.00, 
2415.00, 
2416.00, 
2417.00, 
2418.00, 
2419.00, 
2420.00, 
2421.00, 
2422.00, 
2423.00, 
2424.00, 
2425.00, 
2426.00, 
2427.00, 
2428.00, 
2429.00, 
2430.00, 
2431.00, 
2432.00, 
2433.00, 
2434.00, 
2435.00, 
2436.00, 
2437.00, 
2438.00, 
2439.00, 
2440.00, 
2441.00, 
2442.00, 
2443.00, 
2444.00, 
2445.00, 
2446.00, 
2447.00, 
2448.00, 
2449.00, 
2450.00, 
2451.00, 
2452.00, 
2453.00, 
2454.00, 
2455.00, 
2456.00, 
2457.00, 
2458.00, 
2459.00, 
2460.00, 
2461.00, 
2462.00, 
2463.00, 
2464.00, 
2465.00, 
2466.00, 
2467.00, 
2468.00, 
2469.00, 
2470.00, 
2471.00, 
2472.00, 
2473.00, 
2474.00, 
2475.00, 
2476.00, 
2477.00, 
2478.00, 
2479.00, 
2480.00, 
2481.00, 
2482.00, 
2483.00, 
2484.00, 
2485.00, 
2486.00, 
2487.00, 
2488.00, 
2489.00, 
2490.00, 
2491.00, 
2492.00, 
2493.00, 
2494.00, 
2495.00, 
2496.00, 
2497.00, 
2498.00, 
2499.00, 
2500.00, 
2501.00, 
2502.00, 
2503.00, 
2504.00, 
2505.00, 
2506.00, 
2507.00, 
2508.00, 
2509.00, 
2510.00, 
2511.00, 
2512.00, 
2513.00, 
2514.00, 
2515.00, 
2516.00, 
2517.00, 
2518.00, 
2519.00, 
2520.00, 
2521.00, 
2522.00, 
2523.00, 
2524.00, 
2525.00, 
2526.00, 
2527.00, 
2528.00, 
2529.00, 
2530.00, 
2531.00, 
2532.00, 
2533.00, 
2534.00, 
2535.00, 
2536.00, 
2537.00, 
2538.00, 
2539.00, 
2540.00, 
2541.00, 
2542.00, 
2543.00, 
2544.00, 
2545.00, 
2546.00, 
2547.00, 
2548.00, 
2549.00, 
2550.00, 
2551.00, 
2552.00, 
2553.00, 
2554.00, 
2555.00, 
2556.00, 
2557.00, 
2558.00, 
2559.00, 
2560.00, 
2561.00, 
2562.00, 
2563.00, 
2564.00, 
2565.00, 
2566.00, 
2567.00, 
2568.00, 
2569.00, 
2570.00, 
2571.00, 
2572.00, 
2573.00, 
2574.00, 
2575.00, 
2576.00, 
2577.00, 
2578.00, 
2579.00, 
2580.00, 
2581.00, 
2582.00, 
2583.00, 
2584.00, 
2585.00, 
2586.00, 
2587.00, 
2588.00, 
2589.00, 
2590.00, 
2591.00, 
2592.00, 
2593.00, 
2594.00, 
2595.00, 
2596.00, 
2597.00, 
2598.00, 
2599.00, 
2600.00, 
