"2cP4 - RawData"
"Wavelength nm.","T%"
200.00,-0.001
201.00,0.002
202.00,0.002
203.00,0.003
204.00,0.003
205.00,0.004
206.00,0.003
207.00,-0.001
208.00,0.003
209.00,0.001
210.00,0.002
211.00,0.002
212.00,0.003
213.00,0.002
214.00,0.000
215.00,0.001
216.00,0.001
217.00,-0.000
218.00,-0.000
219.00,0.002
220.00,-0.000
221.00,-0.000
222.00,0.001
223.00,0.002
224.00,0.003
225.00,0.002
226.00,0.001
227.00,0.001
228.00,0.001
229.00,0.002
230.00,0.001
231.00,-0.002
232.00,0.001
233.00,0.000
234.00,0.001
235.00,0.000
236.00,0.002
237.00,0.002
238.00,-0.000
239.00,0.000
240.00,-0.000
241.00,-0.000
242.00,0.001
243.00,0.001
244.00,-0.001
245.00,-0.000
246.00,-0.000
247.00,0.001
248.00,0.001
249.00,-0.002
250.00,-0.001
251.00,-0.001
252.00,0.001
253.00,0.001
254.00,0.001
255.00,0.001
256.00,-0.000
257.00,-0.000
258.00,-0.001
259.00,0.001
260.00,0.001
261.00,0.001
262.00,0.000
263.00,0.002
264.00,0.001
265.00,-0.001
266.00,-0.000
267.00,0.000
268.00,-0.000
269.00,0.001
270.00,0.000
271.00,0.002
272.00,-0.000
273.00,0.001
274.00,-0.001
275.00,0.000
276.00,0.000
277.00,0.002
278.00,0.001
279.00,0.000
280.00,-0.000
281.00,0.002
282.00,0.000
283.00,-0.001
284.00,0.001
285.00,0.000
286.00,0.000
287.00,0.000
288.00,0.000
289.00,-0.000
290.00,0.002
291.00,-0.001
292.00,-0.001
293.00,-0.000
294.00,0.002
295.00,-0.000
296.00,0.000
297.00,0.001
298.00,0.002
299.00,0.002
300.00,0.003
301.00,0.005
302.00,0.005
303.00,0.010
304.00,0.012
305.00,0.021
306.00,0.033
307.00,0.047
308.00,0.078
309.00,0.121
310.00,0.164
311.00,0.223
312.00,0.297
313.00,0.410
314.00,0.535
315.00,0.701
316.00,0.889
317.00,1.121
318.00,1.393
319.00,1.724
320.00,2.095
321.00,2.503
322.00,2.917
323.00,3.440
324.00,3.971
325.00,4.592
326.00,5.179
327.00,5.873
328.00,6.574
329.00,7.253
330.00,7.986
331.00,8.742
332.00,9.490
333.00,10.302
334.00,11.028
335.00,11.806
336.00,12.615
337.00,13.357
338.00,14.126
339.00,14.757
340.00,15.577
341.00,16.307
342.00,16.931
343.00,17.605
344.00,18.199
345.00,18.750
346.00,19.367
347.00,19.914
348.00,20.413
349.00,20.886
350.00,21.349
351.00,21.813
352.00,22.149
353.00,22.570
354.00,22.857
355.00,23.216
356.00,23.485
357.00,23.739
358.00,24.070
359.00,24.298
360.00,24.530
361.00,24.802
362.00,25.020
363.00,25.175
364.00,25.394
365.00,25.517
366.00,25.690
367.00,25.763
368.00,25.825
369.00,25.914
370.00,25.993
371.00,26.033
372.00,26.083
373.00,26.073
374.00,26.074
375.00,26.074
376.00,26.103
377.00,26.050
378.00,26.003
379.00,25.973
380.00,25.986
381.00,25.961
382.00,25.967
383.00,25.989
384.00,26.082
385.00,26.113
386.00,26.184
387.00,26.289
388.00,26.236
389.00,26.320
390.00,26.349
391.00,26.499
392.00,26.546
393.00,26.555
394.00,26.581
395.00,26.611
396.00,26.624
397.00,26.634
398.00,26.673
399.00,26.657
400.00,26.683
401.00,26.747
402.00,26.718
403.00,26.698
404.00,26.721
405.00,26.708
406.00,26.753
407.00,26.710
408.00,26.723
409.00,26.676
410.00,26.656
411.00,26.685
412.00,26.629
413.00,26.664
414.00,26.646
415.00,26.714
416.00,26.700
417.00,26.713
418.00,26.790
419.00,26.793
420.00,26.791
421.00,26.927
422.00,26.964
423.00,27.024
424.00,27.030
425.00,27.065
426.00,27.131
427.00,27.202
428.00,27.229
429.00,27.270
430.00,27.296
431.00,27.342
432.00,27.394
433.00,27.515
434.00,27.555
435.00,27.606
436.00,27.700
437.00,27.768
438.00,27.823
439.00,27.898
440.00,27.972
441.00,28.077
442.00,28.163
443.00,28.239
444.00,28.335
445.00,28.396
446.00,28.517
447.00,28.624
448.00,28.714
449.00,28.844
450.00,28.946
451.00,29.036
452.00,29.127
453.00,29.235
454.00,29.333
455.00,29.463
456.00,29.584
457.00,29.666
458.00,29.786
459.00,29.950
460.00,30.063
461.00,30.129
462.00,30.264
463.00,30.416
464.00,30.441
465.00,30.657
466.00,30.791
467.00,30.918
468.00,30.994
469.00,31.095
470.00,31.223
471.00,31.314
472.00,31.456
473.00,31.516
474.00,31.641
475.00,31.712
476.00,31.857
477.00,31.940
478.00,32.085
479.00,32.237
480.00,32.392
481.00,32.498
482.00,32.635
483.00,32.797
484.00,32.931
485.00,33.063
486.00,33.210
487.00,33.312
488.00,33.459
489.00,33.627
490.00,33.773
491.00,33.854
492.00,34.012
493.00,34.166
494.00,34.226
495.00,34.342
496.00,34.487
497.00,34.515
498.00,34.693
499.00,34.826
500.00,34.933
501.00,35.035
502.00,35.163
503.00,35.251
504.00,35.363
505.00,35.500
506.00,35.639
507.00,35.693
508.00,35.827
509.00,35.964
510.00,36.082
511.00,36.137
512.00,36.299
513.00,36.405
514.00,36.491
515.00,36.670
516.00,36.708
517.00,36.824
518.00,36.956
519.00,37.020
520.00,37.054
521.00,37.161
522.00,37.259
523.00,37.354
524.00,37.395
525.00,37.424
526.00,37.577
527.00,37.598
528.00,37.671
529.00,37.769
530.00,37.789
531.00,38.010
532.00,38.074
533.00,38.194
534.00,38.250
535.00,38.335
536.00,38.428
537.00,38.449
538.00,38.520
539.00,38.567
540.00,38.650
541.00,38.748
542.00,38.743
543.00,38.812
544.00,38.917
545.00,38.951
546.00,39.021
547.00,39.103
548.00,39.169
549.00,39.191
550.00,39.288
551.00,39.355
552.00,39.390
553.00,39.434
554.00,39.523
555.00,39.599
556.00,39.628
557.00,39.679
558.00,39.731
559.00,39.829
560.00,39.764
561.00,39.788
562.00,40.052
563.00,39.888
564.00,40.051
565.00,40.077
566.00,40.061
567.00,40.118
568.00,40.126
569.00,40.158
570.00,40.161
571.00,40.217
572.00,40.243
573.00,40.274
574.00,40.360
575.00,40.385
576.00,40.427
577.00,40.435
578.00,40.521
579.00,40.497
580.00,40.574
581.00,40.661
582.00,40.742
583.00,40.751
584.00,40.830
585.00,40.977
586.00,41.005
587.00,40.970
588.00,40.925
589.00,41.074
590.00,41.201
591.00,41.166
592.00,41.190
593.00,41.284
594.00,41.266
595.00,41.350
596.00,41.454
597.00,41.475
598.00,41.529
599.00,41.523
600.00,41.616
601.00,41.632
602.00,41.676
603.00,41.775
604.00,41.746
605.00,41.786
606.00,41.878
607.00,41.916
608.00,41.952
609.00,41.923
610.00,41.974
611.00,41.980
612.00,42.085
613.00,42.078
614.00,42.095
615.00,42.228
616.00,42.273
617.00,42.232
618.00,42.304
619.00,42.413
620.00,42.425
621.00,42.490
622.00,42.523
623.00,42.553
624.00,42.581
625.00,42.638
626.00,42.687
627.00,42.766
628.00,42.739
629.00,42.830
630.00,42.952
631.00,42.862
632.00,43.070
633.00,43.182
634.00,43.076
635.00,43.117
636.00,43.363
637.00,43.430
638.00,43.446
639.00,43.550
640.00,43.582
641.00,43.658
642.00,43.704
643.00,43.698
644.00,43.856
645.00,43.787
646.00,43.870
647.00,43.992
648.00,44.027
649.00,44.139
650.00,44.169
651.00,44.364
652.00,44.328
653.00,44.372
654.00,44.434
655.00,44.498
656.00,44.605
657.00,44.731
658.00,44.725
659.00,44.728
660.00,44.871
661.00,44.907
662.00,45.103
663.00,45.148
664.00,45.214
665.00,45.283
666.00,45.386
667.00,45.377
668.00,45.356
669.00,45.485
670.00,45.689
671.00,45.699
672.00,45.753
673.00,45.898
674.00,45.911
675.00,45.918
676.00,46.094
677.00,46.209
678.00,46.342
679.00,46.356
680.00,46.459
681.00,46.525
682.00,46.427
683.00,46.618
684.00,46.742
685.00,46.841
686.00,46.898
687.00,46.911
688.00,46.848
689.00,46.895
690.00,47.030
691.00,47.101
692.00,47.146
693.00,47.338
694.00,47.319
695.00,47.344
696.00,47.382
697.00,47.353
698.00,47.697
699.00,47.734
700.00,47.737
701.00,47.715
702.00,48.066
703.00,48.217
704.00,48.038
705.00,48.098
706.00,48.172
707.00,48.302
708.00,48.176
709.00,48.349
710.00,48.538
711.00,48.428
712.00,48.507
713.00,48.662
714.00,48.594
715.00,48.577
716.00,48.666
717.00,48.749
718.00,48.849
719.00,48.866
720.00,48.914
721.00,53.236
722.00,53.207
723.00,53.188
724.00,53.168
725.00,53.299
726.00,53.246
727.00,53.228
728.00,53.306
729.00,53.340
730.00,53.272
731.00,53.365
732.00,53.349
733.00,53.381
734.00,53.387
735.00,53.413
736.00,53.453
737.00,53.427
738.00,53.465
739.00,53.494
740.00,53.443
741.00,53.515
742.00,53.483
743.00,53.471
744.00,53.565
745.00,53.455
746.00,53.489
747.00,53.499
748.00,53.400
749.00,53.490
750.00,53.426
751.00,53.455
752.00,53.400
753.00,53.389
754.00,53.405
755.00,53.382
756.00,53.421
757.00,53.478
758.00,53.340
759.00,53.473
760.00,53.416
761.00,53.422
762.00,53.361
763.00,53.389
764.00,53.424
765.00,53.492
766.00,53.448
767.00,53.468
768.00,53.452
769.00,53.468
770.00,53.540
771.00,53.401
772.00,53.465
773.00,53.423
774.00,53.426
775.00,53.439
776.00,53.426
777.00,53.450
778.00,53.389
779.00,53.475
780.00,53.379
781.00,53.381
782.00,53.466
783.00,53.404
784.00,53.391
785.00,53.406
786.00,53.289
787.00,53.340
788.00,53.368
789.00,53.339
790.00,53.322
791.00,53.372
792.00,53.249
793.00,53.285
794.00,53.238
795.00,53.163
796.00,53.187
797.00,53.116
798.00,53.120
799.00,53.185
800.00,53.196
801.00,53.086
802.00,53.135
803.00,53.057
804.00,52.993
805.00,52.982
806.00,52.986
807.00,53.013
808.00,53.010
809.00,52.959
810.00,52.961
811.00,52.886
812.00,52.925
813.00,52.921
814.00,52.896
815.00,52.894
816.00,52.879
817.00,52.775
818.00,52.691
819.00,52.815
820.00,52.775
821.00,52.724
822.00,52.701
823.00,52.760
824.00,52.722
825.00,52.734
826.00,52.705
827.00,52.718
828.00,52.726
829.00,52.647
830.00,52.588
831.00,54.729
832.00,54.702
833.00,54.690
834.00,54.665
835.00,54.644
836.00,54.618
837.00,54.595
838.00,54.558
839.00,54.539
840.00,54.521
841.00,54.552
842.00,54.473
843.00,54.484
844.00,54.493
845.00,54.371
846.00,54.397
847.00,54.429
848.00,54.379
849.00,54.337
850.00,54.291
851.00,54.233
852.00,54.233
853.00,54.199
854.00,54.172
855.00,54.121
856.00,54.144
857.00,54.026
858.00,54.056
859.00,53.991
860.00,54.033
861.00,54.003
862.00,53.966
863.00,53.972
864.00,53.944
865.00,53.997
866.00,53.933
867.00,53.941
868.00,53.917
869.00,53.918
870.00,53.844
871.00,53.875
872.00,53.845
873.00,53.857
874.00,53.781
875.00,53.795
876.00,53.810
877.00,53.751
878.00,53.758
879.00,53.780
880.00,53.754
881.00,53.720
882.00,53.737
883.00,53.884
884.00,53.678
885.00,53.648
886.00,53.654
887.00,53.624
888.00,53.588
889.00,53.553
890.00,53.554
891.00,53.542
892.00,53.526
893.00,53.478
894.00,53.484
895.00,53.444
896.00,53.435
897.00,53.363
898.00,53.410
899.00,53.387
900.00,53.363
901.00,53.338
902.00,53.338
903.00,53.281
904.00,53.271
905.00,53.257
906.00,53.249
907.00,53.215
908.00,53.216
909.00,53.222
910.00,53.164
911.00,53.147
912.00,53.170
913.00,53.113
914.00,53.076
915.00,53.077
916.00,53.062
917.00,53.001
918.00,53.016
919.00,52.984
920.00,52.959
921.00,52.931
922.00,52.934
923.00,52.889
924.00,52.887
925.00,52.849
926.00,52.843
927.00,52.814
928.00,52.796
929.00,52.804
930.00,52.768
931.00,52.778
932.00,52.753
933.00,52.742
934.00,52.717
935.00,52.715
936.00,52.654
937.00,52.657
938.00,52.646
939.00,52.634
940.00,52.609
941.00,52.600
942.00,52.545
943.00,52.555
944.00,52.518
945.00,52.515
946.00,52.482
947.00,52.453
948.00,52.459
949.00,52.424
950.00,52.403
951.00,52.417
952.00,52.366
953.00,52.345
954.00,52.357
955.00,52.263
956.00,52.266
957.00,52.245
958.00,52.242
959.00,52.187
960.00,52.186
961.00,52.151
962.00,52.185
963.00,52.114
964.00,52.119
965.00,52.110
966.00,52.087
967.00,52.074
968.00,52.105
969.00,52.080
970.00,52.055
971.00,52.068
972.00,52.024
973.00,52.078
974.00,52.084
975.00,52.061
976.00,52.078
977.00,52.051
978.00,52.086
979.00,52.052
980.00,52.089
981.00,52.068
982.00,52.051
983.00,52.042
984.00,52.092
985.00,52.039
986.00,52.004
987.00,52.024
988.00,51.980
989.00,51.978
990.00,51.982
991.00,51.942
992.00,51.969
993.00,51.956
994.00,51.936
995.00,51.885
996.00,51.864
997.00,51.895
998.00,51.910
999.00,51.875
1000.00,51.824
1001.00,51.858
1002.00,51.820
1003.00,51.837
1004.00,51.815
1005.00,51.784
1006.00,51.815
1007.00,51.771
1008.00,51.761
1009.00,51.733
1010.00,51.728
1011.00,51.712
1012.00,51.688
1013.00,51.667
1014.00,51.657
1015.00,51.684
1016.00,51.629
1017.00,51.645
1018.00,51.614
1019.00,51.592
1020.00,51.566
1021.00,51.549
1022.00,51.545
1023.00,51.514
1024.00,51.512
1025.00,51.491
1026.00,51.510
1027.00,51.441
1028.00,51.471
1029.00,51.448
1030.00,51.405
1031.00,51.411
1032.00,51.381
1033.00,51.402
1034.00,51.368
1035.00,51.324
1036.00,51.305
1037.00,51.293
1038.00,51.270
1039.00,51.248
1040.00,51.243
1041.00,51.196
1042.00,51.209
1043.00,51.174
1044.00,51.198
1045.00,51.182
1046.00,51.170
1047.00,51.199
1048.00,51.214
1049.00,51.203
1050.00,51.222
1051.00,51.241
1052.00,51.239
1053.00,51.240
1054.00,51.232
1055.00,51.252
1056.00,51.268
1057.00,51.248
1058.00,51.234
1059.00,51.249
1060.00,51.233
1061.00,51.240
1062.00,51.228
1063.00,51.229
1064.00,51.215
1065.00,51.199
1066.00,51.187
1067.00,51.209
1068.00,51.219
1069.00,51.198
1070.00,51.171
1071.00,51.131
1072.00,51.163
1073.00,51.144
1074.00,51.147
1075.00,51.150
1076.00,51.101
1077.00,51.091
1078.00,51.093
1079.00,51.079
1080.00,51.096
1081.00,51.069
1082.00,51.039
1083.00,51.036
1084.00,51.046
1085.00,51.033
1086.00,51.023
1087.00,51.011
1088.00,51.001
1089.00,51.007
1090.00,50.999
1091.00,50.980
1092.00,50.975
1093.00,50.934
1094.00,50.941
1095.00,50.933
1096.00,50.916
1097.00,50.904
1098.00,50.891
1099.00,50.899
1100.00,50.896
1101.00,50.872
1102.00,50.886
1103.00,50.880
1104.00,50.870
1105.00,50.866
1106.00,50.838
1107.00,50.820
1108.00,50.824
1109.00,50.799
1110.00,50.801
1111.00,50.800
1112.00,50.781
1113.00,50.781
1114.00,50.771
1115.00,50.757
1116.00,50.763
1117.00,50.733
1118.00,50.725
1119.00,50.726
1120.00,50.711
1121.00,50.709
1122.00,50.718
1123.00,50.701
1124.00,50.700
1125.00,50.685
1126.00,50.670
1127.00,50.679
1128.00,50.654
1129.00,50.635
1130.00,50.626
1131.00,50.619
1132.00,50.610
1133.00,50.629
1134.00,50.615
1135.00,50.604
1136.00,50.632
1137.00,50.580
1138.00,50.599
1139.00,50.596
1140.00,50.593
1141.00,50.587
1142.00,50.570
1143.00,50.588
1144.00,50.569
1145.00,50.567
1146.00,50.583
1147.00,50.549
1148.00,50.544
1149.00,50.546
1150.00,50.551
1151.00,50.556
1152.00,50.530
1153.00,50.513
1154.00,50.505
1155.00,50.520
1156.00,50.497
1157.00,50.521
1158.00,50.511
1159.00,50.488
1160.00,50.486
1161.00,50.500
1162.00,50.485
1163.00,50.494
1164.00,50.490
1165.00,50.489
1166.00,50.496
1167.00,50.478
1168.00,50.498
1169.00,50.493
1170.00,50.483
1171.00,50.469
1172.00,50.461
1173.00,50.459
1174.00,50.476
1175.00,50.458
1176.00,50.464
1177.00,50.457
1178.00,50.446
1179.00,50.466
1180.00,50.462
1181.00,50.460
1182.00,50.454
1183.00,50.439
1184.00,50.444
1185.00,50.468
1186.00,50.428
1187.00,50.449
1188.00,50.454
1189.00,50.427
1190.00,50.431
1191.00,50.420
1192.00,50.419
1193.00,50.418
1194.00,50.438
1195.00,50.410
1196.00,50.449
1197.00,50.448
1198.00,50.427
1199.00,50.432
1200.00,50.419
1201.00,50.419
1202.00,50.409
1203.00,50.385
1204.00,50.410
1205.00,50.423
1206.00,50.410
1207.00,50.411
1208.00,50.369
1209.00,50.400
1210.00,50.400
1211.00,50.393
1212.00,50.428
1213.00,50.387
1214.00,50.401
1215.00,50.393
1216.00,50.412
1217.00,50.407
1218.00,50.399
1219.00,50.399
1220.00,50.392
1221.00,50.404
1222.00,50.375
1223.00,50.413
1224.00,50.404
1225.00,50.381
1226.00,50.400
1227.00,50.396
1228.00,50.406
1229.00,50.406
1230.00,50.436
1231.00,50.426
1232.00,50.446
1233.00,50.421
1234.00,50.441
1235.00,50.439
1236.00,50.429
1237.00,50.450
1238.00,50.454
1239.00,50.439
1240.00,50.443
1241.00,50.448
1242.00,50.460
1243.00,50.484
1244.00,50.436
1245.00,50.473
1246.00,50.485
1247.00,50.463
1248.00,50.466
1249.00,50.466
1250.00,50.475
1251.00,50.476
1252.00,50.474
1253.00,50.463
1254.00,50.505
1255.00,50.482
1256.00,50.451
1257.00,50.446
1258.00,50.501
1259.00,50.500
1260.00,50.509
1261.00,50.500
1262.00,50.507
1263.00,50.488
1264.00,50.496
1265.00,50.511
1266.00,50.482
1267.00,50.501
1268.00,50.503
1269.00,50.495
1270.00,50.558
1271.00,50.534
1272.00,50.564
1273.00,50.588
1274.00,50.548
1275.00,50.552
1276.00,50.560
1277.00,50.546
1278.00,50.563
1279.00,50.571
1280.00,50.554
1281.00,50.576
1282.00,50.590
1283.00,50.584
1284.00,50.585
1285.00,50.552
1286.00,50.581
1287.00,50.579
1288.00,50.564
1289.00,50.581
1290.00,50.607
1291.00,50.597
1292.00,50.617
1293.00,50.619
1294.00,50.626
1295.00,50.638
1296.00,50.631
1297.00,50.642
1298.00,50.660
1299.00,50.614
1300.00,50.639
1301.00,50.642
1302.00,50.645
1303.00,50.667
1304.00,50.655
1305.00,50.690
1306.00,50.683
1307.00,50.680
1308.00,50.692
1309.00,50.699
1310.00,50.691
1311.00,50.675
1312.00,50.693
1313.00,50.693
1314.00,50.736
1315.00,50.738
1316.00,50.735
1317.00,50.758
1318.00,50.734
1319.00,50.746
1320.00,50.762
1321.00,50.915
1322.00,50.907
1323.00,50.906
1324.00,50.876
1325.00,50.882
1326.00,50.907
1327.00,50.867
1328.00,50.890
1329.00,50.890
1330.00,50.877
1331.00,50.889
1332.00,50.875
1333.00,50.901
1334.00,50.919
1335.00,50.926
1336.00,50.956
1337.00,51.000
1338.00,51.033
1339.00,51.068
1340.00,51.141
1341.00,51.188
1342.00,51.271
1343.00,51.312
1344.00,51.361
1345.00,51.449
1346.00,51.448
1347.00,51.485
1348.00,51.549
1349.00,51.511
1350.00,51.523
1351.00,51.559
1352.00,51.543
1353.00,51.587
1354.00,51.565
1355.00,51.545
1356.00,51.633
1357.00,51.590
1358.00,51.605
1359.00,51.612
1360.00,51.488
1361.00,51.568
1362.00,51.563
1363.00,51.703
1364.00,51.749
1365.00,51.649
1366.00,51.676
1367.00,51.613
1368.00,51.547
1369.00,51.639
1370.00,51.578
1371.00,51.531
1372.00,51.568
1373.00,51.583
1374.00,51.564
1375.00,51.573
1376.00,51.556
1377.00,51.547
1378.00,51.618
1379.00,51.594
1380.00,51.579
1381.00,51.581
1382.00,51.571
1383.00,51.579
1384.00,51.533
1385.00,51.462
1386.00,51.570
1387.00,51.516
1388.00,51.557
1389.00,51.443
1390.00,51.592
1391.00,51.527
1392.00,51.605
1393.00,51.604
1394.00,51.611
1395.00,51.565
1396.00,51.509
1397.00,51.520
1398.00,51.675
1399.00,51.588
1400.00,51.506
1401.00,51.476
1402.00,52.003
1403.00,51.573
1404.00,51.534
1405.00,51.590
1406.00,51.590
1407.00,51.637
1408.00,51.659
1409.00,51.769
1410.00,51.645
1411.00,51.678
1412.00,51.653
1413.00,51.630
1414.00,51.644
1415.00,51.647
1416.00,51.647
1417.00,51.686
1418.00,51.680
1419.00,51.690
1420.00,51.719
1421.00,51.730
1422.00,51.790
1423.00,51.748
1424.00,51.769
1425.00,51.799
1426.00,51.768
1427.00,51.814
1428.00,51.807
1429.00,51.794
1430.00,51.842
1431.00,51.842
1432.00,51.868
1433.00,51.901
1434.00,51.865
1435.00,51.919
1436.00,51.931
1437.00,51.914
1438.00,51.940
1439.00,51.979
1440.00,51.982
1441.00,51.988
1442.00,51.982
1443.00,52.027
1444.00,52.087
1445.00,52.031
1446.00,52.051
1447.00,52.092
1448.00,52.106
1449.00,52.111
1450.00,52.122
1451.00,52.128
1452.00,52.151
1453.00,52.148
1454.00,52.186
1455.00,52.230
1456.00,52.211
1457.00,52.222
1458.00,52.230
1459.00,52.225
1460.00,52.248
1461.00,52.255
1462.00,52.267
1463.00,52.305
1464.00,52.325
1465.00,52.338
1466.00,52.355
1467.00,52.348
1468.00,52.396
1469.00,52.399
1470.00,52.400
1471.00,52.455
1472.00,52.433
1473.00,52.428
1474.00,52.469
1475.00,52.464
1476.00,52.489
1477.00,52.501
1478.00,52.491
1479.00,52.528
1480.00,52.524
1481.00,52.517
1482.00,52.546
1483.00,52.577
1484.00,52.592
1485.00,52.598
1486.00,52.594
1487.00,52.631
1488.00,52.655
1489.00,52.635
1490.00,52.664
1491.00,52.672
1492.00,52.659
1493.00,52.670
1494.00,52.696
1495.00,52.695
1496.00,52.709
1497.00,52.708
1498.00,52.717
1499.00,52.747
1500.00,52.745
1501.00, 
1502.00, 
1503.00, 
1504.00, 
1505.00, 
1506.00, 
1507.00, 
1508.00, 
1509.00, 
1510.00, 
1511.00, 
1512.00, 
1513.00, 
1514.00, 
1515.00, 
1516.00, 
1517.00, 
1518.00, 
1519.00, 
1520.00, 
1521.00, 
1522.00, 
1523.00, 
1524.00, 
1525.00, 
1526.00, 
1527.00, 
1528.00, 
1529.00, 
1530.00, 
1531.00, 
1532.00, 
1533.00, 
1534.00, 
1535.00, 
1536.00, 
1537.00, 
1538.00, 
1539.00, 
1540.00, 
1541.00, 
1542.00, 
1543.00, 
1544.00, 
1545.00, 
1546.00, 
1547.00, 
1548.00, 
1549.00, 
1550.00, 
1551.00, 
1552.00, 
1553.00, 
1554.00, 
1555.00, 
1556.00, 
1557.00, 
1558.00, 
1559.00, 
1560.00, 
1561.00, 
1562.00, 
1563.00, 
1564.00, 
1565.00, 
1566.00, 
1567.00, 
1568.00, 
1569.00, 
1570.00, 
1571.00, 
1572.00, 
1573.00, 
1574.00, 
1575.00, 
1576.00, 
1577.00, 
1578.00, 
1579.00, 
1580.00, 
1581.00, 
1582.00, 
1583.00, 
1584.00, 
1585.00, 
1586.00, 
1587.00, 
1588.00, 
1589.00, 
1590.00, 
1591.00, 
1592.00, 
1593.00, 
1594.00, 
1595.00, 
1596.00, 
1597.00, 
1598.00, 
1599.00, 
1600.00, 
1601.00, 
1602.00, 
1603.00, 
1604.00, 
1605.00, 
1606.00, 
1607.00, 
1608.00, 
1609.00, 
1610.00, 
1611.00, 
1612.00, 
1613.00, 
1614.00, 
1615.00, 
1616.00, 
1617.00, 
1618.00, 
1619.00, 
1620.00, 
1621.00, 
1622.00, 
1623.00, 
1624.00, 
1625.00, 
1626.00, 
1627.00, 
1628.00, 
1629.00, 
1630.00, 
1631.00, 
1632.00, 
1633.00, 
1634.00, 
1635.00, 
1636.00, 
1637.00, 
1638.00, 
1639.00, 
1640.00, 
1641.00, 
1642.00, 
1643.00, 
1644.00, 
1645.00, 
1646.00, 
1647.00, 
1648.00, 
1649.00, 
1650.00, 
1651.00, 
1652.00, 
1653.00, 
1654.00, 
1655.00, 
1656.00, 
1657.00, 
1658.00, 
1659.00, 
1660.00, 
1661.00, 
1662.00, 
1663.00, 
1664.00, 
1665.00, 
1666.00, 
1667.00, 
1668.00, 
1669.00, 
1670.00, 
1671.00, 
1672.00, 
1673.00, 
1674.00, 
1675.00, 
1676.00, 
1677.00, 
1678.00, 
1679.00, 
1680.00, 
1681.00, 
1682.00, 
1683.00, 
1684.00, 
1685.00, 
1686.00, 
1687.00, 
1688.00, 
1689.00, 
1690.00, 
1691.00, 
1692.00, 
1693.00, 
1694.00, 
1695.00, 
1696.00, 
1697.00, 
1698.00, 
1699.00, 
1700.00, 
1701.00, 
1702.00, 
1703.00, 
1704.00, 
1705.00, 
1706.00, 
1707.00, 
1708.00, 
1709.00, 
1710.00, 
1711.00, 
1712.00, 
1713.00, 
1714.00, 
1715.00, 
1716.00, 
1717.00, 
1718.00, 
1719.00, 
1720.00, 
1721.00, 
1722.00, 
1723.00, 
1724.00, 
1725.00, 
1726.00, 
1727.00, 
1728.00, 
1729.00, 
1730.00, 
1731.00, 
1732.00, 
1733.00, 
1734.00, 
1735.00, 
1736.00, 
1737.00, 
1738.00, 
1739.00, 
1740.00, 
1741.00, 
1742.00, 
1743.00, 
1744.00, 
1745.00, 
1746.00, 
1747.00, 
1748.00, 
1749.00, 
1750.00, 
1751.00, 
1752.00, 
1753.00, 
1754.00, 
1755.00, 
1756.00, 
1757.00, 
1758.00, 
1759.00, 
1760.00, 
1761.00, 
1762.00, 
1763.00, 
1764.00, 
1765.00, 
1766.00, 
1767.00, 
1768.00, 
1769.00, 
1770.00, 
1771.00, 
1772.00, 
1773.00, 
1774.00, 
1775.00, 
1776.00, 
1777.00, 
1778.00, 
1779.00, 
1780.00, 
1781.00, 
1782.00, 
1783.00, 
1784.00, 
1785.00, 
1786.00, 
1787.00, 
1788.00, 
1789.00, 
1790.00, 
1791.00, 
1792.00, 
1793.00, 
1794.00, 
1795.00, 
1796.00, 
1797.00, 
1798.00, 
1799.00, 
1800.00, 
1801.00, 
1802.00, 
1803.00, 
1804.00, 
1805.00, 
1806.00, 
1807.00, 
1808.00, 
1809.00, 
1810.00, 
1811.00, 
1812.00, 
1813.00, 
1814.00, 
1815.00, 
1816.00, 
1817.00, 
1818.00, 
1819.00, 
1820.00, 
1821.00, 
1822.00, 
1823.00, 
1824.00, 
1825.00, 
1826.00, 
1827.00, 
1828.00, 
1829.00, 
1830.00, 
1831.00, 
1832.00, 
1833.00, 
1834.00, 
1835.00, 
1836.00, 
1837.00, 
1838.00, 
1839.00, 
1840.00, 
1841.00, 
1842.00, 
1843.00, 
1844.00, 
1845.00, 
1846.00, 
1847.00, 
1848.00, 
1849.00, 
1850.00, 
1851.00, 
1852.00, 
1853.00, 
1854.00, 
1855.00, 
1856.00, 
1857.00, 
1858.00, 
1859.00, 
1860.00, 
1861.00, 
1862.00, 
1863.00, 
1864.00, 
1865.00, 
1866.00, 
1867.00, 
1868.00, 
1869.00, 
1870.00, 
1871.00, 
1872.00, 
1873.00, 
1874.00, 
1875.00, 
1876.00, 
1877.00, 
1878.00, 
1879.00, 
1880.00, 
1881.00, 
1882.00, 
1883.00, 
1884.00, 
1885.00, 
1886.00, 
1887.00, 
1888.00, 
1889.00, 
1890.00, 
1891.00, 
1892.00, 
1893.00, 
1894.00, 
1895.00, 
1896.00, 
1897.00, 
1898.00, 
1899.00, 
1900.00, 
1901.00, 
1902.00, 
1903.00, 
1904.00, 
1905.00, 
1906.00, 
1907.00, 
1908.00, 
1909.00, 
1910.00, 
1911.00, 
1912.00, 
1913.00, 
1914.00, 
1915.00, 
1916.00, 
1917.00, 
1918.00, 
1919.00, 
1920.00, 
1921.00, 
1922.00, 
1923.00, 
1924.00, 
1925.00, 
1926.00, 
1927.00, 
1928.00, 
1929.00, 
1930.00, 
1931.00, 
1932.00, 
1933.00, 
1934.00, 
1935.00, 
1936.00, 
1937.00, 
1938.00, 
1939.00, 
1940.00, 
1941.00, 
1942.00, 
1943.00, 
1944.00, 
1945.00, 
1946.00, 
1947.00, 
1948.00, 
1949.00, 
1950.00, 
1951.00, 
1952.00, 
1953.00, 
1954.00, 
1955.00, 
1956.00, 
1957.00, 
1958.00, 
1959.00, 
1960.00, 
1961.00, 
1962.00, 
1963.00, 
1964.00, 
1965.00, 
1966.00, 
1967.00, 
1968.00, 
1969.00, 
1970.00, 
1971.00, 
1972.00, 
1973.00, 
1974.00, 
1975.00, 
1976.00, 
1977.00, 
1978.00, 
1979.00, 
1980.00, 
1981.00, 
1982.00, 
1983.00, 
1984.00, 
1985.00, 
1986.00, 
1987.00, 
1988.00, 
1989.00, 
1990.00, 
1991.00, 
1992.00, 
1993.00, 
1994.00, 
1995.00, 
1996.00, 
1997.00, 
1998.00, 
1999.00, 
2000.00, 
2001.00, 
2002.00, 
2003.00, 
2004.00, 
2005.00, 
2006.00, 
2007.00, 
2008.00, 
2009.00, 
2010.00, 
2011.00, 
2012.00, 
2013.00, 
2014.00, 
2015.00, 
2016.00, 
2017.00, 
2018.00, 
2019.00, 
2020.00, 
2021.00, 
2022.00, 
2023.00, 
2024.00, 
2025.00, 
2026.00, 
2027.00, 
2028.00, 
2029.00, 
2030.00, 
2031.00, 
2032.00, 
2033.00, 
2034.00, 
2035.00, 
2036.00, 
2037.00, 
2038.00, 
2039.00, 
2040.00, 
2041.00, 
2042.00, 
2043.00, 
2044.00, 
2045.00, 
2046.00, 
2047.00, 
2048.00, 
2049.00, 
2050.00, 
2051.00, 
2052.00, 
2053.00, 
2054.00, 
2055.00, 
2056.00, 
2057.00, 
2058.00, 
2059.00, 
2060.00, 
2061.00, 
2062.00, 
2063.00, 
2064.00, 
2065.00, 
2066.00, 
2067.00, 
2068.00, 
2069.00, 
2070.00, 
2071.00, 
2072.00, 
2073.00, 
2074.00, 
2075.00, 
2076.00, 
2077.00, 
2078.00, 
2079.00, 
2080.00, 
2081.00, 
2082.00, 
2083.00, 
2084.00, 
2085.00, 
2086.00, 
2087.00, 
2088.00, 
2089.00, 
2090.00, 
2091.00, 
2092.00, 
2093.00, 
2094.00, 
2095.00, 
2096.00, 
2097.00, 
2098.00, 
2099.00, 
2100.00, 
2101.00, 
2102.00, 
2103.00, 
2104.00, 
2105.00, 
2106.00, 
2107.00, 
2108.00, 
2109.00, 
2110.00, 
2111.00, 
2112.00, 
2113.00, 
2114.00, 
2115.00, 
2116.00, 
2117.00, 
2118.00, 
2119.00, 
2120.00, 
2121.00, 
2122.00, 
2123.00, 
2124.00, 
2125.00, 
2126.00, 
2127.00, 
2128.00, 
2129.00, 
2130.00, 
2131.00, 
2132.00, 
2133.00, 
2134.00, 
2135.00, 
2136.00, 
2137.00, 
2138.00, 
2139.00, 
2140.00, 
2141.00, 
2142.00, 
2143.00, 
2144.00, 
2145.00, 
2146.00, 
2147.00, 
2148.00, 
2149.00, 
2150.00, 
2151.00, 
2152.00, 
2153.00, 
2154.00, 
2155.00, 
2156.00, 
2157.00, 
2158.00, 
2159.00, 
2160.00, 
2161.00, 
2162.00, 
2163.00, 
2164.00, 
2165.00, 
2166.00, 
2167.00, 
2168.00, 
2169.00, 
2170.00, 
2171.00, 
2172.00, 
2173.00, 
2174.00, 
2175.00, 
2176.00, 
2177.00, 
2178.00, 
2179.00, 
2180.00, 
2181.00, 
2182.00, 
2183.00, 
2184.00, 
2185.00, 
2186.00, 
2187.00, 
2188.00, 
2189.00, 
2190.00, 
2191.00, 
2192.00, 
2193.00, 
2194.00, 
2195.00, 
2196.00, 
2197.00, 
2198.00, 
2199.00, 
2200.00, 
2201.00, 
2202.00, 
2203.00, 
2204.00, 
2205.00, 
2206.00, 
2207.00, 
2208.00, 
2209.00, 
2210.00, 
2211.00, 
2212.00, 
2213.00, 
2214.00, 
2215.00, 
2216.00, 
2217.00, 
2218.00, 
2219.00, 
2220.00, 
2221.00, 
2222.00, 
2223.00, 
2224.00, 
2225.00, 
2226.00, 
2227.00, 
2228.00, 
2229.00, 
2230.00, 
2231.00, 
2232.00, 
2233.00, 
2234.00, 
2235.00, 
2236.00, 
2237.00, 
2238.00, 
2239.00, 
2240.00, 
2241.00, 
2242.00, 
2243.00, 
2244.00, 
2245.00, 
2246.00, 
2247.00, 
2248.00, 
2249.00, 
2250.00, 
2251.00, 
2252.00, 
2253.00, 
2254.00, 
2255.00, 
2256.00, 
2257.00, 
2258.00, 
2259.00, 
2260.00, 
2261.00, 
2262.00, 
2263.00, 
2264.00, 
2265.00, 
2266.00, 
2267.00, 
2268.00, 
2269.00, 
2270.00, 
2271.00, 
2272.00, 
2273.00, 
2274.00, 
2275.00, 
2276.00, 
2277.00, 
2278.00, 
2279.00, 
2280.00, 
2281.00, 
2282.00, 
2283.00, 
2284.00, 
2285.00, 
2286.00, 
2287.00, 
2288.00, 
2289.00, 
2290.00, 
2291.00, 
2292.00, 
2293.00, 
2294.00, 
2295.00, 
2296.00, 
2297.00, 
2298.00, 
2299.00, 
2300.00, 
2301.00, 
2302.00, 
2303.00, 
2304.00, 
2305.00, 
2306.00, 
2307.00, 
2308.00, 
2309.00, 
2310.00, 
2311.00, 
2312.00, 
2313.00, 
2314.00, 
2315.00, 
2316.00, 
2317.00, 
2318.00, 
2319.00, 
2320.00, 
2321.00, 
2322.00, 
2323.00, 
2324.00, 
2325.00, 
2326.00, 
2327.00, 
2328.00, 
2329.00, 
2330.00, 
2331.00, 
2332.00, 
2333.00, 
2334.00, 
2335.00, 
2336.00, 
2337.00, 
2338.00, 
2339.00, 
2340.00, 
2341.00, 
2342.00, 
2343.00, 
2344.00, 
2345.00, 
2346.00, 
2347.00, 
2348.00, 
2349.00, 
2350.00, 
2351.00, 
2352.00, 
2353.00, 
2354.00, 
2355.00, 
2356.00, 
2357.00, 
2358.00, 
2359.00, 
2360.00, 
2361.00, 
2362.00, 
2363.00, 
2364.00, 
2365.00, 
2366.00, 
2367.00, 
2368.00, 
2369.00, 
2370.00, 
2371.00, 
2372.00, 
2373.00, 
2374.00, 
2375.00, 
2376.00, 
2377.00, 
2378.00, 
2379.00, 
2380.00, 
2381.00, 
2382.00, 
2383.00, 
2384.00, 
2385.00, 
2386.00, 
2387.00, 
2388.00, 
2389.00, 
2390.00, 
2391.00, 
2392.00, 
2393.00, 
2394.00, 
2395.00, 
2396.00, 
2397.00, 
2398.00, 
2399.00, 
2400.00, 
2401.00, 
2402.00, 
2403.00, 
2404.00, 
2405.00, 
2406.00, 
2407.00, 
2408.00, 
2409.00, 
2410.00, 
2411.00, 
2412.00, 
2413.00, 
2414.00, 
2415.00, 
2416.00, 
2417.00, 
2418.00, 
2419.00, 
2420.00, 
2421.00, 
2422.00, 
2423.00, 
2424.00, 
2425.00, 
2426.00, 
2427.00, 
2428.00, 
2429.00, 
2430.00, 
2431.00, 
2432.00, 
2433.00, 
2434.00, 
2435.00, 
2436.00, 
2437.00, 
2438.00, 
2439.00, 
2440.00, 
2441.00, 
2442.00, 
2443.00, 
2444.00, 
2445.00, 
2446.00, 
2447.00, 
2448.00, 
2449.00, 
2450.00, 
2451.00, 
2452.00, 
2453.00, 
2454.00, 
2455.00, 
2456.00, 
2457.00, 
2458.00, 
2459.00, 
2460.00, 
2461.00, 
2462.00, 
2463.00, 
2464.00, 
2465.00, 
2466.00, 
2467.00, 
2468.00, 
2469.00, 
2470.00, 
2471.00, 
2472.00, 
2473.00, 
2474.00, 
2475.00, 
2476.00, 
2477.00, 
2478.00, 
2479.00, 
2480.00, 
2481.00, 
2482.00, 
2483.00, 
2484.00, 
2485.00, 
2486.00, 
2487.00, 
2488.00, 
2489.00, 
2490.00, 
2491.00, 
2492.00, 
2493.00, 
2494.00, 
2495.00, 
2496.00, 
2497.00, 
2498.00, 
2499.00, 
2500.00, 
2501.00, 
2502.00, 
2503.00, 
2504.00, 
2505.00, 
2506.00, 
2507.00, 
2508.00, 
2509.00, 
2510.00, 
2511.00, 
2512.00, 
2513.00, 
2514.00, 
2515.00, 
2516.00, 
2517.00, 
2518.00, 
2519.00, 
2520.00, 
2521.00, 
2522.00, 
2523.00, 
2524.00, 
2525.00, 
2526.00, 
2527.00, 
2528.00, 
2529.00, 
2530.00, 
2531.00, 
2532.00, 
2533.00, 
2534.00, 
2535.00, 
2536.00, 
2537.00, 
2538.00, 
2539.00, 
2540.00, 
2541.00, 
2542.00, 
2543.00, 
2544.00, 
2545.00, 
2546.00, 
2547.00, 
2548.00, 
2549.00, 
2550.00, 
2551.00, 
2552.00, 
2553.00, 
2554.00, 
2555.00, 
2556.00, 
2557.00, 
2558.00, 
2559.00, 
2560.00, 
2561.00, 
2562.00, 
2563.00, 
2564.00, 
2565.00, 
2566.00, 
2567.00, 
2568.00, 
2569.00, 
2570.00, 
2571.00, 
2572.00, 
2573.00, 
2574.00, 
2575.00, 
2576.00, 
2577.00, 
2578.00, 
2579.00, 
2580.00, 
2581.00, 
2582.00, 
2583.00, 
2584.00, 
2585.00, 
2586.00, 
2587.00, 
2588.00, 
2589.00, 
2590.00, 
2591.00, 
2592.00, 
2593.00, 
2594.00, 
2595.00, 
2596.00, 
2597.00, 
2598.00, 
2599.00, 
2600.00, 
