"1bP2 - RawData"
"Wavelength nm.","T%"
200.00,0.003
201.00,0.003
202.00,0.001
203.00,-0.000
204.00,0.005
205.00,0.001
206.00,0.003
207.00,-0.001
208.00,-0.000
209.00,0.002
210.00,0.003
211.00,-0.000
212.00,0.001
213.00,0.002
214.00,0.002
215.00,0.003
216.00,-0.001
217.00,0.002
218.00,0.001
219.00,0.005
220.00,-0.001
221.00,0.001
222.00,0.004
223.00,0.003
224.00,-0.001
225.00,0.001
226.00,0.002
227.00,0.002
228.00,0.002
229.00,0.001
230.00,-0.001
231.00,0.001
232.00,0.001
233.00,0.003
234.00,-0.000
235.00,-0.000
236.00,0.001
237.00,-0.000
238.00,-0.002
239.00,-0.000
240.00,0.001
241.00,0.001
242.00,-0.001
243.00,0.001
244.00,0.000
245.00,0.001
246.00,0.002
247.00,0.001
248.00,0.002
249.00,0.001
250.00,0.003
251.00,-0.000
252.00,0.001
253.00,0.001
254.00,0.004
255.00,-0.002
256.00,-0.001
257.00,0.002
258.00,-0.001
259.00,0.001
260.00,0.002
261.00,0.000
262.00,0.002
263.00,0.000
264.00,-0.001
265.00,-0.001
266.00,0.001
267.00,0.000
268.00,0.000
269.00,-0.001
270.00,0.000
271.00,0.000
272.00,0.000
273.00,-0.000
274.00,-0.001
275.00,0.001
276.00,-0.000
277.00,-0.001
278.00,0.001
279.00,0.000
280.00,0.001
281.00,0.000
282.00,0.000
283.00,0.001
284.00,-0.000
285.00,0.001
286.00,-0.000
287.00,0.001
288.00,-0.001
289.00,0.001
290.00,-0.000
291.00,-0.001
292.00,0.002
293.00,-0.001
294.00,0.000
295.00,0.002
296.00,0.000
297.00,0.001
298.00,0.002
299.00,0.003
300.00,0.004
301.00,0.006
302.00,0.010
303.00,0.016
304.00,0.022
305.00,0.036
306.00,0.056
307.00,0.081
308.00,0.128
309.00,0.196
310.00,0.268
311.00,0.361
312.00,0.488
313.00,0.657
314.00,0.868
315.00,1.114
316.00,1.402
317.00,1.768
318.00,2.145
319.00,2.616
320.00,3.149
321.00,3.750
322.00,4.390
323.00,5.105
324.00,5.887
325.00,6.653
326.00,7.450
327.00,8.328
328.00,9.229
329.00,10.173
330.00,11.074
331.00,12.006
332.00,12.909
333.00,13.943
334.00,14.882
335.00,15.867
336.00,16.812
337.00,17.798
338.00,18.660
339.00,19.472
340.00,20.370
341.00,21.166
342.00,21.916
343.00,22.717
344.00,23.404
345.00,24.127
346.00,24.731
347.00,25.332
348.00,25.936
349.00,26.436
350.00,26.930
351.00,27.369
352.00,27.742
353.00,28.225
354.00,28.591
355.00,28.926
356.00,29.233
357.00,29.566
358.00,29.870
359.00,30.134
360.00,30.396
361.00,30.555
362.00,30.783
363.00,31.035
364.00,31.140
365.00,31.305
366.00,31.461
367.00,31.496
368.00,31.582
369.00,31.676
370.00,31.702
371.00,31.760
372.00,31.720
373.00,31.741
374.00,31.746
375.00,31.712
376.00,31.681
377.00,31.650
378.00,31.552
379.00,31.482
380.00,31.483
381.00,31.472
382.00,31.483
383.00,31.492
384.00,31.512
385.00,31.611
386.00,31.641
387.00,31.712
388.00,31.810
389.00,31.859
390.00,31.893
391.00,31.907
392.00,31.963
393.00,31.977
394.00,31.993
395.00,32.056
396.00,32.044
397.00,32.066
398.00,32.104
399.00,32.105
400.00,32.084
401.00,32.141
402.00,32.085
403.00,32.064
404.00,32.116
405.00,32.095
406.00,32.135
407.00,32.040
408.00,32.057
409.00,31.982
410.00,31.910
411.00,31.943
412.00,31.867
413.00,31.871
414.00,31.846
415.00,31.855
416.00,31.893
417.00,31.887
418.00,31.884
419.00,31.964
420.00,31.996
421.00,32.052
422.00,32.060
423.00,32.100
424.00,32.117
425.00,32.218
426.00,32.264
427.00,32.239
428.00,32.313
429.00,32.296
430.00,32.267
431.00,32.430
432.00,32.442
433.00,32.490
434.00,32.529
435.00,32.597
436.00,32.640
437.00,32.747
438.00,32.814
439.00,32.842
440.00,32.938
441.00,32.961
442.00,33.049
443.00,33.065
444.00,33.192
445.00,33.252
446.00,33.360
447.00,33.455
448.00,33.508
449.00,33.619
450.00,33.716
451.00,33.792
452.00,33.877
453.00,33.965
454.00,34.075
455.00,34.154
456.00,34.251
457.00,34.384
458.00,34.457
459.00,34.550
460.00,34.669
461.00,34.784
462.00,34.931
463.00,35.033
464.00,35.153
465.00,35.246
466.00,35.421
467.00,35.493
468.00,35.585
469.00,35.678
470.00,35.707
471.00,35.805
472.00,35.893
473.00,35.942
474.00,36.056
475.00,36.122
476.00,36.187
477.00,36.323
478.00,36.354
479.00,36.547
480.00,36.706
481.00,36.750
482.00,36.923
483.00,36.997
484.00,37.137
485.00,37.279
486.00,37.458
487.00,37.531
488.00,37.629
489.00,37.826
490.00,37.933
491.00,38.012
492.00,38.197
493.00,38.310
494.00,38.272
495.00,38.399
496.00,38.569
497.00,38.588
498.00,38.712
499.00,38.800
500.00,38.910
501.00,39.042
502.00,39.158
503.00,39.288
504.00,39.307
505.00,39.425
506.00,39.553
507.00,39.631
508.00,39.763
509.00,39.821
510.00,39.920
511.00,39.977
512.00,40.061
513.00,40.234
514.00,40.353
515.00,40.471
516.00,40.512
517.00,40.612
518.00,40.759
519.00,40.803
520.00,40.817
521.00,40.866
522.00,40.987
523.00,41.047
524.00,41.036
525.00,41.162
526.00,41.169
527.00,41.230
528.00,41.273
529.00,41.339
530.00,41.514
531.00,41.600
532.00,41.667
533.00,41.738
534.00,41.882
535.00,41.930
536.00,42.006
537.00,42.073
538.00,42.121
539.00,42.167
540.00,42.157
541.00,42.190
542.00,42.186
543.00,42.292
544.00,42.306
545.00,42.367
546.00,42.421
547.00,42.492
548.00,42.550
549.00,42.621
550.00,42.730
551.00,42.771
552.00,42.790
553.00,42.864
554.00,42.912
555.00,42.945
556.00,42.978
557.00,42.999
558.00,43.105
559.00,43.147
560.00,43.194
561.00,43.263
562.00,43.295
563.00,43.292
564.00,43.320
565.00,43.376
566.00,43.403
567.00,43.381
568.00,43.412
569.00,43.459
570.00,43.419
571.00,43.451
572.00,43.533
573.00,43.434
574.00,43.468
575.00,43.467
576.00,43.522
577.00,43.465
578.00,43.541
579.00,43.675
580.00,43.747
581.00,43.864
582.00,43.900
583.00,43.948
584.00,44.045
585.00,44.005
586.00,44.115
587.00,44.150
588.00,44.116
589.00,44.098
590.00,44.151
591.00,44.185
592.00,44.123
593.00,44.202
594.00,44.263
595.00,44.303
596.00,44.333
597.00,44.432
598.00,44.408
599.00,44.448
600.00,44.516
601.00,44.501
602.00,44.445
603.00,44.512
604.00,44.572
605.00,44.634
606.00,44.593
607.00,44.603
608.00,44.726
609.00,44.792
610.00,44.759
611.00,44.806
612.00,44.707
613.00,44.789
614.00,44.856
615.00,44.851
616.00,44.908
617.00,44.897
618.00,44.867
619.00,44.827
620.00,44.879
621.00,45.157
622.00,45.125
623.00,45.212
624.00,45.238
625.00,45.242
626.00,45.284
627.00,45.309
628.00,45.356
629.00,45.336
630.00,45.339
631.00,45.346
632.00,45.470
633.00,45.607
634.00,45.614
635.00,45.672
636.00,45.725
637.00,45.741
638.00,45.758
639.00,45.836
640.00,45.841
641.00,45.803
642.00,45.968
643.00,46.021
644.00,46.043
645.00,46.124
646.00,46.185
647.00,46.198
648.00,46.168
649.00,46.276
650.00,46.238
651.00,46.254
652.00,46.330
653.00,46.475
654.00,46.434
655.00,46.519
656.00,46.651
657.00,46.788
658.00,46.780
659.00,46.678
660.00,46.771
661.00,46.703
662.00,46.965
663.00,46.834
664.00,47.015
665.00,47.179
666.00,47.120
667.00,47.242
668.00,47.111
669.00,47.279
670.00,47.510
671.00,47.437
672.00,47.302
673.00,47.611
674.00,47.593
675.00,47.647
676.00,47.673
677.00,47.849
678.00,47.740
679.00,47.919
680.00,47.926
681.00,48.057
682.00,48.129
683.00,48.098
684.00,48.165
685.00,48.156
686.00,47.970
687.00,48.122
688.00,48.350
689.00,48.209
690.00,48.277
691.00,48.565
692.00,48.340
693.00,48.344
694.00,48.451
695.00,48.618
696.00,48.602
697.00,48.637
698.00,48.704
699.00,48.751
700.00,48.758
701.00,48.814
702.00,48.854
703.00,48.945
704.00,48.989
705.00,48.957
706.00,48.732
707.00,49.113
708.00,49.141
709.00,49.154
710.00,49.488
711.00,49.171
712.00,49.155
713.00,49.298
714.00,49.241
715.00,49.337
716.00,49.397
717.00,49.362
718.00,49.592
719.00,49.572
720.00,49.503
721.00,54.068
722.00,54.122
723.00,54.118
724.00,54.032
725.00,54.198
726.00,54.104
727.00,54.038
728.00,54.005
729.00,53.989
730.00,54.065
731.00,54.008
732.00,54.035
733.00,54.051
734.00,53.994
735.00,54.080
736.00,53.992
737.00,54.084
738.00,54.063
739.00,54.027
740.00,54.021
741.00,54.029
742.00,54.143
743.00,53.940
744.00,54.002
745.00,53.976
746.00,53.897
747.00,53.962
748.00,53.793
749.00,53.897
750.00,53.815
751.00,53.831
752.00,53.842
753.00,53.766
754.00,53.800
755.00,53.728
756.00,53.823
757.00,53.791
758.00,53.753
759.00,53.688
760.00,53.713
761.00,53.711
762.00,53.652
763.00,53.689
764.00,53.605
765.00,53.646
766.00,53.689
767.00,53.751
768.00,53.641
769.00,53.679
770.00,53.659
771.00,53.642
772.00,53.646
773.00,53.569
774.00,53.625
775.00,53.613
776.00,53.585
777.00,53.607
778.00,53.507
779.00,53.566
780.00,53.550
781.00,53.534
782.00,53.523
783.00,53.526
784.00,53.479
785.00,53.378
786.00,53.525
787.00,53.483
788.00,53.413
789.00,53.407
790.00,53.317
791.00,53.415
792.00,53.287
793.00,53.393
794.00,53.222
795.00,53.268
796.00,53.243
797.00,53.232
798.00,53.203
799.00,53.070
800.00,53.215
801.00,53.077
802.00,52.991
803.00,53.117
804.00,53.069
805.00,53.110
806.00,53.037
807.00,52.979
808.00,52.929
809.00,52.940
810.00,52.936
811.00,52.973
812.00,52.838
813.00,52.848
814.00,52.836
815.00,52.856
816.00,52.839
817.00,52.827
818.00,52.720
819.00,52.793
820.00,52.612
821.00,52.685
822.00,52.659
823.00,52.581
824.00,52.709
825.00,52.622
826.00,52.673
827.00,52.702
828.00,52.559
829.00,52.524
830.00,52.658
831.00,55.178
832.00,55.186
833.00,55.111
834.00,55.108
835.00,55.086
836.00,55.065
837.00,55.051
838.00,55.033
839.00,55.033
840.00,54.982
841.00,54.952
842.00,55.049
843.00,54.918
844.00,54.944
845.00,54.873
846.00,54.892
847.00,54.824
848.00,54.818
849.00,54.712
850.00,54.826
851.00,54.665
852.00,54.691
853.00,54.618
854.00,54.632
855.00,54.532
856.00,54.554
857.00,54.550
858.00,54.507
859.00,54.469
860.00,54.458
861.00,54.443
862.00,54.422
863.00,54.429
864.00,54.386
865.00,54.434
866.00,54.439
867.00,54.397
868.00,54.354
869.00,54.356
870.00,54.335
871.00,54.326
872.00,54.315
873.00,54.259
874.00,54.279
875.00,54.258
876.00,54.257
877.00,54.253
878.00,54.279
879.00,54.224
880.00,54.216
881.00,54.224
882.00,54.245
883.00,54.129
884.00,54.124
885.00,54.128
886.00,54.125
887.00,54.096
888.00,54.079
889.00,54.078
890.00,54.062
891.00,53.998
892.00,54.008
893.00,53.985
894.00,53.958
895.00,53.935
896.00,53.934
897.00,53.906
898.00,53.889
899.00,53.900
900.00,53.870
901.00,53.854
902.00,53.874
903.00,53.815
904.00,53.811
905.00,53.750
906.00,53.827
907.00,53.693
908.00,53.704
909.00,53.702
910.00,53.667
911.00,53.686
912.00,53.667
913.00,53.631
914.00,53.635
915.00,53.616
916.00,53.602
917.00,53.585
918.00,53.586
919.00,53.545
920.00,53.518
921.00,53.498
922.00,53.436
923.00,53.482
924.00,53.410
925.00,53.459
926.00,53.415
927.00,53.411
928.00,53.379
929.00,53.365
930.00,53.332
931.00,53.338
932.00,53.280
933.00,53.299
934.00,53.253
935.00,53.246
936.00,53.253
937.00,53.208
938.00,53.135
939.00,53.231
940.00,53.176
941.00,53.177
942.00,53.146
943.00,53.111
944.00,53.089
945.00,53.091
946.00,53.069
947.00,53.030
948.00,53.023
949.00,52.996
950.00,52.979
951.00,52.956
952.00,52.950
953.00,52.898
954.00,52.859
955.00,52.825
956.00,52.823
957.00,52.780
958.00,52.797
959.00,52.736
960.00,52.719
961.00,52.737
962.00,52.729
963.00,52.698
964.00,52.717
965.00,52.714
966.00,52.692
967.00,52.705
968.00,52.670
969.00,52.687
970.00,52.669
971.00,52.686
972.00,52.635
973.00,52.686
974.00,52.709
975.00,52.684
976.00,52.689
977.00,52.677
978.00,52.722
979.00,52.665
980.00,52.679
981.00,52.691
982.00,52.641
983.00,52.662
984.00,52.677
985.00,52.665
986.00,52.635
987.00,52.656
988.00,52.610
989.00,52.615
990.00,52.594
991.00,52.589
992.00,52.611
993.00,52.565
994.00,52.566
995.00,52.552
996.00,52.546
997.00,52.533
998.00,52.486
999.00,52.515
1000.00,52.543
1001.00,52.456
1002.00,52.490
1003.00,52.518
1004.00,52.450
1005.00,52.424
1006.00,52.448
1007.00,52.412
1008.00,52.407
1009.00,52.391
1010.00,52.382
1011.00,52.366
1012.00,52.320
1013.00,52.335
1014.00,52.309
1015.00,52.302
1016.00,52.283
1017.00,52.277
1018.00,52.272
1019.00,52.260
1020.00,52.221
1021.00,52.209
1022.00,52.219
1023.00,52.167
1024.00,52.182
1025.00,52.178
1026.00,52.163
1027.00,52.139
1028.00,52.132
1029.00,52.111
1030.00,52.089
1031.00,52.079
1032.00,52.046
1033.00,52.065
1034.00,52.020
1035.00,52.005
1036.00,51.982
1037.00,51.964
1038.00,51.946
1039.00,51.937
1040.00,51.915
1041.00,51.876
1042.00,51.867
1043.00,51.845
1044.00,51.888
1045.00,51.868
1046.00,51.846
1047.00,51.879
1048.00,51.882
1049.00,51.901
1050.00,51.902
1051.00,51.936
1052.00,51.944
1053.00,51.943
1054.00,51.940
1055.00,51.958
1056.00,51.961
1057.00,51.986
1058.00,51.971
1059.00,51.954
1060.00,51.978
1061.00,51.964
1062.00,51.941
1063.00,51.953
1064.00,51.942
1065.00,51.923
1066.00,51.931
1067.00,51.914
1068.00,51.944
1069.00,51.923
1070.00,51.895
1071.00,51.881
1072.00,51.891
1073.00,51.872
1074.00,51.871
1075.00,51.857
1076.00,51.849
1077.00,51.844
1078.00,51.805
1079.00,51.822
1080.00,51.837
1081.00,51.819
1082.00,51.833
1083.00,51.834
1084.00,51.814
1085.00,51.820
1086.00,51.803
1087.00,51.805
1088.00,51.787
1089.00,51.756
1090.00,51.766
1091.00,51.771
1092.00,51.749
1093.00,51.732
1094.00,51.728
1095.00,51.706
1096.00,51.702
1097.00,51.704
1098.00,51.694
1099.00,51.685
1100.00,51.673
1101.00,51.678
1102.00,51.674
1103.00,51.650
1104.00,51.640
1105.00,51.638
1106.00,51.634
1107.00,51.621
1108.00,51.607
1109.00,51.586
1110.00,51.593
1111.00,51.566
1112.00,51.575
1113.00,51.589
1114.00,51.571
1115.00,51.589
1116.00,51.577
1117.00,51.552
1118.00,51.556
1119.00,51.534
1120.00,51.538
1121.00,51.566
1122.00,51.571
1123.00,51.504
1124.00,51.498
1125.00,51.480
1126.00,51.499
1127.00,51.511
1128.00,51.484
1129.00,51.456
1130.00,51.437
1131.00,51.446
1132.00,51.461
1133.00,51.429
1134.00,51.427
1135.00,51.426
1136.00,51.434
1137.00,51.431
1138.00,51.435
1139.00,51.430
1140.00,51.429
1141.00,51.418
1142.00,51.411
1143.00,51.437
1144.00,51.388
1145.00,51.391
1146.00,51.411
1147.00,51.392
1148.00,51.402
1149.00,51.414
1150.00,51.421
1151.00,51.410
1152.00,51.392
1153.00,51.392
1154.00,51.389
1155.00,51.369
1156.00,51.375
1157.00,51.382
1158.00,51.376
1159.00,51.385
1160.00,51.389
1161.00,51.400
1162.00,51.412
1163.00,51.400
1164.00,51.395
1165.00,51.393
1166.00,51.386
1167.00,51.371
1168.00,51.389
1169.00,51.369
1170.00,51.363
1171.00,51.354
1172.00,51.345
1173.00,51.373
1174.00,51.361
1175.00,51.355
1176.00,51.380
1177.00,51.342
1178.00,51.376
1179.00,51.379
1180.00,51.368
1181.00,51.399
1182.00,51.379
1183.00,51.396
1184.00,51.353
1185.00,51.361
1186.00,51.360
1187.00,51.354
1188.00,51.345
1189.00,51.355
1190.00,51.353
1191.00,51.353
1192.00,51.375
1193.00,51.365
1194.00,51.358
1195.00,51.351
1196.00,51.363
1197.00,51.377
1198.00,51.369
1199.00,51.340
1200.00,51.360
1201.00,51.375
1202.00,51.342
1203.00,51.353
1204.00,51.342
1205.00,51.346
1206.00,51.340
1207.00,51.337
1208.00,51.332
1209.00,51.355
1210.00,51.341
1211.00,51.344
1212.00,51.364
1213.00,51.311
1214.00,51.346
1215.00,51.331
1216.00,51.328
1217.00,51.341
1218.00,51.336
1219.00,51.358
1220.00,51.355
1221.00,51.353
1222.00,51.339
1223.00,51.372
1224.00,51.355
1225.00,51.348
1226.00,51.363
1227.00,51.360
1228.00,51.380
1229.00,51.365
1230.00,51.387
1231.00,51.388
1232.00,51.383
1233.00,51.403
1234.00,51.409
1235.00,51.412
1236.00,51.406
1237.00,51.408
1238.00,51.395
1239.00,51.409
1240.00,51.388
1241.00,51.372
1242.00,51.385
1243.00,51.385
1244.00,51.386
1245.00,51.429
1246.00,51.431
1247.00,51.428
1248.00,51.429
1249.00,51.441
1250.00,51.454
1251.00,51.449
1252.00,51.460
1253.00,51.456
1254.00,51.446
1255.00,51.440
1256.00,51.438
1257.00,51.417
1258.00,51.462
1259.00,51.464
1260.00,51.478
1261.00,51.480
1262.00,51.468
1263.00,51.464
1264.00,51.478
1265.00,51.480
1266.00,51.480
1267.00,51.505
1268.00,51.509
1269.00,51.517
1270.00,51.529
1271.00,51.514
1272.00,51.535
1273.00,51.538
1274.00,51.533
1275.00,51.553
1276.00,51.549
1277.00,51.571
1278.00,51.589
1279.00,51.574
1280.00,51.574
1281.00,51.575
1282.00,51.570
1283.00,51.576
1284.00,51.578
1285.00,51.564
1286.00,51.593
1287.00,51.593
1288.00,51.583
1289.00,51.607
1290.00,51.636
1291.00,51.624
1292.00,51.622
1293.00,51.628
1294.00,51.643
1295.00,51.646
1296.00,51.649
1297.00,51.672
1298.00,51.678
1299.00,51.664
1300.00,51.686
1301.00,51.664
1302.00,51.693
1303.00,51.693
1304.00,51.666
1305.00,51.696
1306.00,51.690
1307.00,51.678
1308.00,51.704
1309.00,51.704
1310.00,51.716
1311.00,51.708
1312.00,51.712
1313.00,51.713
1314.00,51.733
1315.00,51.738
1316.00,51.749
1317.00,51.766
1318.00,51.761
1319.00,51.780
1320.00,51.760
1321.00,51.939
1322.00,51.921
1323.00,51.895
1324.00,51.901
1325.00,51.888
1326.00,51.893
1327.00,51.926
1328.00,51.891
1329.00,51.909
1330.00,51.939
1331.00,51.927
1332.00,51.902
1333.00,51.939
1334.00,51.976
1335.00,51.948
1336.00,51.980
1337.00,52.024
1338.00,52.087
1339.00,52.130
1340.00,52.171
1341.00,52.267
1342.00,52.319
1343.00,52.384
1344.00,52.440
1345.00,52.485
1346.00,52.579
1347.00,52.667
1348.00,52.556
1349.00,52.575
1350.00,52.578
1351.00,52.593
1352.00,52.613
1353.00,52.599
1354.00,52.605
1355.00,52.598
1356.00,52.620
1357.00,52.631
1358.00,52.669
1359.00,52.652
1360.00,52.717
1361.00,52.653
1362.00,52.537
1363.00,52.727
1364.00,52.830
1365.00,52.674
1366.00,52.692
1367.00,52.642
1368.00,52.593
1369.00,52.691
1370.00,52.597
1371.00,52.556
1372.00,52.611
1373.00,52.641
1374.00,52.649
1375.00,52.662
1376.00,52.629
1377.00,52.625
1378.00,52.594
1379.00,52.664
1380.00,52.708
1381.00,52.699
1382.00,52.730
1383.00,52.641
1384.00,52.544
1385.00,52.565
1386.00,52.584
1387.00,52.529
1388.00,52.545
1389.00,52.595
1390.00,52.596
1391.00,52.573
1392.00,52.619
1393.00,52.759
1394.00,52.664
1395.00,52.559
1396.00,52.520
1397.00,52.437
1398.00,52.592
1399.00,52.643
1400.00,52.556
1401.00,52.508
1402.00,52.711
1403.00,52.541
1404.00,52.575
1405.00,52.660
1406.00,52.609
1407.00,52.641
1408.00,52.672
1409.00,52.649
1410.00,52.661
1411.00,52.609
1412.00,52.725
1413.00,52.625
1414.00,52.624
1415.00,52.685
1416.00,52.702
1417.00,52.766
1418.00,52.698
1419.00,52.673
1420.00,52.721
1421.00,52.775
1422.00,52.727
1423.00,52.752
1424.00,52.741
1425.00,52.745
1426.00,52.737
1427.00,52.806
1428.00,52.799
1429.00,52.791
1430.00,52.814
1431.00,52.802
1432.00,52.860
1433.00,52.867
1434.00,52.866
1435.00,52.926
1436.00,52.933
1437.00,52.910
1438.00,52.929
1439.00,52.959
1440.00,53.010
1441.00,52.981
1442.00,52.989
1443.00,53.008
1444.00,53.094
1445.00,53.045
1446.00,53.035
1447.00,53.060
1448.00,53.121
1449.00,53.118
1450.00,53.124
1451.00,53.141
1452.00,53.144
1453.00,53.147
1454.00,53.174
1455.00,53.168
1456.00,53.204
1457.00,53.193
1458.00,53.198
1459.00,53.228
1460.00,53.238
1461.00,53.223
1462.00,53.279
1463.00,53.268
1464.00,53.294
1465.00,53.322
1466.00,53.289
1467.00,53.328
1468.00,53.401
1469.00,53.354
1470.00,53.389
1471.00,53.395
1472.00,53.403
1473.00,53.429
1474.00,53.436
1475.00,53.459
1476.00,53.480
1477.00,53.444
1478.00,53.464
1479.00,53.490
1480.00,53.467
1481.00,53.488
1482.00,53.533
1483.00,53.533
1484.00,53.564
1485.00,53.542
1486.00,53.557
1487.00,53.584
1488.00,53.580
1489.00,53.586
1490.00,53.602
1491.00,53.602
1492.00,53.641
1493.00,53.605
1494.00,53.666
1495.00,53.645
1496.00,53.657
1497.00,53.668
1498.00,53.679
1499.00,53.682
1500.00,53.714
1501.00, 
1502.00, 
1503.00, 
1504.00, 
1505.00, 
1506.00, 
1507.00, 
1508.00, 
1509.00, 
1510.00, 
1511.00, 
1512.00, 
1513.00, 
1514.00, 
1515.00, 
1516.00, 
1517.00, 
1518.00, 
1519.00, 
1520.00, 
1521.00, 
1522.00, 
1523.00, 
1524.00, 
1525.00, 
1526.00, 
1527.00, 
1528.00, 
1529.00, 
1530.00, 
1531.00, 
1532.00, 
1533.00, 
1534.00, 
1535.00, 
1536.00, 
1537.00, 
1538.00, 
1539.00, 
1540.00, 
1541.00, 
1542.00, 
1543.00, 
1544.00, 
1545.00, 
1546.00, 
1547.00, 
1548.00, 
1549.00, 
1550.00, 
1551.00, 
1552.00, 
1553.00, 
1554.00, 
1555.00, 
1556.00, 
1557.00, 
1558.00, 
1559.00, 
1560.00, 
1561.00, 
1562.00, 
1563.00, 
1564.00, 
1565.00, 
1566.00, 
1567.00, 
1568.00, 
1569.00, 
1570.00, 
1571.00, 
1572.00, 
1573.00, 
1574.00, 
1575.00, 
1576.00, 
1577.00, 
1578.00, 
1579.00, 
1580.00, 
1581.00, 
1582.00, 
1583.00, 
1584.00, 
1585.00, 
1586.00, 
1587.00, 
1588.00, 
1589.00, 
1590.00, 
1591.00, 
1592.00, 
1593.00, 
1594.00, 
1595.00, 
1596.00, 
1597.00, 
1598.00, 
1599.00, 
1600.00, 
1601.00, 
1602.00, 
1603.00, 
1604.00, 
1605.00, 
1606.00, 
1607.00, 
1608.00, 
1609.00, 
1610.00, 
1611.00, 
1612.00, 
1613.00, 
1614.00, 
1615.00, 
1616.00, 
1617.00, 
1618.00, 
1619.00, 
1620.00, 
1621.00, 
1622.00, 
1623.00, 
1624.00, 
1625.00, 
1626.00, 
1627.00, 
1628.00, 
1629.00, 
1630.00, 
1631.00, 
1632.00, 
1633.00, 
1634.00, 
1635.00, 
1636.00, 
1637.00, 
1638.00, 
1639.00, 
1640.00, 
1641.00, 
1642.00, 
1643.00, 
1644.00, 
1645.00, 
1646.00, 
1647.00, 
1648.00, 
1649.00, 
1650.00, 
1651.00, 
1652.00, 
1653.00, 
1654.00, 
1655.00, 
1656.00, 
1657.00, 
1658.00, 
1659.00, 
1660.00, 
1661.00, 
1662.00, 
1663.00, 
1664.00, 
1665.00, 
1666.00, 
1667.00, 
1668.00, 
1669.00, 
1670.00, 
1671.00, 
1672.00, 
1673.00, 
1674.00, 
1675.00, 
1676.00, 
1677.00, 
1678.00, 
1679.00, 
1680.00, 
1681.00, 
1682.00, 
1683.00, 
1684.00, 
1685.00, 
1686.00, 
1687.00, 
1688.00, 
1689.00, 
1690.00, 
1691.00, 
1692.00, 
1693.00, 
1694.00, 
1695.00, 
1696.00, 
1697.00, 
1698.00, 
1699.00, 
1700.00, 
1701.00, 
1702.00, 
1703.00, 
1704.00, 
1705.00, 
1706.00, 
1707.00, 
1708.00, 
1709.00, 
1710.00, 
1711.00, 
1712.00, 
1713.00, 
1714.00, 
1715.00, 
1716.00, 
1717.00, 
1718.00, 
1719.00, 
1720.00, 
1721.00, 
1722.00, 
1723.00, 
1724.00, 
1725.00, 
1726.00, 
1727.00, 
1728.00, 
1729.00, 
1730.00, 
1731.00, 
1732.00, 
1733.00, 
1734.00, 
1735.00, 
1736.00, 
1737.00, 
1738.00, 
1739.00, 
1740.00, 
1741.00, 
1742.00, 
1743.00, 
1744.00, 
1745.00, 
1746.00, 
1747.00, 
1748.00, 
1749.00, 
1750.00, 
1751.00, 
1752.00, 
1753.00, 
1754.00, 
1755.00, 
1756.00, 
1757.00, 
1758.00, 
1759.00, 
1760.00, 
1761.00, 
1762.00, 
1763.00, 
1764.00, 
1765.00, 
1766.00, 
1767.00, 
1768.00, 
1769.00, 
1770.00, 
1771.00, 
1772.00, 
1773.00, 
1774.00, 
1775.00, 
1776.00, 
1777.00, 
1778.00, 
1779.00, 
1780.00, 
1781.00, 
1782.00, 
1783.00, 
1784.00, 
1785.00, 
1786.00, 
1787.00, 
1788.00, 
1789.00, 
1790.00, 
1791.00, 
1792.00, 
1793.00, 
1794.00, 
1795.00, 
1796.00, 
1797.00, 
1798.00, 
1799.00, 
1800.00, 
1801.00, 
1802.00, 
1803.00, 
1804.00, 
1805.00, 
1806.00, 
1807.00, 
1808.00, 
1809.00, 
1810.00, 
1811.00, 
1812.00, 
1813.00, 
1814.00, 
1815.00, 
1816.00, 
1817.00, 
1818.00, 
1819.00, 
1820.00, 
1821.00, 
1822.00, 
1823.00, 
1824.00, 
1825.00, 
1826.00, 
1827.00, 
1828.00, 
1829.00, 
1830.00, 
1831.00, 
1832.00, 
1833.00, 
1834.00, 
1835.00, 
1836.00, 
1837.00, 
1838.00, 
1839.00, 
1840.00, 
1841.00, 
1842.00, 
1843.00, 
1844.00, 
1845.00, 
1846.00, 
1847.00, 
1848.00, 
1849.00, 
1850.00, 
1851.00, 
1852.00, 
1853.00, 
1854.00, 
1855.00, 
1856.00, 
1857.00, 
1858.00, 
1859.00, 
1860.00, 
1861.00, 
1862.00, 
1863.00, 
1864.00, 
1865.00, 
1866.00, 
1867.00, 
1868.00, 
1869.00, 
1870.00, 
1871.00, 
1872.00, 
1873.00, 
1874.00, 
1875.00, 
1876.00, 
1877.00, 
1878.00, 
1879.00, 
1880.00, 
1881.00, 
1882.00, 
1883.00, 
1884.00, 
1885.00, 
1886.00, 
1887.00, 
1888.00, 
1889.00, 
1890.00, 
1891.00, 
1892.00, 
1893.00, 
1894.00, 
1895.00, 
1896.00, 
1897.00, 
1898.00, 
1899.00, 
1900.00, 
1901.00, 
1902.00, 
1903.00, 
1904.00, 
1905.00, 
1906.00, 
1907.00, 
1908.00, 
1909.00, 
1910.00, 
1911.00, 
1912.00, 
1913.00, 
1914.00, 
1915.00, 
1916.00, 
1917.00, 
1918.00, 
1919.00, 
1920.00, 
1921.00, 
1922.00, 
1923.00, 
1924.00, 
1925.00, 
1926.00, 
1927.00, 
1928.00, 
1929.00, 
1930.00, 
1931.00, 
1932.00, 
1933.00, 
1934.00, 
1935.00, 
1936.00, 
1937.00, 
1938.00, 
1939.00, 
1940.00, 
1941.00, 
1942.00, 
1943.00, 
1944.00, 
1945.00, 
1946.00, 
1947.00, 
1948.00, 
1949.00, 
1950.00, 
1951.00, 
1952.00, 
1953.00, 
1954.00, 
1955.00, 
1956.00, 
1957.00, 
1958.00, 
1959.00, 
1960.00, 
1961.00, 
1962.00, 
1963.00, 
1964.00, 
1965.00, 
1966.00, 
1967.00, 
1968.00, 
1969.00, 
1970.00, 
1971.00, 
1972.00, 
1973.00, 
1974.00, 
1975.00, 
1976.00, 
1977.00, 
1978.00, 
1979.00, 
1980.00, 
1981.00, 
1982.00, 
1983.00, 
1984.00, 
1985.00, 
1986.00, 
1987.00, 
1988.00, 
1989.00, 
1990.00, 
1991.00, 
1992.00, 
1993.00, 
1994.00, 
1995.00, 
1996.00, 
1997.00, 
1998.00, 
1999.00, 
2000.00, 
2001.00, 
2002.00, 
2003.00, 
2004.00, 
2005.00, 
2006.00, 
2007.00, 
2008.00, 
2009.00, 
2010.00, 
2011.00, 
2012.00, 
2013.00, 
2014.00, 
2015.00, 
2016.00, 
2017.00, 
2018.00, 
2019.00, 
2020.00, 
2021.00, 
2022.00, 
2023.00, 
2024.00, 
2025.00, 
2026.00, 
2027.00, 
2028.00, 
2029.00, 
2030.00, 
2031.00, 
2032.00, 
2033.00, 
2034.00, 
2035.00, 
2036.00, 
2037.00, 
2038.00, 
2039.00, 
2040.00, 
2041.00, 
2042.00, 
2043.00, 
2044.00, 
2045.00, 
2046.00, 
2047.00, 
2048.00, 
2049.00, 
2050.00, 
2051.00, 
2052.00, 
2053.00, 
2054.00, 
2055.00, 
2056.00, 
2057.00, 
2058.00, 
2059.00, 
2060.00, 
2061.00, 
2062.00, 
2063.00, 
2064.00, 
2065.00, 
2066.00, 
2067.00, 
2068.00, 
2069.00, 
2070.00, 
2071.00, 
2072.00, 
2073.00, 
2074.00, 
2075.00, 
2076.00, 
2077.00, 
2078.00, 
2079.00, 
2080.00, 
2081.00, 
2082.00, 
2083.00, 
2084.00, 
2085.00, 
2086.00, 
2087.00, 
2088.00, 
2089.00, 
2090.00, 
2091.00, 
2092.00, 
2093.00, 
2094.00, 
2095.00, 
2096.00, 
2097.00, 
2098.00, 
2099.00, 
2100.00, 
2101.00, 
2102.00, 
2103.00, 
2104.00, 
2105.00, 
2106.00, 
2107.00, 
2108.00, 
2109.00, 
2110.00, 
2111.00, 
2112.00, 
2113.00, 
2114.00, 
2115.00, 
2116.00, 
2117.00, 
2118.00, 
2119.00, 
2120.00, 
2121.00, 
2122.00, 
2123.00, 
2124.00, 
2125.00, 
2126.00, 
2127.00, 
2128.00, 
2129.00, 
2130.00, 
2131.00, 
2132.00, 
2133.00, 
2134.00, 
2135.00, 
2136.00, 
2137.00, 
2138.00, 
2139.00, 
2140.00, 
2141.00, 
2142.00, 
2143.00, 
2144.00, 
2145.00, 
2146.00, 
2147.00, 
2148.00, 
2149.00, 
2150.00, 
2151.00, 
2152.00, 
2153.00, 
2154.00, 
2155.00, 
2156.00, 
2157.00, 
2158.00, 
2159.00, 
2160.00, 
2161.00, 
2162.00, 
2163.00, 
2164.00, 
2165.00, 
2166.00, 
2167.00, 
2168.00, 
2169.00, 
2170.00, 
2171.00, 
2172.00, 
2173.00, 
2174.00, 
2175.00, 
2176.00, 
2177.00, 
2178.00, 
2179.00, 
2180.00, 
2181.00, 
2182.00, 
2183.00, 
2184.00, 
2185.00, 
2186.00, 
2187.00, 
2188.00, 
2189.00, 
2190.00, 
2191.00, 
2192.00, 
2193.00, 
2194.00, 
2195.00, 
2196.00, 
2197.00, 
2198.00, 
2199.00, 
2200.00, 
2201.00, 
2202.00, 
2203.00, 
2204.00, 
2205.00, 
2206.00, 
2207.00, 
2208.00, 
2209.00, 
2210.00, 
2211.00, 
2212.00, 
2213.00, 
2214.00, 
2215.00, 
2216.00, 
2217.00, 
2218.00, 
2219.00, 
2220.00, 
2221.00, 
2222.00, 
2223.00, 
2224.00, 
2225.00, 
2226.00, 
2227.00, 
2228.00, 
2229.00, 
2230.00, 
2231.00, 
2232.00, 
2233.00, 
2234.00, 
2235.00, 
2236.00, 
2237.00, 
2238.00, 
2239.00, 
2240.00, 
2241.00, 
2242.00, 
2243.00, 
2244.00, 
2245.00, 
2246.00, 
2247.00, 
2248.00, 
2249.00, 
2250.00, 
2251.00, 
2252.00, 
2253.00, 
2254.00, 
2255.00, 
2256.00, 
2257.00, 
2258.00, 
2259.00, 
2260.00, 
2261.00, 
2262.00, 
2263.00, 
2264.00, 
2265.00, 
2266.00, 
2267.00, 
2268.00, 
2269.00, 
2270.00, 
2271.00, 
2272.00, 
2273.00, 
2274.00, 
2275.00, 
2276.00, 
2277.00, 
2278.00, 
2279.00, 
2280.00, 
2281.00, 
2282.00, 
2283.00, 
2284.00, 
2285.00, 
2286.00, 
2287.00, 
2288.00, 
2289.00, 
2290.00, 
2291.00, 
2292.00, 
2293.00, 
2294.00, 
2295.00, 
2296.00, 
2297.00, 
2298.00, 
2299.00, 
2300.00, 
2301.00, 
2302.00, 
2303.00, 
2304.00, 
2305.00, 
2306.00, 
2307.00, 
2308.00, 
2309.00, 
2310.00, 
2311.00, 
2312.00, 
2313.00, 
2314.00, 
2315.00, 
2316.00, 
2317.00, 
2318.00, 
2319.00, 
2320.00, 
2321.00, 
2322.00, 
2323.00, 
2324.00, 
2325.00, 
2326.00, 
2327.00, 
2328.00, 
2329.00, 
2330.00, 
2331.00, 
2332.00, 
2333.00, 
2334.00, 
2335.00, 
2336.00, 
2337.00, 
2338.00, 
2339.00, 
2340.00, 
2341.00, 
2342.00, 
2343.00, 
2344.00, 
2345.00, 
2346.00, 
2347.00, 
2348.00, 
2349.00, 
2350.00, 
2351.00, 
2352.00, 
2353.00, 
2354.00, 
2355.00, 
2356.00, 
2357.00, 
2358.00, 
2359.00, 
2360.00, 
2361.00, 
2362.00, 
2363.00, 
2364.00, 
2365.00, 
2366.00, 
2367.00, 
2368.00, 
2369.00, 
2370.00, 
2371.00, 
2372.00, 
2373.00, 
2374.00, 
2375.00, 
2376.00, 
2377.00, 
2378.00, 
2379.00, 
2380.00, 
2381.00, 
2382.00, 
2383.00, 
2384.00, 
2385.00, 
2386.00, 
2387.00, 
2388.00, 
2389.00, 
2390.00, 
2391.00, 
2392.00, 
2393.00, 
2394.00, 
2395.00, 
2396.00, 
2397.00, 
2398.00, 
2399.00, 
2400.00, 
2401.00, 
2402.00, 
2403.00, 
2404.00, 
2405.00, 
2406.00, 
2407.00, 
2408.00, 
2409.00, 
2410.00, 
2411.00, 
2412.00, 
2413.00, 
2414.00, 
2415.00, 
2416.00, 
2417.00, 
2418.00, 
2419.00, 
2420.00, 
2421.00, 
2422.00, 
2423.00, 
2424.00, 
2425.00, 
2426.00, 
2427.00, 
2428.00, 
2429.00, 
2430.00, 
2431.00, 
2432.00, 
2433.00, 
2434.00, 
2435.00, 
2436.00, 
2437.00, 
2438.00, 
2439.00, 
2440.00, 
2441.00, 
2442.00, 
2443.00, 
2444.00, 
2445.00, 
2446.00, 
2447.00, 
2448.00, 
2449.00, 
2450.00, 
2451.00, 
2452.00, 
2453.00, 
2454.00, 
2455.00, 
2456.00, 
2457.00, 
2458.00, 
2459.00, 
2460.00, 
2461.00, 
2462.00, 
2463.00, 
2464.00, 
2465.00, 
2466.00, 
2467.00, 
2468.00, 
2469.00, 
2470.00, 
2471.00, 
2472.00, 
2473.00, 
2474.00, 
2475.00, 
2476.00, 
2477.00, 
2478.00, 
2479.00, 
2480.00, 
2481.00, 
2482.00, 
2483.00, 
2484.00, 
2485.00, 
2486.00, 
2487.00, 
2488.00, 
2489.00, 
2490.00, 
2491.00, 
2492.00, 
2493.00, 
2494.00, 
2495.00, 
2496.00, 
2497.00, 
2498.00, 
2499.00, 
2500.00, 
2501.00, 
2502.00, 
2503.00, 
2504.00, 
2505.00, 
2506.00, 
2507.00, 
2508.00, 
2509.00, 
2510.00, 
2511.00, 
2512.00, 
2513.00, 
2514.00, 
2515.00, 
2516.00, 
2517.00, 
2518.00, 
2519.00, 
2520.00, 
2521.00, 
2522.00, 
2523.00, 
2524.00, 
2525.00, 
2526.00, 
2527.00, 
2528.00, 
2529.00, 
2530.00, 
2531.00, 
2532.00, 
2533.00, 
2534.00, 
2535.00, 
2536.00, 
2537.00, 
2538.00, 
2539.00, 
2540.00, 
2541.00, 
2542.00, 
2543.00, 
2544.00, 
2545.00, 
2546.00, 
2547.00, 
2548.00, 
2549.00, 
2550.00, 
2551.00, 
2552.00, 
2553.00, 
2554.00, 
2555.00, 
2556.00, 
2557.00, 
2558.00, 
2559.00, 
2560.00, 
2561.00, 
2562.00, 
2563.00, 
2564.00, 
2565.00, 
2566.00, 
2567.00, 
2568.00, 
2569.00, 
2570.00, 
2571.00, 
2572.00, 
2573.00, 
2574.00, 
2575.00, 
2576.00, 
2577.00, 
2578.00, 
2579.00, 
2580.00, 
2581.00, 
2582.00, 
2583.00, 
2584.00, 
2585.00, 
2586.00, 
2587.00, 
2588.00, 
2589.00, 
2590.00, 
2591.00, 
2592.00, 
2593.00, 
2594.00, 
2595.00, 
2596.00, 
2597.00, 
2598.00, 
2599.00, 
2600.00, 
