"1cP1 - RawData"
"Wavelength nm.","T%"
200.00,0.001
201.00,0.002
202.00,0.001
203.00,0.003
204.00,0.002
205.00,0.004
206.00,-0.000
207.00,-0.001
208.00,0.000
209.00,0.003
210.00,0.002
211.00,0.004
212.00,-0.000
213.00,0.002
214.00,-0.001
215.00,0.000
216.00,0.003
217.00,0.004
218.00,0.003
219.00,-0.000
220.00,-0.001
221.00,0.002
222.00,-0.001
223.00,0.001
224.00,-0.001
225.00,0.000
226.00,0.002
227.00,-0.002
228.00,0.002
229.00,0.001
230.00,-0.001
231.00,0.001
232.00,0.001
233.00,-0.000
234.00,0.001
235.00,-0.000
236.00,0.002
237.00,0.001
238.00,0.002
239.00,0.001
240.00,0.000
241.00,-0.001
242.00,0.000
243.00,0.001
244.00,0.001
245.00,0.002
246.00,0.001
247.00,-0.000
248.00,-0.002
249.00,-0.000
250.00,0.001
251.00,0.001
252.00,-0.000
253.00,0.001
254.00,-0.002
255.00,-0.001
256.00,0.002
257.00,0.000
258.00,0.001
259.00,-0.000
260.00,-0.000
261.00,-0.002
262.00,-0.000
263.00,0.001
264.00,-0.001
265.00,0.000
266.00,-0.001
267.00,-0.001
268.00,-0.001
269.00,0.000
270.00,-0.001
271.00,-0.000
272.00,0.000
273.00,0.002
274.00,-0.001
275.00,0.001
276.00,0.002
277.00,0.000
278.00,0.001
279.00,-0.001
280.00,0.001
281.00,0.001
282.00,0.002
283.00,0.001
284.00,-0.000
285.00,0.001
286.00,0.001
287.00,0.001
288.00,-0.001
289.00,-0.000
290.00,-0.000
291.00,-0.002
292.00,-0.002
293.00,-0.000
294.00,0.001
295.00,0.001
296.00,-0.000
297.00,-0.000
298.00,0.001
299.00,0.000
300.00,-0.000
301.00,0.000
302.00,0.001
303.00,0.002
304.00,0.002
305.00,0.002
306.00,0.003
307.00,0.002
308.00,0.008
309.00,0.014
310.00,0.021
311.00,0.031
312.00,0.048
313.00,0.072
314.00,0.113
315.00,0.159
316.00,0.231
317.00,0.333
318.00,0.446
319.00,0.605
320.00,0.805
321.00,1.043
322.00,1.324
323.00,1.692
324.00,2.082
325.00,2.508
326.00,2.965
327.00,3.542
328.00,4.141
329.00,4.688
330.00,5.457
331.00,6.171
332.00,6.948
333.00,7.791
334.00,8.589
335.00,9.307
336.00,10.270
337.00,11.180
338.00,12.021
339.00,12.862
340.00,13.711
341.00,14.580
342.00,15.358
343.00,16.143
344.00,16.911
345.00,17.722
346.00,18.369
347.00,18.997
348.00,19.647
349.00,20.277
350.00,20.797
351.00,21.321
352.00,21.799
353.00,22.295
354.00,22.794
355.00,23.230
356.00,23.635
357.00,23.949
358.00,24.310
359.00,24.692
360.00,25.019
361.00,25.221
362.00,25.546
363.00,25.785
364.00,25.934
365.00,26.076
366.00,26.351
367.00,26.357
368.00,26.481
369.00,26.632
370.00,26.733
371.00,26.747
372.00,26.722
373.00,26.760
374.00,26.759
375.00,26.732
376.00,26.647
377.00,26.602
378.00,26.507
379.00,26.389
380.00,26.416
381.00,26.395
382.00,26.456
383.00,26.504
384.00,26.554
385.00,26.667
386.00,26.728
387.00,26.878
388.00,27.010
389.00,27.068
390.00,27.145
391.00,27.177
392.00,27.270
393.00,27.297
394.00,27.351
395.00,27.439
396.00,27.440
397.00,27.474
398.00,27.503
399.00,27.519
400.00,27.532
401.00,27.536
402.00,27.546
403.00,27.547
404.00,27.560
405.00,27.545
406.00,27.537
407.00,27.475
408.00,27.514
409.00,27.419
410.00,27.371
411.00,27.345
412.00,27.363
413.00,27.371
414.00,27.282
415.00,27.302
416.00,27.388
417.00,27.335
418.00,27.344
419.00,27.432
420.00,27.483
421.00,27.500
422.00,27.498
423.00,27.538
424.00,27.559
425.00,27.612
426.00,27.692
427.00,27.645
428.00,27.722
429.00,27.744
430.00,27.843
431.00,27.855
432.00,27.852
433.00,27.912
434.00,27.973
435.00,28.055
436.00,28.096
437.00,28.164
438.00,28.204
439.00,28.271
440.00,28.333
441.00,28.415
442.00,28.485
443.00,28.502
444.00,28.631
445.00,28.619
446.00,28.780
447.00,28.874
448.00,28.949
449.00,29.094
450.00,29.199
451.00,29.241
452.00,29.314
453.00,29.469
454.00,29.465
455.00,29.626
456.00,29.779
457.00,29.883
458.00,29.937
459.00,30.070
460.00,30.172
461.00,30.348
462.00,30.440
463.00,30.612
464.00,30.699
465.00,30.793
466.00,30.969
467.00,31.070
468.00,31.117
469.00,31.218
470.00,31.300
471.00,31.372
472.00,31.481
473.00,31.556
474.00,31.654
475.00,31.760
476.00,31.798
477.00,31.930
478.00,31.995
479.00,32.183
480.00,32.341
481.00,32.404
482.00,32.575
483.00,32.707
484.00,32.855
485.00,33.004
486.00,33.180
487.00,33.265
488.00,33.333
489.00,33.512
490.00,33.594
491.00,33.779
492.00,34.001
493.00,34.105
494.00,34.082
495.00,34.221
496.00,34.299
497.00,34.438
498.00,34.592
499.00,34.632
500.00,34.727
501.00,34.818
502.00,34.936
503.00,35.109
504.00,35.221
505.00,35.311
506.00,35.372
507.00,35.519
508.00,35.645
509.00,35.705
510.00,35.881
511.00,35.940
512.00,35.955
513.00,36.088
514.00,36.276
515.00,36.410
516.00,36.504
517.00,36.563
518.00,36.810
519.00,36.788
520.00,36.816
521.00,36.990
522.00,37.049
523.00,37.112
524.00,37.168
525.00,37.245
526.00,37.316
527.00,37.375
528.00,37.455
529.00,37.597
530.00,37.777
531.00,37.880
532.00,37.881
533.00,37.987
534.00,38.039
535.00,38.167
536.00,38.234
537.00,38.275
538.00,38.322
539.00,38.425
540.00,38.516
541.00,38.542
542.00,38.529
543.00,38.601
544.00,38.728
545.00,38.752
546.00,38.814
547.00,38.949
548.00,39.015
549.00,39.099
550.00,39.190
551.00,39.299
552.00,39.281
553.00,39.338
554.00,39.460
555.00,39.401
556.00,39.533
557.00,39.581
558.00,39.614
559.00,39.563
560.00,39.756
561.00,39.768
562.00,39.919
563.00,39.918
564.00,39.949
565.00,39.990
566.00,40.020
567.00,40.063
568.00,40.086
569.00,40.145
570.00,40.187
571.00,40.187
572.00,40.258
573.00,40.160
574.00,40.210
575.00,40.211
576.00,40.225
577.00,40.326
578.00,40.408
579.00,40.423
580.00,40.478
581.00,40.674
582.00,40.687
583.00,40.660
584.00,40.806
585.00,40.838
586.00,40.905
587.00,40.997
588.00,40.906
589.00,40.814
590.00,41.000
591.00,41.100
592.00,40.998
593.00,41.048
594.00,41.178
595.00,41.265
596.00,41.295
597.00,41.321
598.00,41.419
599.00,41.376
600.00,41.443
601.00,41.471
602.00,41.481
603.00,41.503
604.00,41.527
605.00,41.630
606.00,41.520
607.00,41.604
608.00,41.782
609.00,41.831
610.00,41.715
611.00,41.834
612.00,41.690
613.00,41.838
614.00,41.890
615.00,41.852
616.00,41.899
617.00,42.028
618.00,42.086
619.00,42.108
620.00,42.159
621.00,42.191
622.00,42.211
623.00,42.298
624.00,42.354
625.00,42.422
626.00,42.469
627.00,42.487
628.00,42.486
629.00,42.503
630.00,42.554
631.00,42.546
632.00,42.656
633.00,42.766
634.00,42.860
635.00,42.863
636.00,42.917
637.00,42.906
638.00,42.964
639.00,43.045
640.00,43.025
641.00,43.046
642.00,43.131
643.00,43.246
644.00,43.266
645.00,43.278
646.00,43.412
647.00,43.516
648.00,43.425
649.00,43.533
650.00,43.599
651.00,43.633
652.00,43.707
653.00,43.726
654.00,43.698
655.00,43.901
656.00,44.154
657.00,44.081
658.00,44.223
659.00,44.235
660.00,44.195
661.00,44.150
662.00,44.312
663.00,44.347
664.00,44.566
665.00,44.740
666.00,44.608
667.00,44.554
668.00,44.579
669.00,44.921
670.00,45.015
671.00,44.953
672.00,44.786
673.00,44.865
674.00,44.959
675.00,45.127
676.00,45.138
677.00,45.559
678.00,45.308
679.00,45.464
680.00,45.503
681.00,45.683
682.00,45.644
683.00,45.658
684.00,45.814
685.00,45.786
686.00,45.654
687.00,45.808
688.00,45.878
689.00,45.860
690.00,46.097
691.00,46.346
692.00,46.042
693.00,46.001
694.00,46.228
695.00,46.432
696.00,46.473
697.00,46.276
698.00,46.436
699.00,46.629
700.00,46.571
701.00,46.611
702.00,46.658
703.00,46.882
704.00,46.838
705.00,46.781
706.00,46.863
707.00,46.963
708.00,46.787
709.00,47.081
710.00,47.468
711.00,46.951
712.00,47.029
713.00,47.181
714.00,47.233
715.00,47.146
716.00,47.266
717.00,47.317
718.00,47.578
719.00,47.412
720.00,47.473
721.00,52.162
722.00,52.125
723.00,52.074
724.00,52.060
725.00,52.089
726.00,52.077
727.00,52.021
728.00,52.034
729.00,52.061
730.00,52.029
731.00,52.045
732.00,52.031
733.00,52.082
734.00,52.121
735.00,52.093
736.00,52.078
737.00,52.129
738.00,52.161
739.00,52.184
740.00,52.113
741.00,52.127
742.00,52.174
743.00,52.069
744.00,52.097
745.00,52.075
746.00,52.108
747.00,52.006
748.00,51.992
749.00,52.040
750.00,51.980
751.00,52.040
752.00,51.991
753.00,51.952
754.00,51.950
755.00,51.917
756.00,51.954
757.00,51.970
758.00,51.909
759.00,51.931
760.00,51.926
761.00,51.940
762.00,51.841
763.00,51.895
764.00,51.859
765.00,51.864
766.00,51.906
767.00,51.867
768.00,51.825
769.00,51.882
770.00,51.848
771.00,51.795
772.00,51.865
773.00,51.809
774.00,51.847
775.00,51.783
776.00,51.818
777.00,51.802
778.00,51.790
779.00,51.840
780.00,51.796
781.00,51.682
782.00,51.768
783.00,51.728
784.00,51.731
785.00,51.584
786.00,51.689
787.00,51.711
788.00,51.663
789.00,51.617
790.00,51.593
791.00,51.671
792.00,51.506
793.00,51.563
794.00,51.494
795.00,51.469
796.00,51.525
797.00,51.445
798.00,51.404
799.00,51.349
800.00,51.393
801.00,51.301
802.00,51.279
803.00,51.338
804.00,51.262
805.00,51.307
806.00,51.279
807.00,51.172
808.00,51.145
809.00,51.143
810.00,51.103
811.00,51.197
812.00,51.175
813.00,51.092
814.00,51.057
815.00,51.020
816.00,51.130
817.00,51.073
818.00,50.888
819.00,50.947
820.00,50.894
821.00,50.841
822.00,50.879
823.00,50.838
824.00,50.889
825.00,50.862
826.00,50.855
827.00,50.858
828.00,50.761
829.00,50.740
830.00,50.819
831.00,53.114
832.00,53.119
833.00,53.027
834.00,53.065
835.00,53.027
836.00,53.002
837.00,52.968
838.00,52.962
839.00,52.935
840.00,52.884
841.00,52.926
842.00,52.889
843.00,52.872
844.00,52.848
845.00,52.810
846.00,52.781
847.00,52.742
848.00,52.846
849.00,52.662
850.00,52.651
851.00,52.594
852.00,52.597
853.00,52.526
854.00,52.541
855.00,52.417
856.00,52.470
857.00,52.408
858.00,52.377
859.00,52.368
860.00,52.349
861.00,52.342
862.00,52.297
863.00,52.319
864.00,52.232
865.00,52.311
866.00,52.252
867.00,52.255
868.00,52.230
869.00,52.224
870.00,52.197
871.00,52.179
872.00,52.208
873.00,52.159
874.00,52.146
875.00,52.125
876.00,52.158
877.00,52.115
878.00,52.083
879.00,52.216
880.00,52.076
881.00,52.039
882.00,52.043
883.00,52.014
884.00,51.965
885.00,51.939
886.00,51.928
887.00,51.895
888.00,51.893
889.00,51.876
890.00,51.875
891.00,51.795
892.00,51.803
893.00,51.764
894.00,51.771
895.00,51.725
896.00,51.698
897.00,51.685
898.00,51.651
899.00,51.651
900.00,51.635
901.00,51.656
902.00,51.641
903.00,51.605
904.00,51.604
905.00,51.565
906.00,51.577
907.00,51.563
908.00,51.495
909.00,51.483
910.00,51.427
911.00,51.438
912.00,51.434
913.00,51.385
914.00,51.368
915.00,51.352
916.00,51.334
917.00,51.263
918.00,51.405
919.00,51.262
920.00,51.232
921.00,51.216
922.00,51.197
923.00,51.172
924.00,51.145
925.00,51.153
926.00,51.147
927.00,51.134
928.00,51.088
929.00,51.096
930.00,51.062
931.00,51.052
932.00,50.967
933.00,51.019
934.00,50.970
935.00,50.970
936.00,50.933
937.00,50.914
938.00,50.905
939.00,50.901
940.00,50.880
941.00,50.861
942.00,50.800
943.00,50.793
944.00,50.754
945.00,50.798
946.00,50.765
947.00,50.734
948.00,50.726
949.00,50.692
950.00,50.696
951.00,50.666
952.00,50.643
953.00,50.610
954.00,50.575
955.00,50.511
956.00,50.530
957.00,50.498
958.00,50.498
959.00,50.441
960.00,50.435
961.00,50.427
962.00,50.414
963.00,50.349
964.00,50.381
965.00,50.376
966.00,50.347
967.00,50.342
968.00,50.309
969.00,50.351
970.00,50.332
971.00,50.340
972.00,50.299
973.00,50.347
974.00,50.344
975.00,50.312
976.00,50.343
977.00,50.309
978.00,50.365
979.00,50.333
980.00,50.333
981.00,50.335
982.00,50.296
983.00,50.313
984.00,50.296
985.00,50.322
986.00,50.276
987.00,50.307
988.00,50.264
989.00,50.264
990.00,50.257
991.00,50.228
992.00,50.267
993.00,50.217
994.00,50.197
995.00,50.193
996.00,50.181
997.00,50.168
998.00,50.132
999.00,50.143
1000.00,50.104
1001.00,50.087
1002.00,50.102
1003.00,50.139
1004.00,50.089
1005.00,50.057
1006.00,50.091
1007.00,50.061
1008.00,50.029
1009.00,49.997
1010.00,50.042
1011.00,50.004
1012.00,49.963
1013.00,49.970
1014.00,49.939
1015.00,49.951
1016.00,49.904
1017.00,49.901
1018.00,49.883
1019.00,49.869
1020.00,49.855
1021.00,49.825
1022.00,49.835
1023.00,49.784
1024.00,49.788
1025.00,49.797
1026.00,49.750
1027.00,49.731
1028.00,49.734
1029.00,49.718
1030.00,49.690
1031.00,49.704
1032.00,49.648
1033.00,49.659
1034.00,49.629
1035.00,49.595
1036.00,49.591
1037.00,49.575
1038.00,49.546
1039.00,49.540
1040.00,49.536
1041.00,49.494
1042.00,49.497
1043.00,49.470
1044.00,49.500
1045.00,49.477
1046.00,49.457
1047.00,49.486
1048.00,49.492
1049.00,49.505
1050.00,49.505
1051.00,49.553
1052.00,49.546
1053.00,49.549
1054.00,49.531
1055.00,49.550
1056.00,49.546
1057.00,49.546
1058.00,49.539
1059.00,49.532
1060.00,49.548
1061.00,49.541
1062.00,49.535
1063.00,49.532
1064.00,49.530
1065.00,49.504
1066.00,49.491
1067.00,49.479
1068.00,49.500
1069.00,49.481
1070.00,49.484
1071.00,49.484
1072.00,49.474
1073.00,49.435
1074.00,49.425
1075.00,49.421
1076.00,49.425
1077.00,49.406
1078.00,49.387
1079.00,49.405
1080.00,49.412
1081.00,49.392
1082.00,49.395
1083.00,49.390
1084.00,49.368
1085.00,49.377
1086.00,49.395
1087.00,49.356
1088.00,49.329
1089.00,49.328
1090.00,49.319
1091.00,49.331
1092.00,49.307
1093.00,49.306
1094.00,49.288
1095.00,49.276
1096.00,49.270
1097.00,49.260
1098.00,49.247
1099.00,49.259
1100.00,49.233
1101.00,49.224
1102.00,49.222
1103.00,49.217
1104.00,49.198
1105.00,49.177
1106.00,49.156
1107.00,49.164
1108.00,49.160
1109.00,49.146
1110.00,49.145
1111.00,49.145
1112.00,49.125
1113.00,49.134
1114.00,49.119
1115.00,49.121
1116.00,49.121
1117.00,49.091
1118.00,49.084
1119.00,49.095
1120.00,49.075
1121.00,49.083
1122.00,49.060
1123.00,49.057
1124.00,49.057
1125.00,49.045
1126.00,49.048
1127.00,49.057
1128.00,49.024
1129.00,49.014
1130.00,49.007
1131.00,49.013
1132.00,48.983
1133.00,49.010
1134.00,48.992
1135.00,48.979
1136.00,48.986
1137.00,48.998
1138.00,48.993
1139.00,48.987
1140.00,48.989
1141.00,48.973
1142.00,48.956
1143.00,48.973
1144.00,48.952
1145.00,48.948
1146.00,48.950
1147.00,48.946
1148.00,48.936
1149.00,48.960
1150.00,48.948
1151.00,48.943
1152.00,48.934
1153.00,48.928
1154.00,48.927
1155.00,48.926
1156.00,48.910
1157.00,48.929
1158.00,48.915
1159.00,48.917
1160.00,48.922
1161.00,48.928
1162.00,48.922
1163.00,48.916
1164.00,48.911
1165.00,48.910
1166.00,48.914
1167.00,48.894
1168.00,48.930
1169.00,48.898
1170.00,48.899
1171.00,48.881
1172.00,48.885
1173.00,48.887
1174.00,48.899
1175.00,48.888
1176.00,48.890
1177.00,48.881
1178.00,48.878
1179.00,48.903
1180.00,48.891
1181.00,48.915
1182.00,48.906
1183.00,48.880
1184.00,48.882
1185.00,48.913
1186.00,48.893
1187.00,48.903
1188.00,48.896
1189.00,48.882
1190.00,48.880
1191.00,48.877
1192.00,48.903
1193.00,48.885
1194.00,48.892
1195.00,48.869
1196.00,48.898
1197.00,48.876
1198.00,48.878
1199.00,48.882
1200.00,48.885
1201.00,48.902
1202.00,48.874
1203.00,48.883
1204.00,48.863
1205.00,48.889
1206.00,48.876
1207.00,48.883
1208.00,48.879
1209.00,48.882
1210.00,48.891
1211.00,48.878
1212.00,48.907
1213.00,48.867
1214.00,48.893
1215.00,48.876
1216.00,48.873
1217.00,48.884
1218.00,48.875
1219.00,48.881
1220.00,48.869
1221.00,48.891
1222.00,48.870
1223.00,48.914
1224.00,48.903
1225.00,48.885
1226.00,48.899
1227.00,48.893
1228.00,48.913
1229.00,48.901
1230.00,48.931
1231.00,48.928
1232.00,48.945
1233.00,48.933
1234.00,48.948
1235.00,48.949
1236.00,48.944
1237.00,48.961
1238.00,48.957
1239.00,48.966
1240.00,48.943
1241.00,48.947
1242.00,48.961
1243.00,48.968
1244.00,48.931
1245.00,48.981
1246.00,48.987
1247.00,48.962
1248.00,48.971
1249.00,48.988
1250.00,49.001
1251.00,48.986
1252.00,49.001
1253.00,49.000
1254.00,49.014
1255.00,48.998
1256.00,49.001
1257.00,48.980
1258.00,49.025
1259.00,49.023
1260.00,49.045
1261.00,49.043
1262.00,49.038
1263.00,49.039
1264.00,49.063
1265.00,49.060
1266.00,49.064
1267.00,49.093
1268.00,49.085
1269.00,49.098
1270.00,49.099
1271.00,49.103
1272.00,49.114
1273.00,49.109
1274.00,49.107
1275.00,49.125
1276.00,49.109
1277.00,49.117
1278.00,49.146
1279.00,49.135
1280.00,49.131
1281.00,49.152
1282.00,49.156
1283.00,49.161
1284.00,49.168
1285.00,49.152
1286.00,49.174
1287.00,49.154
1288.00,49.157
1289.00,49.170
1290.00,49.194
1291.00,49.195
1292.00,49.207
1293.00,49.210
1294.00,49.222
1295.00,49.243
1296.00,49.239
1297.00,49.252
1298.00,49.267
1299.00,49.238
1300.00,49.260
1301.00,49.235
1302.00,49.269
1303.00,49.273
1304.00,49.261
1305.00,49.295
1306.00,49.293
1307.00,49.303
1308.00,49.312
1309.00,49.325
1310.00,49.324
1311.00,49.318
1312.00,49.326
1313.00,49.335
1314.00,49.367
1315.00,49.359
1316.00,49.358
1317.00,49.393
1318.00,49.384
1319.00,49.388
1320.00,49.393
1321.00,49.552
1322.00,49.531
1323.00,49.506
1324.00,49.493
1325.00,49.505
1326.00,49.525
1327.00,49.553
1328.00,49.536
1329.00,49.537
1330.00,49.562
1331.00,49.566
1332.00,49.546
1333.00,49.569
1334.00,49.584
1335.00,49.606
1336.00,49.632
1337.00,49.670
1338.00,49.724
1339.00,49.775
1340.00,49.822
1341.00,49.895
1342.00,49.969
1343.00,50.023
1344.00,50.075
1345.00,50.138
1346.00,50.167
1347.00,50.179
1348.00,50.180
1349.00,50.205
1350.00,50.227
1351.00,50.246
1352.00,50.258
1353.00,50.266
1354.00,50.265
1355.00,50.194
1356.00,50.317
1357.00,50.320
1358.00,50.335
1359.00,50.403
1360.00,50.370
1361.00,50.360
1362.00,50.295
1363.00,50.361
1364.00,50.501
1365.00,50.345
1366.00,50.371
1367.00,50.300
1368.00,50.311
1369.00,50.355
1370.00,50.317
1371.00,50.262
1372.00,50.317
1373.00,50.327
1374.00,50.351
1375.00,50.340
1376.00,50.300
1377.00,50.351
1378.00,50.347
1379.00,50.337
1380.00,50.311
1381.00,50.344
1382.00,50.355
1383.00,50.361
1384.00,50.311
1385.00,50.288
1386.00,50.352
1387.00,50.280
1388.00,50.256
1389.00,50.268
1390.00,50.296
1391.00,50.307
1392.00,50.332
1393.00,50.350
1394.00,50.359
1395.00,50.289
1396.00,50.247
1397.00,50.184
1398.00,50.354
1399.00,50.324
1400.00,50.209
1401.00,50.223
1402.00,50.331
1403.00,50.267
1404.00,50.283
1405.00,50.291
1406.00,50.352
1407.00,50.390
1408.00,50.439
1409.00,50.377
1410.00,50.385
1411.00,50.367
1412.00,50.412
1413.00,50.375
1414.00,50.391
1415.00,50.426
1416.00,50.457
1417.00,50.499
1418.00,50.449
1419.00,50.457
1420.00,50.489
1421.00,50.553
1422.00,50.526
1423.00,50.522
1424.00,50.526
1425.00,50.541
1426.00,50.555
1427.00,50.592
1428.00,50.576
1429.00,50.577
1430.00,50.615
1431.00,50.610
1432.00,50.655
1433.00,50.678
1434.00,50.651
1435.00,50.725
1436.00,50.735
1437.00,50.731
1438.00,50.747
1439.00,50.776
1440.00,50.808
1441.00,50.796
1442.00,50.794
1443.00,50.839
1444.00,50.935
1445.00,50.852
1446.00,50.867
1447.00,50.891
1448.00,50.946
1449.00,50.972
1450.00,50.964
1451.00,51.027
1452.00,51.005
1453.00,51.013
1454.00,51.041
1455.00,51.069
1456.00,51.076
1457.00,51.078
1458.00,51.109
1459.00,51.129
1460.00,51.145
1461.00,51.139
1462.00,51.184
1463.00,51.195
1464.00,51.197
1465.00,51.221
1466.00,51.227
1467.00,51.238
1468.00,51.314
1469.00,51.281
1470.00,51.308
1471.00,51.317
1472.00,51.318
1473.00,51.334
1474.00,51.367
1475.00,51.379
1476.00,51.405
1477.00,51.380
1478.00,51.399
1479.00,51.442
1480.00,51.440
1481.00,51.456
1482.00,51.475
1483.00,51.485
1484.00,51.518
1485.00,51.508
1486.00,51.524
1487.00,51.556
1488.00,51.559
1489.00,51.549
1490.00,51.581
1491.00,51.596
1492.00,51.623
1493.00,51.591
1494.00,51.648
1495.00,51.644
1496.00,51.662
1497.00,51.661
1498.00,51.673
1499.00,51.689
1500.00,51.706
1501.00, 
1502.00, 
1503.00, 
1504.00, 
1505.00, 
1506.00, 
1507.00, 
1508.00, 
1509.00, 
1510.00, 
1511.00, 
1512.00, 
1513.00, 
1514.00, 
1515.00, 
1516.00, 
1517.00, 
1518.00, 
1519.00, 
1520.00, 
1521.00, 
1522.00, 
1523.00, 
1524.00, 
1525.00, 
1526.00, 
1527.00, 
1528.00, 
1529.00, 
1530.00, 
1531.00, 
1532.00, 
1533.00, 
1534.00, 
1535.00, 
1536.00, 
1537.00, 
1538.00, 
1539.00, 
1540.00, 
1541.00, 
1542.00, 
1543.00, 
1544.00, 
1545.00, 
1546.00, 
1547.00, 
1548.00, 
1549.00, 
1550.00, 
1551.00, 
1552.00, 
1553.00, 
1554.00, 
1555.00, 
1556.00, 
1557.00, 
1558.00, 
1559.00, 
1560.00, 
1561.00, 
1562.00, 
1563.00, 
1564.00, 
1565.00, 
1566.00, 
1567.00, 
1568.00, 
1569.00, 
1570.00, 
1571.00, 
1572.00, 
1573.00, 
1574.00, 
1575.00, 
1576.00, 
1577.00, 
1578.00, 
1579.00, 
1580.00, 
1581.00, 
1582.00, 
1583.00, 
1584.00, 
1585.00, 
1586.00, 
1587.00, 
1588.00, 
1589.00, 
1590.00, 
1591.00, 
1592.00, 
1593.00, 
1594.00, 
1595.00, 
1596.00, 
1597.00, 
1598.00, 
1599.00, 
1600.00, 
1601.00, 
1602.00, 
1603.00, 
1604.00, 
1605.00, 
1606.00, 
1607.00, 
1608.00, 
1609.00, 
1610.00, 
1611.00, 
1612.00, 
1613.00, 
1614.00, 
1615.00, 
1616.00, 
1617.00, 
1618.00, 
1619.00, 
1620.00, 
1621.00, 
1622.00, 
1623.00, 
1624.00, 
1625.00, 
1626.00, 
1627.00, 
1628.00, 
1629.00, 
1630.00, 
1631.00, 
1632.00, 
1633.00, 
1634.00, 
1635.00, 
1636.00, 
1637.00, 
1638.00, 
1639.00, 
1640.00, 
1641.00, 
1642.00, 
1643.00, 
1644.00, 
1645.00, 
1646.00, 
1647.00, 
1648.00, 
1649.00, 
1650.00, 
1651.00, 
1652.00, 
1653.00, 
1654.00, 
1655.00, 
1656.00, 
1657.00, 
1658.00, 
1659.00, 
1660.00, 
1661.00, 
1662.00, 
1663.00, 
1664.00, 
1665.00, 
1666.00, 
1667.00, 
1668.00, 
1669.00, 
1670.00, 
1671.00, 
1672.00, 
1673.00, 
1674.00, 
1675.00, 
1676.00, 
1677.00, 
1678.00, 
1679.00, 
1680.00, 
1681.00, 
1682.00, 
1683.00, 
1684.00, 
1685.00, 
1686.00, 
1687.00, 
1688.00, 
1689.00, 
1690.00, 
1691.00, 
1692.00, 
1693.00, 
1694.00, 
1695.00, 
1696.00, 
1697.00, 
1698.00, 
1699.00, 
1700.00, 
1701.00, 
1702.00, 
1703.00, 
1704.00, 
1705.00, 
1706.00, 
1707.00, 
1708.00, 
1709.00, 
1710.00, 
1711.00, 
1712.00, 
1713.00, 
1714.00, 
1715.00, 
1716.00, 
1717.00, 
1718.00, 
1719.00, 
1720.00, 
1721.00, 
1722.00, 
1723.00, 
1724.00, 
1725.00, 
1726.00, 
1727.00, 
1728.00, 
1729.00, 
1730.00, 
1731.00, 
1732.00, 
1733.00, 
1734.00, 
1735.00, 
1736.00, 
1737.00, 
1738.00, 
1739.00, 
1740.00, 
1741.00, 
1742.00, 
1743.00, 
1744.00, 
1745.00, 
1746.00, 
1747.00, 
1748.00, 
1749.00, 
1750.00, 
1751.00, 
1752.00, 
1753.00, 
1754.00, 
1755.00, 
1756.00, 
1757.00, 
1758.00, 
1759.00, 
1760.00, 
1761.00, 
1762.00, 
1763.00, 
1764.00, 
1765.00, 
1766.00, 
1767.00, 
1768.00, 
1769.00, 
1770.00, 
1771.00, 
1772.00, 
1773.00, 
1774.00, 
1775.00, 
1776.00, 
1777.00, 
1778.00, 
1779.00, 
1780.00, 
1781.00, 
1782.00, 
1783.00, 
1784.00, 
1785.00, 
1786.00, 
1787.00, 
1788.00, 
1789.00, 
1790.00, 
1791.00, 
1792.00, 
1793.00, 
1794.00, 
1795.00, 
1796.00, 
1797.00, 
1798.00, 
1799.00, 
1800.00, 
1801.00, 
1802.00, 
1803.00, 
1804.00, 
1805.00, 
1806.00, 
1807.00, 
1808.00, 
1809.00, 
1810.00, 
1811.00, 
1812.00, 
1813.00, 
1814.00, 
1815.00, 
1816.00, 
1817.00, 
1818.00, 
1819.00, 
1820.00, 
1821.00, 
1822.00, 
1823.00, 
1824.00, 
1825.00, 
1826.00, 
1827.00, 
1828.00, 
1829.00, 
1830.00, 
1831.00, 
1832.00, 
1833.00, 
1834.00, 
1835.00, 
1836.00, 
1837.00, 
1838.00, 
1839.00, 
1840.00, 
1841.00, 
1842.00, 
1843.00, 
1844.00, 
1845.00, 
1846.00, 
1847.00, 
1848.00, 
1849.00, 
1850.00, 
1851.00, 
1852.00, 
1853.00, 
1854.00, 
1855.00, 
1856.00, 
1857.00, 
1858.00, 
1859.00, 
1860.00, 
1861.00, 
1862.00, 
1863.00, 
1864.00, 
1865.00, 
1866.00, 
1867.00, 
1868.00, 
1869.00, 
1870.00, 
1871.00, 
1872.00, 
1873.00, 
1874.00, 
1875.00, 
1876.00, 
1877.00, 
1878.00, 
1879.00, 
1880.00, 
1881.00, 
1882.00, 
1883.00, 
1884.00, 
1885.00, 
1886.00, 
1887.00, 
1888.00, 
1889.00, 
1890.00, 
1891.00, 
1892.00, 
1893.00, 
1894.00, 
1895.00, 
1896.00, 
1897.00, 
1898.00, 
1899.00, 
1900.00, 
1901.00, 
1902.00, 
1903.00, 
1904.00, 
1905.00, 
1906.00, 
1907.00, 
1908.00, 
1909.00, 
1910.00, 
1911.00, 
1912.00, 
1913.00, 
1914.00, 
1915.00, 
1916.00, 
1917.00, 
1918.00, 
1919.00, 
1920.00, 
1921.00, 
1922.00, 
1923.00, 
1924.00, 
1925.00, 
1926.00, 
1927.00, 
1928.00, 
1929.00, 
1930.00, 
1931.00, 
1932.00, 
1933.00, 
1934.00, 
1935.00, 
1936.00, 
1937.00, 
1938.00, 
1939.00, 
1940.00, 
1941.00, 
1942.00, 
1943.00, 
1944.00, 
1945.00, 
1946.00, 
1947.00, 
1948.00, 
1949.00, 
1950.00, 
1951.00, 
1952.00, 
1953.00, 
1954.00, 
1955.00, 
1956.00, 
1957.00, 
1958.00, 
1959.00, 
1960.00, 
1961.00, 
1962.00, 
1963.00, 
1964.00, 
1965.00, 
1966.00, 
1967.00, 
1968.00, 
1969.00, 
1970.00, 
1971.00, 
1972.00, 
1973.00, 
1974.00, 
1975.00, 
1976.00, 
1977.00, 
1978.00, 
1979.00, 
1980.00, 
1981.00, 
1982.00, 
1983.00, 
1984.00, 
1985.00, 
1986.00, 
1987.00, 
1988.00, 
1989.00, 
1990.00, 
1991.00, 
1992.00, 
1993.00, 
1994.00, 
1995.00, 
1996.00, 
1997.00, 
1998.00, 
1999.00, 
2000.00, 
2001.00, 
2002.00, 
2003.00, 
2004.00, 
2005.00, 
2006.00, 
2007.00, 
2008.00, 
2009.00, 
2010.00, 
2011.00, 
2012.00, 
2013.00, 
2014.00, 
2015.00, 
2016.00, 
2017.00, 
2018.00, 
2019.00, 
2020.00, 
2021.00, 
2022.00, 
2023.00, 
2024.00, 
2025.00, 
2026.00, 
2027.00, 
2028.00, 
2029.00, 
2030.00, 
2031.00, 
2032.00, 
2033.00, 
2034.00, 
2035.00, 
2036.00, 
2037.00, 
2038.00, 
2039.00, 
2040.00, 
2041.00, 
2042.00, 
2043.00, 
2044.00, 
2045.00, 
2046.00, 
2047.00, 
2048.00, 
2049.00, 
2050.00, 
2051.00, 
2052.00, 
2053.00, 
2054.00, 
2055.00, 
2056.00, 
2057.00, 
2058.00, 
2059.00, 
2060.00, 
2061.00, 
2062.00, 
2063.00, 
2064.00, 
2065.00, 
2066.00, 
2067.00, 
2068.00, 
2069.00, 
2070.00, 
2071.00, 
2072.00, 
2073.00, 
2074.00, 
2075.00, 
2076.00, 
2077.00, 
2078.00, 
2079.00, 
2080.00, 
2081.00, 
2082.00, 
2083.00, 
2084.00, 
2085.00, 
2086.00, 
2087.00, 
2088.00, 
2089.00, 
2090.00, 
2091.00, 
2092.00, 
2093.00, 
2094.00, 
2095.00, 
2096.00, 
2097.00, 
2098.00, 
2099.00, 
2100.00, 
2101.00, 
2102.00, 
2103.00, 
2104.00, 
2105.00, 
2106.00, 
2107.00, 
2108.00, 
2109.00, 
2110.00, 
2111.00, 
2112.00, 
2113.00, 
2114.00, 
2115.00, 
2116.00, 
2117.00, 
2118.00, 
2119.00, 
2120.00, 
2121.00, 
2122.00, 
2123.00, 
2124.00, 
2125.00, 
2126.00, 
2127.00, 
2128.00, 
2129.00, 
2130.00, 
2131.00, 
2132.00, 
2133.00, 
2134.00, 
2135.00, 
2136.00, 
2137.00, 
2138.00, 
2139.00, 
2140.00, 
2141.00, 
2142.00, 
2143.00, 
2144.00, 
2145.00, 
2146.00, 
2147.00, 
2148.00, 
2149.00, 
2150.00, 
2151.00, 
2152.00, 
2153.00, 
2154.00, 
2155.00, 
2156.00, 
2157.00, 
2158.00, 
2159.00, 
2160.00, 
2161.00, 
2162.00, 
2163.00, 
2164.00, 
2165.00, 
2166.00, 
2167.00, 
2168.00, 
2169.00, 
2170.00, 
2171.00, 
2172.00, 
2173.00, 
2174.00, 
2175.00, 
2176.00, 
2177.00, 
2178.00, 
2179.00, 
2180.00, 
2181.00, 
2182.00, 
2183.00, 
2184.00, 
2185.00, 
2186.00, 
2187.00, 
2188.00, 
2189.00, 
2190.00, 
2191.00, 
2192.00, 
2193.00, 
2194.00, 
2195.00, 
2196.00, 
2197.00, 
2198.00, 
2199.00, 
2200.00, 
2201.00, 
2202.00, 
2203.00, 
2204.00, 
2205.00, 
2206.00, 
2207.00, 
2208.00, 
2209.00, 
2210.00, 
2211.00, 
2212.00, 
2213.00, 
2214.00, 
2215.00, 
2216.00, 
2217.00, 
2218.00, 
2219.00, 
2220.00, 
2221.00, 
2222.00, 
2223.00, 
2224.00, 
2225.00, 
2226.00, 
2227.00, 
2228.00, 
2229.00, 
2230.00, 
2231.00, 
2232.00, 
2233.00, 
2234.00, 
2235.00, 
2236.00, 
2237.00, 
2238.00, 
2239.00, 
2240.00, 
2241.00, 
2242.00, 
2243.00, 
2244.00, 
2245.00, 
2246.00, 
2247.00, 
2248.00, 
2249.00, 
2250.00, 
2251.00, 
2252.00, 
2253.00, 
2254.00, 
2255.00, 
2256.00, 
2257.00, 
2258.00, 
2259.00, 
2260.00, 
2261.00, 
2262.00, 
2263.00, 
2264.00, 
2265.00, 
2266.00, 
2267.00, 
2268.00, 
2269.00, 
2270.00, 
2271.00, 
2272.00, 
2273.00, 
2274.00, 
2275.00, 
2276.00, 
2277.00, 
2278.00, 
2279.00, 
2280.00, 
2281.00, 
2282.00, 
2283.00, 
2284.00, 
2285.00, 
2286.00, 
2287.00, 
2288.00, 
2289.00, 
2290.00, 
2291.00, 
2292.00, 
2293.00, 
2294.00, 
2295.00, 
2296.00, 
2297.00, 
2298.00, 
2299.00, 
2300.00, 
2301.00, 
2302.00, 
2303.00, 
2304.00, 
2305.00, 
2306.00, 
2307.00, 
2308.00, 
2309.00, 
2310.00, 
2311.00, 
2312.00, 
2313.00, 
2314.00, 
2315.00, 
2316.00, 
2317.00, 
2318.00, 
2319.00, 
2320.00, 
2321.00, 
2322.00, 
2323.00, 
2324.00, 
2325.00, 
2326.00, 
2327.00, 
2328.00, 
2329.00, 
2330.00, 
2331.00, 
2332.00, 
2333.00, 
2334.00, 
2335.00, 
2336.00, 
2337.00, 
2338.00, 
2339.00, 
2340.00, 
2341.00, 
2342.00, 
2343.00, 
2344.00, 
2345.00, 
2346.00, 
2347.00, 
2348.00, 
2349.00, 
2350.00, 
2351.00, 
2352.00, 
2353.00, 
2354.00, 
2355.00, 
2356.00, 
2357.00, 
2358.00, 
2359.00, 
2360.00, 
2361.00, 
2362.00, 
2363.00, 
2364.00, 
2365.00, 
2366.00, 
2367.00, 
2368.00, 
2369.00, 
2370.00, 
2371.00, 
2372.00, 
2373.00, 
2374.00, 
2375.00, 
2376.00, 
2377.00, 
2378.00, 
2379.00, 
2380.00, 
2381.00, 
2382.00, 
2383.00, 
2384.00, 
2385.00, 
2386.00, 
2387.00, 
2388.00, 
2389.00, 
2390.00, 
2391.00, 
2392.00, 
2393.00, 
2394.00, 
2395.00, 
2396.00, 
2397.00, 
2398.00, 
2399.00, 
2400.00, 
2401.00, 
2402.00, 
2403.00, 
2404.00, 
2405.00, 
2406.00, 
2407.00, 
2408.00, 
2409.00, 
2410.00, 
2411.00, 
2412.00, 
2413.00, 
2414.00, 
2415.00, 
2416.00, 
2417.00, 
2418.00, 
2419.00, 
2420.00, 
2421.00, 
2422.00, 
2423.00, 
2424.00, 
2425.00, 
2426.00, 
2427.00, 
2428.00, 
2429.00, 
2430.00, 
2431.00, 
2432.00, 
2433.00, 
2434.00, 
2435.00, 
2436.00, 
2437.00, 
2438.00, 
2439.00, 
2440.00, 
2441.00, 
2442.00, 
2443.00, 
2444.00, 
2445.00, 
2446.00, 
2447.00, 
2448.00, 
2449.00, 
2450.00, 
2451.00, 
2452.00, 
2453.00, 
2454.00, 
2455.00, 
2456.00, 
2457.00, 
2458.00, 
2459.00, 
2460.00, 
2461.00, 
2462.00, 
2463.00, 
2464.00, 
2465.00, 
2466.00, 
2467.00, 
2468.00, 
2469.00, 
2470.00, 
2471.00, 
2472.00, 
2473.00, 
2474.00, 
2475.00, 
2476.00, 
2477.00, 
2478.00, 
2479.00, 
2480.00, 
2481.00, 
2482.00, 
2483.00, 
2484.00, 
2485.00, 
2486.00, 
2487.00, 
2488.00, 
2489.00, 
2490.00, 
2491.00, 
2492.00, 
2493.00, 
2494.00, 
2495.00, 
2496.00, 
2497.00, 
2498.00, 
2499.00, 
2500.00, 
2501.00, 
2502.00, 
2503.00, 
2504.00, 
2505.00, 
2506.00, 
2507.00, 
2508.00, 
2509.00, 
2510.00, 
2511.00, 
2512.00, 
2513.00, 
2514.00, 
2515.00, 
2516.00, 
2517.00, 
2518.00, 
2519.00, 
2520.00, 
2521.00, 
2522.00, 
2523.00, 
2524.00, 
2525.00, 
2526.00, 
2527.00, 
2528.00, 
2529.00, 
2530.00, 
2531.00, 
2532.00, 
2533.00, 
2534.00, 
2535.00, 
2536.00, 
2537.00, 
2538.00, 
2539.00, 
2540.00, 
2541.00, 
2542.00, 
2543.00, 
2544.00, 
2545.00, 
2546.00, 
2547.00, 
2548.00, 
2549.00, 
2550.00, 
2551.00, 
2552.00, 
2553.00, 
2554.00, 
2555.00, 
2556.00, 
2557.00, 
2558.00, 
2559.00, 
2560.00, 
2561.00, 
2562.00, 
2563.00, 
2564.00, 
2565.00, 
2566.00, 
2567.00, 
2568.00, 
2569.00, 
2570.00, 
2571.00, 
2572.00, 
2573.00, 
2574.00, 
2575.00, 
2576.00, 
2577.00, 
2578.00, 
2579.00, 
2580.00, 
2581.00, 
2582.00, 
2583.00, 
2584.00, 
2585.00, 
2586.00, 
2587.00, 
2588.00, 
2589.00, 
2590.00, 
2591.00, 
2592.00, 
2593.00, 
2594.00, 
2595.00, 
2596.00, 
2597.00, 
2598.00, 
2599.00, 
2600.00, 
