"1cP3 - RawData"
"Wavelength nm.","T%"
200.00,-0.001
201.00,0.002
202.00,0.002
203.00,0.002
204.00,0.003
205.00,0.004
206.00,0.002
207.00,-0.001
208.00,0.001
209.00,0.003
210.00,0.002
211.00,0.001
212.00,0.002
213.00,-0.001
214.00,0.003
215.00,0.000
216.00,-0.000
217.00,0.003
218.00,0.000
219.00,0.001
220.00,0.001
221.00,0.001
222.00,0.002
223.00,0.002
224.00,0.000
225.00,0.001
226.00,0.001
227.00,0.002
228.00,0.002
229.00,0.000
230.00,0.001
231.00,-0.000
232.00,0.001
233.00,-0.000
234.00,0.001
235.00,0.001
236.00,0.001
237.00,0.000
238.00,0.001
239.00,-0.001
240.00,0.000
241.00,0.001
242.00,-0.000
243.00,-0.001
244.00,-0.001
245.00,0.000
246.00,0.002
247.00,-0.001
248.00,-0.001
249.00,-0.002
250.00,-0.001
251.00,0.000
252.00,0.000
253.00,0.002
254.00,0.001
255.00,-0.001
256.00,-0.002
257.00,0.001
258.00,-0.001
259.00,0.002
260.00,-0.001
261.00,-0.001
262.00,0.001
263.00,0.001
264.00,0.001
265.00,0.003
266.00,0.001
267.00,0.001
268.00,0.002
269.00,-0.001
270.00,0.000
271.00,0.002
272.00,-0.001
273.00,-0.001
274.00,-0.000
275.00,-0.001
276.00,0.001
277.00,-0.000
278.00,0.001
279.00,0.001
280.00,0.001
281.00,0.001
282.00,-0.001
283.00,0.000
284.00,0.001
285.00,-0.000
286.00,-0.000
287.00,0.002
288.00,-0.001
289.00,0.001
290.00,0.000
291.00,0.001
292.00,0.002
293.00,0.002
294.00,0.000
295.00,-0.000
296.00,-0.002
297.00,0.000
298.00,0.001
299.00,-0.000
300.00,0.000
301.00,0.001
302.00,-0.001
303.00,0.001
304.00,0.002
305.00,0.002
306.00,0.003
307.00,0.005
308.00,0.009
309.00,0.013
310.00,0.023
311.00,0.034
312.00,0.054
313.00,0.087
314.00,0.123
315.00,0.181
316.00,0.257
317.00,0.373
318.00,0.509
319.00,0.695
320.00,0.930
321.00,1.156
322.00,1.515
323.00,1.938
324.00,2.395
325.00,2.862
326.00,3.393
327.00,4.051
328.00,4.759
329.00,5.487
330.00,6.279
331.00,7.102
332.00,8.033
333.00,8.983
334.00,9.894
335.00,10.857
336.00,11.749
337.00,12.904
338.00,13.915
339.00,14.875
340.00,15.904
341.00,16.891
342.00,17.820
343.00,18.742
344.00,19.603
345.00,20.516
346.00,21.326
347.00,22.106
348.00,22.833
349.00,23.546
350.00,24.256
351.00,24.887
352.00,25.430
353.00,26.040
354.00,26.593
355.00,27.098
356.00,27.567
357.00,28.010
358.00,28.424
359.00,28.886
360.00,29.349
361.00,29.464
362.00,29.946
363.00,30.226
364.00,30.462
365.00,30.645
366.00,30.922
367.00,31.018
368.00,31.160
369.00,31.384
370.00,31.500
371.00,31.552
372.00,31.528
373.00,31.605
374.00,31.623
375.00,31.639
376.00,31.548
377.00,31.496
378.00,31.408
379.00,31.284
380.00,31.340
381.00,31.358
382.00,31.367
383.00,31.500
384.00,31.590
385.00,31.715
386.00,31.805
387.00,31.976
388.00,32.194
389.00,32.229
390.00,32.375
391.00,32.413
392.00,32.547
393.00,32.600
394.00,32.654
395.00,32.763
396.00,32.772
397.00,32.800
398.00,32.857
399.00,32.856
400.00,32.926
401.00,32.959
402.00,32.979
403.00,32.961
404.00,32.973
405.00,32.986
406.00,32.990
407.00,32.917
408.00,32.945
409.00,32.878
410.00,32.800
411.00,32.764
412.00,32.781
413.00,32.783
414.00,32.722
415.00,32.771
416.00,32.795
417.00,32.731
418.00,32.807
419.00,32.917
420.00,32.974
421.00,32.955
422.00,32.985
423.00,32.994
424.00,33.035
425.00,33.063
426.00,33.119
427.00,33.122
428.00,33.177
429.00,33.192
430.00,33.260
431.00,33.265
432.00,33.290
433.00,33.332
434.00,33.364
435.00,33.420
436.00,33.489
437.00,33.526
438.00,33.605
439.00,33.644
440.00,33.744
441.00,33.793
442.00,33.877
443.00,33.892
444.00,34.015
445.00,34.028
446.00,34.150
447.00,34.205
448.00,34.291
449.00,34.407
450.00,34.480
451.00,34.561
452.00,34.635
453.00,34.763
454.00,34.833
455.00,34.889
456.00,35.021
457.00,35.104
458.00,35.197
459.00,35.313
460.00,35.442
461.00,35.542
462.00,35.618
463.00,35.774
464.00,35.864
465.00,35.946
466.00,36.123
467.00,36.206
468.00,36.236
469.00,36.295
470.00,36.333
471.00,36.405
472.00,36.535
473.00,36.588
474.00,36.665
475.00,36.660
476.00,36.786
477.00,36.882
478.00,36.976
479.00,37.141
480.00,37.284
481.00,37.346
482.00,37.479
483.00,37.585
484.00,37.731
485.00,37.878
486.00,38.039
487.00,38.112
488.00,38.215
489.00,38.334
490.00,38.423
491.00,38.532
492.00,38.785
493.00,38.891
494.00,38.830
495.00,38.944
496.00,39.062
497.00,39.094
498.00,39.285
499.00,39.387
500.00,39.511
501.00,39.549
502.00,39.646
503.00,39.681
504.00,39.783
505.00,39.908
506.00,40.001
507.00,40.122
508.00,40.240
509.00,40.356
510.00,40.436
511.00,40.501
512.00,40.625
513.00,40.704
514.00,40.848
515.00,41.023
516.00,41.071
517.00,41.125
518.00,41.310
519.00,41.300
520.00,41.302
521.00,41.405
522.00,41.463
523.00,41.531
524.00,41.636
525.00,41.674
526.00,41.800
527.00,41.787
528.00,41.850
529.00,42.008
530.00,42.168
531.00,42.266
532.00,42.306
533.00,42.447
534.00,42.499
535.00,42.525
536.00,42.628
537.00,42.681
538.00,42.727
539.00,42.743
540.00,42.807
541.00,42.824
542.00,42.874
543.00,42.976
544.00,43.025
545.00,43.026
546.00,43.113
547.00,43.246
548.00,43.330
549.00,43.373
550.00,43.455
551.00,43.554
552.00,43.597
553.00,43.599
554.00,43.702
555.00,43.713
556.00,43.769
557.00,43.884
558.00,43.960
559.00,43.943
560.00,43.981
561.00,44.125
562.00,44.178
563.00,44.231
564.00,44.269
565.00,44.260
566.00,44.284
567.00,44.336
568.00,44.329
569.00,44.408
570.00,44.442
571.00,44.436
572.00,44.490
573.00,44.419
574.00,44.440
575.00,44.419
576.00,44.450
577.00,44.533
578.00,44.661
579.00,44.695
580.00,44.734
581.00,44.892
582.00,44.936
583.00,44.927
584.00,45.049
585.00,45.154
586.00,45.120
587.00,45.154
588.00,45.153
589.00,45.106
590.00,45.273
591.00,45.298
592.00,45.218
593.00,45.262
594.00,45.394
595.00,45.490
596.00,45.507
597.00,45.601
598.00,45.645
599.00,45.649
600.00,45.681
601.00,45.570
602.00,45.589
603.00,45.682
604.00,45.696
605.00,45.817
606.00,45.718
607.00,45.772
608.00,45.984
609.00,46.036
610.00,45.865
611.00,45.888
612.00,45.874
613.00,46.022
614.00,46.063
615.00,46.092
616.00,46.173
617.00,46.117
618.00,46.062
619.00,46.152
620.00,46.205
621.00,46.252
622.00,46.275
623.00,46.342
624.00,46.420
625.00,46.469
626.00,46.412
627.00,46.421
628.00,46.488
629.00,46.405
630.00,46.513
631.00,46.532
632.00,46.537
633.00,46.637
634.00,46.805
635.00,46.845
636.00,46.854
637.00,46.798
638.00,46.796
639.00,46.950
640.00,46.972
641.00,46.900
642.00,46.993
643.00,47.101
644.00,47.046
645.00,47.231
646.00,47.323
647.00,47.212
648.00,47.141
649.00,47.276
650.00,47.305
651.00,47.442
652.00,47.474
653.00,47.469
654.00,47.456
655.00,47.691
656.00,47.918
657.00,47.746
658.00,47.772
659.00,47.841
660.00,47.779
661.00,47.633
662.00,47.892
663.00,47.860
664.00,48.085
665.00,48.282
666.00,48.173
667.00,48.125
668.00,48.058
669.00,48.309
670.00,48.553
671.00,48.409
672.00,48.289
673.00,48.492
674.00,48.454
675.00,48.468
676.00,48.634
677.00,48.783
678.00,48.569
679.00,48.819
680.00,48.761
681.00,48.980
682.00,48.927
683.00,48.744
684.00,48.871
685.00,48.978
686.00,48.746
687.00,48.935
688.00,48.966
689.00,48.762
690.00,49.078
691.00,49.311
692.00,49.088
693.00,49.083
694.00,49.271
695.00,49.372
696.00,49.418
697.00,49.263
698.00,49.302
699.00,49.467
700.00,49.469
701.00,49.426
702.00,49.540
703.00,49.654
704.00,49.667
705.00,49.538
706.00,49.600
707.00,49.709
708.00,49.507
709.00,49.782
710.00,50.224
711.00,49.611
712.00,49.720
713.00,49.823
714.00,49.784
715.00,49.709
716.00,49.842
717.00,49.982
718.00,50.120
719.00,49.990
720.00,49.925
721.00,54.700
722.00,54.667
723.00,54.673
724.00,54.589
725.00,54.672
726.00,54.583
727.00,54.527
728.00,54.592
729.00,54.553
730.00,54.510
731.00,54.487
732.00,54.482
733.00,54.482
734.00,54.488
735.00,54.520
736.00,54.454
737.00,54.419
738.00,54.506
739.00,54.462
740.00,54.364
741.00,54.390
742.00,54.486
743.00,54.299
744.00,54.390
745.00,54.323
746.00,54.296
747.00,54.278
748.00,54.169
749.00,54.243
750.00,54.109
751.00,54.128
752.00,54.085
753.00,54.101
754.00,54.004
755.00,53.971
756.00,54.075
757.00,54.035
758.00,53.979
759.00,53.942
760.00,53.952
761.00,53.936
762.00,53.858
763.00,53.925
764.00,53.840
765.00,53.918
766.00,53.860
767.00,53.842
768.00,53.832
769.00,53.824
770.00,53.868
771.00,53.697
772.00,53.752
773.00,53.712
774.00,53.737
775.00,53.713
776.00,53.754
777.00,53.710
778.00,53.654
779.00,53.647
780.00,53.632
781.00,53.565
782.00,53.576
783.00,53.534
784.00,53.546
785.00,53.430
786.00,53.520
787.00,53.489
788.00,53.392
789.00,53.439
790.00,53.347
791.00,53.454
792.00,53.327
793.00,53.336
794.00,53.234
795.00,53.226
796.00,53.273
797.00,53.196
798.00,53.197
799.00,53.079
800.00,53.127
801.00,53.050
802.00,53.031
803.00,53.010
804.00,52.977
805.00,53.003
806.00,52.913
807.00,52.904
808.00,52.853
809.00,52.896
810.00,52.803
811.00,52.826
812.00,52.835
813.00,52.766
814.00,52.700
815.00,52.711
816.00,52.785
817.00,52.711
818.00,52.547
819.00,52.505
820.00,52.554
821.00,52.490
822.00,52.534
823.00,52.379
824.00,52.517
825.00,52.503
826.00,52.463
827.00,52.509
828.00,52.367
829.00,52.358
830.00,52.379
831.00,54.748
832.00,54.713
833.00,54.655
834.00,54.675
835.00,54.605
836.00,54.619
837.00,54.556
838.00,54.540
839.00,54.651
840.00,54.500
841.00,54.488
842.00,54.484
843.00,54.452
844.00,54.435
845.00,54.379
846.00,54.373
847.00,54.339
848.00,54.309
849.00,54.249
850.00,54.229
851.00,54.171
852.00,54.158
853.00,54.078
854.00,54.094
855.00,53.998
856.00,54.012
857.00,53.948
858.00,53.949
859.00,53.917
860.00,53.895
861.00,53.884
862.00,53.848
863.00,53.842
864.00,53.782
865.00,53.838
866.00,53.797
867.00,53.799
868.00,53.745
869.00,53.739
870.00,53.730
871.00,53.713
872.00,53.684
873.00,53.675
874.00,53.683
875.00,53.630
876.00,53.634
877.00,53.610
878.00,53.647
879.00,53.570
880.00,53.578
881.00,53.545
882.00,53.577
883.00,53.507
884.00,53.480
885.00,53.467
886.00,53.445
887.00,53.382
888.00,53.367
889.00,53.369
890.00,53.340
891.00,53.293
892.00,53.285
893.00,53.254
894.00,53.228
895.00,53.192
896.00,53.185
897.00,53.165
898.00,53.137
899.00,53.128
900.00,53.121
901.00,53.098
902.00,53.108
903.00,53.064
904.00,53.055
905.00,53.021
906.00,53.041
907.00,52.910
908.00,52.931
909.00,52.924
910.00,52.871
911.00,52.915
912.00,52.879
913.00,52.851
914.00,52.824
915.00,52.799
916.00,52.788
917.00,52.777
918.00,52.758
919.00,52.640
920.00,52.760
921.00,52.681
922.00,52.655
923.00,52.644
924.00,52.580
925.00,52.592
926.00,52.591
927.00,52.577
928.00,52.531
929.00,52.537
930.00,52.499
931.00,52.478
932.00,52.426
933.00,52.426
934.00,52.351
935.00,52.345
936.00,52.335
937.00,52.341
938.00,52.335
939.00,52.301
940.00,52.279
941.00,52.289
942.00,52.246
943.00,52.220
944.00,52.178
945.00,52.221
946.00,52.183
947.00,52.097
948.00,52.136
949.00,52.151
950.00,52.073
951.00,52.071
952.00,52.020
953.00,51.999
954.00,51.972
955.00,51.927
956.00,51.926
957.00,51.891
958.00,51.910
959.00,51.859
960.00,51.854
961.00,51.840
962.00,51.835
963.00,51.765
964.00,51.786
965.00,51.780
966.00,51.727
967.00,51.739
968.00,51.706
969.00,51.727
970.00,51.701
971.00,51.723
972.00,51.694
973.00,51.730
974.00,51.741
975.00,51.707
976.00,51.726
977.00,51.694
978.00,51.744
979.00,51.689
980.00,51.697
981.00,51.710
982.00,51.686
983.00,51.687
984.00,51.662
985.00,51.670
986.00,51.626
987.00,51.648
988.00,51.596
989.00,51.605
990.00,51.586
991.00,51.569
992.00,51.594
993.00,51.574
994.00,51.538
995.00,51.527
996.00,51.514
997.00,51.504
998.00,51.488
999.00,51.488
1000.00,51.458
1001.00,51.439
1002.00,51.445
1003.00,51.467
1004.00,51.410
1005.00,51.390
1006.00,51.432
1007.00,51.392
1008.00,51.381
1009.00,51.357
1010.00,51.344
1011.00,51.338
1012.00,51.305
1013.00,51.308
1014.00,51.278
1015.00,51.290
1016.00,51.256
1017.00,51.249
1018.00,51.226
1019.00,51.219
1020.00,51.198
1021.00,51.162
1022.00,51.171
1023.00,51.133
1024.00,51.137
1025.00,51.124
1026.00,51.107
1027.00,51.072
1028.00,51.063
1029.00,51.037
1030.00,51.019
1031.00,51.028
1032.00,50.971
1033.00,51.000
1034.00,50.969
1035.00,50.930
1036.00,50.925
1037.00,50.908
1038.00,50.886
1039.00,50.867
1040.00,50.852
1041.00,50.808
1042.00,50.802
1043.00,50.765
1044.00,50.815
1045.00,50.796
1046.00,50.775
1047.00,50.815
1048.00,50.810
1049.00,50.834
1050.00,50.835
1051.00,50.857
1052.00,50.856
1053.00,50.861
1054.00,50.852
1055.00,50.877
1056.00,50.884
1057.00,50.884
1058.00,50.869
1059.00,50.875
1060.00,50.883
1061.00,50.872
1062.00,50.850
1063.00,50.874
1064.00,50.861
1065.00,50.828
1066.00,50.843
1067.00,50.836
1068.00,50.855
1069.00,50.806
1070.00,50.793
1071.00,50.775
1072.00,50.801
1073.00,50.781
1074.00,50.782
1075.00,50.763
1076.00,50.753
1077.00,50.749
1078.00,50.726
1079.00,50.723
1080.00,50.731
1081.00,50.717
1082.00,50.714
1083.00,50.719
1084.00,50.703
1085.00,50.699
1086.00,50.677
1087.00,50.691
1088.00,50.694
1089.00,50.651
1090.00,50.648
1091.00,50.662
1092.00,50.639
1093.00,50.634
1094.00,50.628
1095.00,50.609
1096.00,50.592
1097.00,50.597
1098.00,50.580
1099.00,50.562
1100.00,50.559
1101.00,50.548
1102.00,50.539
1103.00,50.541
1104.00,50.530
1105.00,50.527
1106.00,50.500
1107.00,50.491
1108.00,50.490
1109.00,50.471
1110.00,50.483
1111.00,50.467
1112.00,50.446
1113.00,50.454
1114.00,50.435
1115.00,50.447
1116.00,50.433
1117.00,50.400
1118.00,50.393
1119.00,50.397
1120.00,50.401
1121.00,50.423
1122.00,50.399
1123.00,50.390
1124.00,50.398
1125.00,50.379
1126.00,50.382
1127.00,50.404
1128.00,50.393
1129.00,50.343
1130.00,50.330
1131.00,50.325
1132.00,50.331
1133.00,50.333
1134.00,50.306
1135.00,50.307
1136.00,50.312
1137.00,50.316
1138.00,50.320
1139.00,50.310
1140.00,50.303
1141.00,50.303
1142.00,50.274
1143.00,50.312
1144.00,50.273
1145.00,50.273
1146.00,50.285
1147.00,50.257
1148.00,50.269
1149.00,50.314
1150.00,50.271
1151.00,50.264
1152.00,50.257
1153.00,50.258
1154.00,50.253
1155.00,50.250
1156.00,50.239
1157.00,50.254
1158.00,50.241
1159.00,50.246
1160.00,50.251
1161.00,50.265
1162.00,50.254
1163.00,50.259
1164.00,50.255
1165.00,50.242
1166.00,50.249
1167.00,50.245
1168.00,50.264
1169.00,50.245
1170.00,50.241
1171.00,50.210
1172.00,50.209
1173.00,50.204
1174.00,50.231
1175.00,50.199
1176.00,50.235
1177.00,50.238
1178.00,50.206
1179.00,50.241
1180.00,50.209
1181.00,50.231
1182.00,50.229
1183.00,50.211
1184.00,50.200
1185.00,50.214
1186.00,50.190
1187.00,50.201
1188.00,50.195
1189.00,50.195
1190.00,50.195
1191.00,50.180
1192.00,50.216
1193.00,50.203
1194.00,50.204
1195.00,50.187
1196.00,50.222
1197.00,50.210
1198.00,50.205
1199.00,50.210
1200.00,50.205
1201.00,50.211
1202.00,50.185
1203.00,50.212
1204.00,50.213
1205.00,50.220
1206.00,50.206
1207.00,50.217
1208.00,50.188
1209.00,50.214
1210.00,50.225
1211.00,50.203
1212.00,50.236
1213.00,50.189
1214.00,50.224
1215.00,50.219
1216.00,50.213
1217.00,50.220
1218.00,50.210
1219.00,50.211
1220.00,50.210
1221.00,50.221
1222.00,50.211
1223.00,50.249
1224.00,50.227
1225.00,50.234
1226.00,50.239
1227.00,50.215
1228.00,50.241
1229.00,50.229
1230.00,50.245
1231.00,50.252
1232.00,50.273
1233.00,50.277
1234.00,50.283
1235.00,50.281
1236.00,50.282
1237.00,50.302
1238.00,50.276
1239.00,50.299
1240.00,50.280
1241.00,50.273
1242.00,50.287
1243.00,50.305
1244.00,50.289
1245.00,50.329
1246.00,50.334
1247.00,50.322
1248.00,50.326
1249.00,50.322
1250.00,50.328
1251.00,50.311
1252.00,50.318
1253.00,50.321
1254.00,50.348
1255.00,50.343
1256.00,50.343
1257.00,50.315
1258.00,50.369
1259.00,50.367
1260.00,50.381
1261.00,50.375
1262.00,50.374
1263.00,50.353
1264.00,50.365
1265.00,50.375
1266.00,50.376
1267.00,50.401
1268.00,50.409
1269.00,50.433
1270.00,50.461
1271.00,50.446
1272.00,50.460
1273.00,50.467
1274.00,50.443
1275.00,50.466
1276.00,50.460
1277.00,50.459
1278.00,50.487
1279.00,50.484
1280.00,50.485
1281.00,50.505
1282.00,50.527
1283.00,50.512
1284.00,50.516
1285.00,50.488
1286.00,50.534
1287.00,50.506
1288.00,50.495
1289.00,50.508
1290.00,50.539
1291.00,50.545
1292.00,50.553
1293.00,50.564
1294.00,50.571
1295.00,50.586
1296.00,50.573
1297.00,50.603
1298.00,50.618
1299.00,50.588
1300.00,50.605
1301.00,50.590
1302.00,50.641
1303.00,50.647
1304.00,50.620
1305.00,50.670
1306.00,50.666
1307.00,50.650
1308.00,50.677
1309.00,50.691
1310.00,50.689
1311.00,50.678
1312.00,50.686
1313.00,50.692
1314.00,50.726
1315.00,50.731
1316.00,50.747
1317.00,50.772
1318.00,50.758
1319.00,50.787
1320.00,50.781
1321.00,50.922
1322.00,50.929
1323.00,50.907
1324.00,50.894
1325.00,50.895
1326.00,50.918
1327.00,50.928
1328.00,50.929
1329.00,50.926
1330.00,50.949
1331.00,50.936
1332.00,50.937
1333.00,50.969
1334.00,50.965
1335.00,50.986
1336.00,51.020
1337.00,51.055
1338.00,51.131
1339.00,51.171
1340.00,51.222
1341.00,51.299
1342.00,51.349
1343.00,51.382
1344.00,51.439
1345.00,51.512
1346.00,51.555
1347.00,51.569
1348.00,51.597
1349.00,51.610
1350.00,51.638
1351.00,51.640
1352.00,51.680
1353.00,51.665
1354.00,51.682
1355.00,51.671
1356.00,51.658
1357.00,51.704
1358.00,51.779
1359.00,51.720
1360.00,51.761
1361.00,51.771
1362.00,51.705
1363.00,51.767
1364.00,51.850
1365.00,51.714
1366.00,51.779
1367.00,51.671
1368.00,51.697
1369.00,51.732
1370.00,51.708
1371.00,51.673
1372.00,51.712
1373.00,51.748
1374.00,51.789
1375.00,51.740
1376.00,51.733
1377.00,51.753
1378.00,51.839
1379.00,51.766
1380.00,51.770
1381.00,51.788
1382.00,51.717
1383.00,51.806
1384.00,51.709
1385.00,51.709
1386.00,51.743
1387.00,51.728
1388.00,51.766
1389.00,51.786
1390.00,51.932
1391.00,51.597
1392.00,51.768
1393.00,51.813
1394.00,51.782
1395.00,51.682
1396.00,51.665
1397.00,51.672
1398.00,51.747
1399.00,51.700
1400.00,51.676
1401.00,51.686
1402.00,51.864
1403.00,51.749
1404.00,51.761
1405.00,51.819
1406.00,51.801
1407.00,51.806
1408.00,51.860
1409.00,51.855
1410.00,51.844
1411.00,51.822
1412.00,51.931
1413.00,51.802
1414.00,51.830
1415.00,51.880
1416.00,51.908
1417.00,51.936
1418.00,51.910
1419.00,51.928
1420.00,51.951
1421.00,52.004
1422.00,51.975
1423.00,52.002
1424.00,51.994
1425.00,52.012
1426.00,52.024
1427.00,52.066
1428.00,52.049
1429.00,52.077
1430.00,52.083
1431.00,52.092
1432.00,52.153
1433.00,52.161
1434.00,52.187
1435.00,52.226
1436.00,52.245
1437.00,52.224
1438.00,52.232
1439.00,52.264
1440.00,52.291
1441.00,52.283
1442.00,52.288
1443.00,52.312
1444.00,52.428
1445.00,52.345
1446.00,52.365
1447.00,52.398
1448.00,52.450
1449.00,52.473
1450.00,52.441
1451.00,52.463
1452.00,52.514
1453.00,52.503
1454.00,52.540
1455.00,52.547
1456.00,52.555
1457.00,52.556
1458.00,52.584
1459.00,52.607
1460.00,52.634
1461.00,52.623
1462.00,52.675
1463.00,52.666
1464.00,52.681
1465.00,52.719
1466.00,52.720
1467.00,52.732
1468.00,52.801
1469.00,52.762
1470.00,52.805
1471.00,52.830
1472.00,52.828
1473.00,52.843
1474.00,52.875
1475.00,52.897
1476.00,52.922
1477.00,52.903
1478.00,52.932
1479.00,52.959
1480.00,52.947
1481.00,52.966
1482.00,53.018
1483.00,52.991
1484.00,53.017
1485.00,53.017
1486.00,53.040
1487.00,53.075
1488.00,53.094
1489.00,53.090
1490.00,53.098
1491.00,53.110
1492.00,53.154
1493.00,53.123
1494.00,53.166
1495.00,53.177
1496.00,53.204
1497.00,53.179
1498.00,53.219
1499.00,53.239
1500.00,53.247
1501.00, 
1502.00, 
1503.00, 
1504.00, 
1505.00, 
1506.00, 
1507.00, 
1508.00, 
1509.00, 
1510.00, 
1511.00, 
1512.00, 
1513.00, 
1514.00, 
1515.00, 
1516.00, 
1517.00, 
1518.00, 
1519.00, 
1520.00, 
1521.00, 
1522.00, 
1523.00, 
1524.00, 
1525.00, 
1526.00, 
1527.00, 
1528.00, 
1529.00, 
1530.00, 
1531.00, 
1532.00, 
1533.00, 
1534.00, 
1535.00, 
1536.00, 
1537.00, 
1538.00, 
1539.00, 
1540.00, 
1541.00, 
1542.00, 
1543.00, 
1544.00, 
1545.00, 
1546.00, 
1547.00, 
1548.00, 
1549.00, 
1550.00, 
1551.00, 
1552.00, 
1553.00, 
1554.00, 
1555.00, 
1556.00, 
1557.00, 
1558.00, 
1559.00, 
1560.00, 
1561.00, 
1562.00, 
1563.00, 
1564.00, 
1565.00, 
1566.00, 
1567.00, 
1568.00, 
1569.00, 
1570.00, 
1571.00, 
1572.00, 
1573.00, 
1574.00, 
1575.00, 
1576.00, 
1577.00, 
1578.00, 
1579.00, 
1580.00, 
1581.00, 
1582.00, 
1583.00, 
1584.00, 
1585.00, 
1586.00, 
1587.00, 
1588.00, 
1589.00, 
1590.00, 
1591.00, 
1592.00, 
1593.00, 
1594.00, 
1595.00, 
1596.00, 
1597.00, 
1598.00, 
1599.00, 
1600.00, 
1601.00, 
1602.00, 
1603.00, 
1604.00, 
1605.00, 
1606.00, 
1607.00, 
1608.00, 
1609.00, 
1610.00, 
1611.00, 
1612.00, 
1613.00, 
1614.00, 
1615.00, 
1616.00, 
1617.00, 
1618.00, 
1619.00, 
1620.00, 
1621.00, 
1622.00, 
1623.00, 
1624.00, 
1625.00, 
1626.00, 
1627.00, 
1628.00, 
1629.00, 
1630.00, 
1631.00, 
1632.00, 
1633.00, 
1634.00, 
1635.00, 
1636.00, 
1637.00, 
1638.00, 
1639.00, 
1640.00, 
1641.00, 
1642.00, 
1643.00, 
1644.00, 
1645.00, 
1646.00, 
1647.00, 
1648.00, 
1649.00, 
1650.00, 
1651.00, 
1652.00, 
1653.00, 
1654.00, 
1655.00, 
1656.00, 
1657.00, 
1658.00, 
1659.00, 
1660.00, 
1661.00, 
1662.00, 
1663.00, 
1664.00, 
1665.00, 
1666.00, 
1667.00, 
1668.00, 
1669.00, 
1670.00, 
1671.00, 
1672.00, 
1673.00, 
1674.00, 
1675.00, 
1676.00, 
1677.00, 
1678.00, 
1679.00, 
1680.00, 
1681.00, 
1682.00, 
1683.00, 
1684.00, 
1685.00, 
1686.00, 
1687.00, 
1688.00, 
1689.00, 
1690.00, 
1691.00, 
1692.00, 
1693.00, 
1694.00, 
1695.00, 
1696.00, 
1697.00, 
1698.00, 
1699.00, 
1700.00, 
1701.00, 
1702.00, 
1703.00, 
1704.00, 
1705.00, 
1706.00, 
1707.00, 
1708.00, 
1709.00, 
1710.00, 
1711.00, 
1712.00, 
1713.00, 
1714.00, 
1715.00, 
1716.00, 
1717.00, 
1718.00, 
1719.00, 
1720.00, 
1721.00, 
1722.00, 
1723.00, 
1724.00, 
1725.00, 
1726.00, 
1727.00, 
1728.00, 
1729.00, 
1730.00, 
1731.00, 
1732.00, 
1733.00, 
1734.00, 
1735.00, 
1736.00, 
1737.00, 
1738.00, 
1739.00, 
1740.00, 
1741.00, 
1742.00, 
1743.00, 
1744.00, 
1745.00, 
1746.00, 
1747.00, 
1748.00, 
1749.00, 
1750.00, 
1751.00, 
1752.00, 
1753.00, 
1754.00, 
1755.00, 
1756.00, 
1757.00, 
1758.00, 
1759.00, 
1760.00, 
1761.00, 
1762.00, 
1763.00, 
1764.00, 
1765.00, 
1766.00, 
1767.00, 
1768.00, 
1769.00, 
1770.00, 
1771.00, 
1772.00, 
1773.00, 
1774.00, 
1775.00, 
1776.00, 
1777.00, 
1778.00, 
1779.00, 
1780.00, 
1781.00, 
1782.00, 
1783.00, 
1784.00, 
1785.00, 
1786.00, 
1787.00, 
1788.00, 
1789.00, 
1790.00, 
1791.00, 
1792.00, 
1793.00, 
1794.00, 
1795.00, 
1796.00, 
1797.00, 
1798.00, 
1799.00, 
1800.00, 
1801.00, 
1802.00, 
1803.00, 
1804.00, 
1805.00, 
1806.00, 
1807.00, 
1808.00, 
1809.00, 
1810.00, 
1811.00, 
1812.00, 
1813.00, 
1814.00, 
1815.00, 
1816.00, 
1817.00, 
1818.00, 
1819.00, 
1820.00, 
1821.00, 
1822.00, 
1823.00, 
1824.00, 
1825.00, 
1826.00, 
1827.00, 
1828.00, 
1829.00, 
1830.00, 
1831.00, 
1832.00, 
1833.00, 
1834.00, 
1835.00, 
1836.00, 
1837.00, 
1838.00, 
1839.00, 
1840.00, 
1841.00, 
1842.00, 
1843.00, 
1844.00, 
1845.00, 
1846.00, 
1847.00, 
1848.00, 
1849.00, 
1850.00, 
1851.00, 
1852.00, 
1853.00, 
1854.00, 
1855.00, 
1856.00, 
1857.00, 
1858.00, 
1859.00, 
1860.00, 
1861.00, 
1862.00, 
1863.00, 
1864.00, 
1865.00, 
1866.00, 
1867.00, 
1868.00, 
1869.00, 
1870.00, 
1871.00, 
1872.00, 
1873.00, 
1874.00, 
1875.00, 
1876.00, 
1877.00, 
1878.00, 
1879.00, 
1880.00, 
1881.00, 
1882.00, 
1883.00, 
1884.00, 
1885.00, 
1886.00, 
1887.00, 
1888.00, 
1889.00, 
1890.00, 
1891.00, 
1892.00, 
1893.00, 
1894.00, 
1895.00, 
1896.00, 
1897.00, 
1898.00, 
1899.00, 
1900.00, 
1901.00, 
1902.00, 
1903.00, 
1904.00, 
1905.00, 
1906.00, 
1907.00, 
1908.00, 
1909.00, 
1910.00, 
1911.00, 
1912.00, 
1913.00, 
1914.00, 
1915.00, 
1916.00, 
1917.00, 
1918.00, 
1919.00, 
1920.00, 
1921.00, 
1922.00, 
1923.00, 
1924.00, 
1925.00, 
1926.00, 
1927.00, 
1928.00, 
1929.00, 
1930.00, 
1931.00, 
1932.00, 
1933.00, 
1934.00, 
1935.00, 
1936.00, 
1937.00, 
1938.00, 
1939.00, 
1940.00, 
1941.00, 
1942.00, 
1943.00, 
1944.00, 
1945.00, 
1946.00, 
1947.00, 
1948.00, 
1949.00, 
1950.00, 
1951.00, 
1952.00, 
1953.00, 
1954.00, 
1955.00, 
1956.00, 
1957.00, 
1958.00, 
1959.00, 
1960.00, 
1961.00, 
1962.00, 
1963.00, 
1964.00, 
1965.00, 
1966.00, 
1967.00, 
1968.00, 
1969.00, 
1970.00, 
1971.00, 
1972.00, 
1973.00, 
1974.00, 
1975.00, 
1976.00, 
1977.00, 
1978.00, 
1979.00, 
1980.00, 
1981.00, 
1982.00, 
1983.00, 
1984.00, 
1985.00, 
1986.00, 
1987.00, 
1988.00, 
1989.00, 
1990.00, 
1991.00, 
1992.00, 
1993.00, 
1994.00, 
1995.00, 
1996.00, 
1997.00, 
1998.00, 
1999.00, 
2000.00, 
2001.00, 
2002.00, 
2003.00, 
2004.00, 
2005.00, 
2006.00, 
2007.00, 
2008.00, 
2009.00, 
2010.00, 
2011.00, 
2012.00, 
2013.00, 
2014.00, 
2015.00, 
2016.00, 
2017.00, 
2018.00, 
2019.00, 
2020.00, 
2021.00, 
2022.00, 
2023.00, 
2024.00, 
2025.00, 
2026.00, 
2027.00, 
2028.00, 
2029.00, 
2030.00, 
2031.00, 
2032.00, 
2033.00, 
2034.00, 
2035.00, 
2036.00, 
2037.00, 
2038.00, 
2039.00, 
2040.00, 
2041.00, 
2042.00, 
2043.00, 
2044.00, 
2045.00, 
2046.00, 
2047.00, 
2048.00, 
2049.00, 
2050.00, 
2051.00, 
2052.00, 
2053.00, 
2054.00, 
2055.00, 
2056.00, 
2057.00, 
2058.00, 
2059.00, 
2060.00, 
2061.00, 
2062.00, 
2063.00, 
2064.00, 
2065.00, 
2066.00, 
2067.00, 
2068.00, 
2069.00, 
2070.00, 
2071.00, 
2072.00, 
2073.00, 
2074.00, 
2075.00, 
2076.00, 
2077.00, 
2078.00, 
2079.00, 
2080.00, 
2081.00, 
2082.00, 
2083.00, 
2084.00, 
2085.00, 
2086.00, 
2087.00, 
2088.00, 
2089.00, 
2090.00, 
2091.00, 
2092.00, 
2093.00, 
2094.00, 
2095.00, 
2096.00, 
2097.00, 
2098.00, 
2099.00, 
2100.00, 
2101.00, 
2102.00, 
2103.00, 
2104.00, 
2105.00, 
2106.00, 
2107.00, 
2108.00, 
2109.00, 
2110.00, 
2111.00, 
2112.00, 
2113.00, 
2114.00, 
2115.00, 
2116.00, 
2117.00, 
2118.00, 
2119.00, 
2120.00, 
2121.00, 
2122.00, 
2123.00, 
2124.00, 
2125.00, 
2126.00, 
2127.00, 
2128.00, 
2129.00, 
2130.00, 
2131.00, 
2132.00, 
2133.00, 
2134.00, 
2135.00, 
2136.00, 
2137.00, 
2138.00, 
2139.00, 
2140.00, 
2141.00, 
2142.00, 
2143.00, 
2144.00, 
2145.00, 
2146.00, 
2147.00, 
2148.00, 
2149.00, 
2150.00, 
2151.00, 
2152.00, 
2153.00, 
2154.00, 
2155.00, 
2156.00, 
2157.00, 
2158.00, 
2159.00, 
2160.00, 
2161.00, 
2162.00, 
2163.00, 
2164.00, 
2165.00, 
2166.00, 
2167.00, 
2168.00, 
2169.00, 
2170.00, 
2171.00, 
2172.00, 
2173.00, 
2174.00, 
2175.00, 
2176.00, 
2177.00, 
2178.00, 
2179.00, 
2180.00, 
2181.00, 
2182.00, 
2183.00, 
2184.00, 
2185.00, 
2186.00, 
2187.00, 
2188.00, 
2189.00, 
2190.00, 
2191.00, 
2192.00, 
2193.00, 
2194.00, 
2195.00, 
2196.00, 
2197.00, 
2198.00, 
2199.00, 
2200.00, 
2201.00, 
2202.00, 
2203.00, 
2204.00, 
2205.00, 
2206.00, 
2207.00, 
2208.00, 
2209.00, 
2210.00, 
2211.00, 
2212.00, 
2213.00, 
2214.00, 
2215.00, 
2216.00, 
2217.00, 
2218.00, 
2219.00, 
2220.00, 
2221.00, 
2222.00, 
2223.00, 
2224.00, 
2225.00, 
2226.00, 
2227.00, 
2228.00, 
2229.00, 
2230.00, 
2231.00, 
2232.00, 
2233.00, 
2234.00, 
2235.00, 
2236.00, 
2237.00, 
2238.00, 
2239.00, 
2240.00, 
2241.00, 
2242.00, 
2243.00, 
2244.00, 
2245.00, 
2246.00, 
2247.00, 
2248.00, 
2249.00, 
2250.00, 
2251.00, 
2252.00, 
2253.00, 
2254.00, 
2255.00, 
2256.00, 
2257.00, 
2258.00, 
2259.00, 
2260.00, 
2261.00, 
2262.00, 
2263.00, 
2264.00, 
2265.00, 
2266.00, 
2267.00, 
2268.00, 
2269.00, 
2270.00, 
2271.00, 
2272.00, 
2273.00, 
2274.00, 
2275.00, 
2276.00, 
2277.00, 
2278.00, 
2279.00, 
2280.00, 
2281.00, 
2282.00, 
2283.00, 
2284.00, 
2285.00, 
2286.00, 
2287.00, 
2288.00, 
2289.00, 
2290.00, 
2291.00, 
2292.00, 
2293.00, 
2294.00, 
2295.00, 
2296.00, 
2297.00, 
2298.00, 
2299.00, 
2300.00, 
2301.00, 
2302.00, 
2303.00, 
2304.00, 
2305.00, 
2306.00, 
2307.00, 
2308.00, 
2309.00, 
2310.00, 
2311.00, 
2312.00, 
2313.00, 
2314.00, 
2315.00, 
2316.00, 
2317.00, 
2318.00, 
2319.00, 
2320.00, 
2321.00, 
2322.00, 
2323.00, 
2324.00, 
2325.00, 
2326.00, 
2327.00, 
2328.00, 
2329.00, 
2330.00, 
2331.00, 
2332.00, 
2333.00, 
2334.00, 
2335.00, 
2336.00, 
2337.00, 
2338.00, 
2339.00, 
2340.00, 
2341.00, 
2342.00, 
2343.00, 
2344.00, 
2345.00, 
2346.00, 
2347.00, 
2348.00, 
2349.00, 
2350.00, 
2351.00, 
2352.00, 
2353.00, 
2354.00, 
2355.00, 
2356.00, 
2357.00, 
2358.00, 
2359.00, 
2360.00, 
2361.00, 
2362.00, 
2363.00, 
2364.00, 
2365.00, 
2366.00, 
2367.00, 
2368.00, 
2369.00, 
2370.00, 
2371.00, 
2372.00, 
2373.00, 
2374.00, 
2375.00, 
2376.00, 
2377.00, 
2378.00, 
2379.00, 
2380.00, 
2381.00, 
2382.00, 
2383.00, 
2384.00, 
2385.00, 
2386.00, 
2387.00, 
2388.00, 
2389.00, 
2390.00, 
2391.00, 
2392.00, 
2393.00, 
2394.00, 
2395.00, 
2396.00, 
2397.00, 
2398.00, 
2399.00, 
2400.00, 
2401.00, 
2402.00, 
2403.00, 
2404.00, 
2405.00, 
2406.00, 
2407.00, 
2408.00, 
2409.00, 
2410.00, 
2411.00, 
2412.00, 
2413.00, 
2414.00, 
2415.00, 
2416.00, 
2417.00, 
2418.00, 
2419.00, 
2420.00, 
2421.00, 
2422.00, 
2423.00, 
2424.00, 
2425.00, 
2426.00, 
2427.00, 
2428.00, 
2429.00, 
2430.00, 
2431.00, 
2432.00, 
2433.00, 
2434.00, 
2435.00, 
2436.00, 
2437.00, 
2438.00, 
2439.00, 
2440.00, 
2441.00, 
2442.00, 
2443.00, 
2444.00, 
2445.00, 
2446.00, 
2447.00, 
2448.00, 
2449.00, 
2450.00, 
2451.00, 
2452.00, 
2453.00, 
2454.00, 
2455.00, 
2456.00, 
2457.00, 
2458.00, 
2459.00, 
2460.00, 
2461.00, 
2462.00, 
2463.00, 
2464.00, 
2465.00, 
2466.00, 
2467.00, 
2468.00, 
2469.00, 
2470.00, 
2471.00, 
2472.00, 
2473.00, 
2474.00, 
2475.00, 
2476.00, 
2477.00, 
2478.00, 
2479.00, 
2480.00, 
2481.00, 
2482.00, 
2483.00, 
2484.00, 
2485.00, 
2486.00, 
2487.00, 
2488.00, 
2489.00, 
2490.00, 
2491.00, 
2492.00, 
2493.00, 
2494.00, 
2495.00, 
2496.00, 
2497.00, 
2498.00, 
2499.00, 
2500.00, 
2501.00, 
2502.00, 
2503.00, 
2504.00, 
2505.00, 
2506.00, 
2507.00, 
2508.00, 
2509.00, 
2510.00, 
2511.00, 
2512.00, 
2513.00, 
2514.00, 
2515.00, 
2516.00, 
2517.00, 
2518.00, 
2519.00, 
2520.00, 
2521.00, 
2522.00, 
2523.00, 
2524.00, 
2525.00, 
2526.00, 
2527.00, 
2528.00, 
2529.00, 
2530.00, 
2531.00, 
2532.00, 
2533.00, 
2534.00, 
2535.00, 
2536.00, 
2537.00, 
2538.00, 
2539.00, 
2540.00, 
2541.00, 
2542.00, 
2543.00, 
2544.00, 
2545.00, 
2546.00, 
2547.00, 
2548.00, 
2549.00, 
2550.00, 
2551.00, 
2552.00, 
2553.00, 
2554.00, 
2555.00, 
2556.00, 
2557.00, 
2558.00, 
2559.00, 
2560.00, 
2561.00, 
2562.00, 
2563.00, 
2564.00, 
2565.00, 
2566.00, 
2567.00, 
2568.00, 
2569.00, 
2570.00, 
2571.00, 
2572.00, 
2573.00, 
2574.00, 
2575.00, 
2576.00, 
2577.00, 
2578.00, 
2579.00, 
2580.00, 
2581.00, 
2582.00, 
2583.00, 
2584.00, 
2585.00, 
2586.00, 
2587.00, 
2588.00, 
2589.00, 
2590.00, 
2591.00, 
2592.00, 
2593.00, 
2594.00, 
2595.00, 
2596.00, 
2597.00, 
2598.00, 
2599.00, 
2600.00, 
