"1cP3 - RawData"
"Wavelength nm.","T%"
200.00,0.000
201.00,0.001
202.00,0.003
203.00,0.001
204.00,0.002
205.00,0.003
206.00,0.002
207.00,-0.003
208.00,0.003
209.00,-0.000
210.00,-0.001
211.00,0.001
212.00,-0.001
213.00,-0.001
214.00,0.001
215.00,0.003
216.00,0.003
217.00,0.001
218.00,0.001
219.00,0.000
220.00,0.002
221.00,0.001
222.00,-0.000
223.00,-0.000
224.00,-0.003
225.00,0.002
226.00,-0.001
227.00,0.002
228.00,0.001
229.00,-0.000
230.00,0.000
231.00,0.001
232.00,0.001
233.00,0.001
234.00,0.001
235.00,0.001
236.00,-0.001
237.00,-0.001
238.00,0.001
239.00,-0.000
240.00,0.000
241.00,0.001
242.00,0.001
243.00,0.002
244.00,0.000
245.00,-0.000
246.00,-0.001
247.00,-0.001
248.00,-0.001
249.00,0.001
250.00,0.000
251.00,0.001
252.00,0.001
253.00,0.000
254.00,-0.001
255.00,-0.001
256.00,0.002
257.00,-0.000
258.00,0.002
259.00,0.000
260.00,0.001
261.00,-0.001
262.00,0.000
263.00,-0.002
264.00,-0.000
265.00,-0.002
266.00,0.001
267.00,-0.000
268.00,-0.001
269.00,-0.000
270.00,-0.001
271.00,0.001
272.00,-0.001
273.00,-0.001
274.00,0.000
275.00,-0.000
276.00,-0.000
277.00,0.002
278.00,0.001
279.00,0.001
280.00,-0.000
281.00,0.000
282.00,-0.001
283.00,0.001
284.00,0.000
285.00,-0.001
286.00,-0.001
287.00,0.001
288.00,0.000
289.00,-0.001
290.00,-0.001
291.00,0.003
292.00,0.001
293.00,0.000
294.00,0.000
295.00,-0.001
296.00,-0.000
297.00,0.001
298.00,-0.000
299.00,0.003
300.00,-0.000
301.00,0.001
302.00,-0.000
303.00,-0.000
304.00,0.000
305.00,0.001
306.00,0.001
307.00,0.004
308.00,0.005
309.00,0.011
310.00,0.018
311.00,0.029
312.00,0.039
313.00,0.065
314.00,0.095
315.00,0.141
316.00,0.202
317.00,0.283
318.00,0.383
319.00,0.495
320.00,0.670
321.00,0.879
322.00,1.114
323.00,1.414
324.00,1.724
325.00,2.069
326.00,2.456
327.00,2.894
328.00,3.402
329.00,3.914
330.00,4.478
331.00,5.023
332.00,5.628
333.00,6.290
334.00,6.902
335.00,7.611
336.00,8.235
337.00,8.975
338.00,9.678
339.00,10.303
340.00,10.988
341.00,11.519
342.00,12.188
343.00,12.809
344.00,13.407
345.00,13.943
346.00,14.491
347.00,14.984
348.00,15.469
349.00,15.921
350.00,16.402
351.00,16.775
352.00,17.118
353.00,17.470
354.00,17.801
355.00,18.136
356.00,18.468
357.00,18.759
358.00,18.995
359.00,19.234
360.00,19.456
361.00,19.609
362.00,19.784
363.00,19.986
364.00,20.101
365.00,20.244
366.00,20.321
367.00,20.420
368.00,20.508
369.00,20.579
370.00,20.581
371.00,20.638
372.00,20.582
373.00,20.614
374.00,20.526
375.00,20.546
376.00,20.496
377.00,20.362
378.00,20.321
379.00,20.217
380.00,20.230
381.00,20.204
382.00,20.248
383.00,20.291
384.00,20.355
385.00,20.411
386.00,20.441
387.00,20.516
388.00,20.579
389.00,20.634
390.00,20.663
391.00,20.683
392.00,20.759
393.00,20.773
394.00,20.782
395.00,20.812
396.00,20.790
397.00,20.803
398.00,20.812
399.00,20.830
400.00,20.846
401.00,20.806
402.00,20.818
403.00,20.791
404.00,20.792
405.00,20.766
406.00,20.751
407.00,20.692
408.00,20.705
409.00,20.656
410.00,20.604
411.00,20.577
412.00,20.548
413.00,20.597
414.00,20.543
415.00,20.577
416.00,20.588
417.00,20.559
418.00,20.600
419.00,20.617
420.00,20.588
421.00,20.671
422.00,20.678
423.00,20.680
424.00,20.710
425.00,20.745
426.00,20.744
427.00,20.792
428.00,20.851
429.00,20.856
430.00,20.947
431.00,20.944
432.00,21.001
433.00,21.044
434.00,21.060
435.00,21.125
436.00,21.187
437.00,21.226
438.00,21.291
439.00,21.347
440.00,21.398
441.00,21.454
442.00,21.507
443.00,21.603
444.00,21.700
445.00,21.754
446.00,21.857
447.00,21.878
448.00,21.990
449.00,22.120
450.00,22.151
451.00,22.274
452.00,22.364
453.00,22.457
454.00,22.533
455.00,22.649
456.00,22.734
457.00,22.873
458.00,22.975
459.00,23.063
460.00,23.158
461.00,23.293
462.00,23.402
463.00,23.494
464.00,23.620
465.00,23.730
466.00,23.826
467.00,23.905
468.00,24.027
469.00,24.154
470.00,24.204
471.00,24.375
472.00,24.469
473.00,24.545
474.00,24.662
475.00,24.807
476.00,24.870
477.00,25.001
478.00,25.119
479.00,25.268
480.00,25.379
481.00,25.536
482.00,25.698
483.00,25.829
484.00,25.951
485.00,26.106
486.00,26.211
487.00,26.359
488.00,26.521
489.00,26.614
490.00,26.741
491.00,26.887
492.00,26.954
493.00,27.140
494.00,27.290
495.00,27.304
496.00,27.402
497.00,27.528
498.00,27.665
499.00,27.782
500.00,27.897
501.00,27.969
502.00,28.135
503.00,28.301
504.00,28.368
505.00,28.499
506.00,28.586
507.00,28.733
508.00,28.857
509.00,28.946
510.00,29.123
511.00,29.210
512.00,29.296
513.00,29.425
514.00,29.530
515.00,29.601
516.00,29.752
517.00,29.806
518.00,29.946
519.00,30.040
520.00,30.167
521.00,30.263
522.00,30.322
523.00,30.481
524.00,30.526
525.00,30.700
526.00,30.744
527.00,30.869
528.00,30.916
529.00,31.016
530.00,31.117
531.00,31.167
532.00,31.288
533.00,31.370
534.00,31.467
535.00,31.499
536.00,31.678
537.00,31.613
538.00,31.845
539.00,31.948
540.00,31.954
541.00,32.066
542.00,32.113
543.00,32.194
544.00,32.282
545.00,32.359
546.00,32.414
547.00,32.501
548.00,32.552
549.00,32.608
550.00,32.723
551.00,32.769
552.00,32.812
553.00,32.894
554.00,32.987
555.00,33.078
556.00,33.095
557.00,33.180
558.00,33.253
559.00,33.313
560.00,33.399
561.00,33.439
562.00,33.510
563.00,33.503
564.00,33.592
565.00,33.643
566.00,33.664
567.00,33.690
568.00,33.741
569.00,33.836
570.00,33.820
571.00,33.878
572.00,33.948
573.00,33.908
574.00,33.999
575.00,34.079
576.00,34.113
577.00,34.136
578.00,34.250
579.00,34.328
580.00,34.373
581.00,34.485
582.00,34.535
583.00,34.605
584.00,34.608
585.00,34.713
586.00,34.792
587.00,34.825
588.00,34.884
589.00,34.955
590.00,34.956
591.00,35.012
592.00,35.113
593.00,35.075
594.00,35.038
595.00,35.111
596.00,35.148
597.00,35.280
598.00,35.324
599.00,35.373
600.00,35.441
601.00,35.442
602.00,35.569
603.00,35.613
604.00,35.640
605.00,35.677
606.00,35.709
607.00,35.803
608.00,35.859
609.00,35.895
610.00,35.975
611.00,35.955
612.00,35.950
613.00,36.020
614.00,36.087
615.00,36.121
616.00,36.179
617.00,36.174
618.00,36.296
619.00,36.255
620.00,36.392
621.00,36.461
622.00,36.358
623.00,36.499
624.00,36.601
625.00,36.687
626.00,36.788
627.00,36.764
628.00,36.837
629.00,36.871
630.00,36.902
631.00,36.956
632.00,37.051
633.00,37.055
634.00,37.119
635.00,37.235
636.00,37.291
637.00,37.361
638.00,37.439
639.00,37.549
640.00,37.613
641.00,37.673
642.00,37.736
643.00,37.816
644.00,37.873
645.00,37.956
646.00,38.035
647.00,38.063
648.00,38.238
649.00,38.182
650.00,38.273
651.00,38.360
652.00,38.374
653.00,38.575
654.00,38.611
655.00,38.656
656.00,38.712
657.00,38.797
658.00,38.929
659.00,39.049
660.00,39.178
661.00,39.220
662.00,39.261
663.00,39.259
664.00,39.419
665.00,39.573
666.00,39.509
667.00,39.691
668.00,39.615
669.00,39.870
670.00,39.956
671.00,39.862
672.00,39.946
673.00,40.089
674.00,40.198
675.00,40.305
676.00,40.411
677.00,40.570
678.00,40.561
679.00,40.610
680.00,40.618
681.00,40.766
682.00,40.897
683.00,40.932
684.00,41.080
685.00,41.209
686.00,41.200
687.00,41.226
688.00,41.352
689.00,41.331
690.00,41.443
691.00,41.546
692.00,41.547
693.00,41.674
694.00,41.650
695.00,41.833
696.00,41.885
697.00,41.900
698.00,42.026
699.00,42.185
700.00,42.283
701.00,42.369
702.00,42.315
703.00,42.422
704.00,42.695
705.00,42.637
706.00,42.626
707.00,42.937
708.00,42.718
709.00,42.856
710.00,43.121
711.00,42.954
712.00,42.955
713.00,43.114
714.00,43.111
715.00,43.248
716.00,43.311
717.00,43.336
718.00,43.278
719.00,43.398
720.00,43.388
721.00,48.429
722.00,48.498
723.00,48.469
724.00,48.482
725.00,48.454
726.00,48.459
727.00,48.542
728.00,48.468
729.00,48.539
730.00,48.553
731.00,48.613
732.00,48.549
733.00,48.585
734.00,48.710
735.00,48.659
736.00,48.743
737.00,48.667
738.00,48.739
739.00,48.687
740.00,48.763
741.00,48.868
742.00,48.824
743.00,48.837
744.00,48.871
745.00,48.821
746.00,48.766
747.00,48.856
748.00,48.890
749.00,48.860
750.00,48.874
751.00,48.835
752.00,48.882
753.00,48.747
754.00,48.814
755.00,48.821
756.00,48.760
757.00,48.793
758.00,48.858
759.00,48.879
760.00,48.908
761.00,48.857
762.00,48.856
763.00,48.873
764.00,48.885
765.00,48.934
766.00,48.932
767.00,49.008
768.00,48.990
769.00,48.942
770.00,48.985
771.00,48.922
772.00,48.934
773.00,48.993
774.00,49.014
775.00,48.968
776.00,49.000
777.00,49.060
778.00,49.023
779.00,49.041
780.00,48.990
781.00,49.026
782.00,49.006
783.00,49.030
784.00,48.980
785.00,49.005
786.00,49.013
787.00,48.992
788.00,48.918
789.00,48.918
790.00,48.964
791.00,48.939
792.00,48.959
793.00,48.929
794.00,48.890
795.00,48.869
796.00,48.871
797.00,48.823
798.00,48.852
799.00,48.818
800.00,48.785
801.00,48.777
802.00,48.761
803.00,48.848
804.00,48.689
805.00,48.730
806.00,48.657
807.00,48.745
808.00,48.684
809.00,48.595
810.00,48.621
811.00,48.565
812.00,48.588
813.00,48.519
814.00,48.589
815.00,48.606
816.00,48.579
817.00,48.600
818.00,48.501
819.00,48.506
820.00,48.464
821.00,48.541
822.00,48.437
823.00,48.485
824.00,48.446
825.00,48.472
826.00,48.501
827.00,48.442
828.00,48.383
829.00,48.335
830.00,48.413
831.00,50.660
832.00,50.524
833.00,50.539
834.00,50.523
835.00,50.502
836.00,50.515
837.00,50.482
838.00,50.485
839.00,50.437
840.00,50.415
841.00,50.398
842.00,50.359
843.00,50.369
844.00,50.340
845.00,50.309
846.00,50.316
847.00,50.274
848.00,50.216
849.00,50.219
850.00,50.165
851.00,50.157
852.00,50.114
853.00,50.068
854.00,50.044
855.00,49.997
856.00,49.991
857.00,49.969
858.00,49.935
859.00,49.880
860.00,49.909
861.00,49.867
862.00,49.881
863.00,49.816
864.00,49.853
865.00,49.797
866.00,49.785
867.00,49.771
868.00,49.852
869.00,49.785
870.00,49.704
871.00,49.729
872.00,49.694
873.00,49.698
874.00,49.672
875.00,49.687
876.00,49.641
877.00,49.677
878.00,49.619
879.00,49.648
880.00,49.609
881.00,49.613
882.00,49.627
883.00,49.566
884.00,49.558
885.00,49.497
886.00,49.487
887.00,49.450
888.00,49.451
889.00,49.443
890.00,49.414
891.00,49.414
892.00,49.402
893.00,49.377
894.00,49.321
895.00,49.323
896.00,49.308
897.00,49.284
898.00,49.255
899.00,49.246
900.00,49.242
901.00,49.244
902.00,49.213
903.00,49.173
904.00,49.207
905.00,49.147
906.00,49.142
907.00,49.117
908.00,49.103
909.00,49.072
910.00,49.064
911.00,49.037
912.00,49.013
913.00,49.000
914.00,49.033
915.00,48.973
916.00,48.954
917.00,48.925
918.00,48.933
919.00,48.875
920.00,48.873
921.00,48.884
922.00,48.837
923.00,48.789
924.00,48.810
925.00,48.786
926.00,48.766
927.00,48.720
928.00,48.737
929.00,48.700
930.00,48.675
931.00,48.647
932.00,48.599
933.00,48.705
934.00,48.621
935.00,48.596
936.00,48.589
937.00,48.555
938.00,48.531
939.00,48.517
940.00,48.517
941.00,48.482
942.00,48.452
943.00,48.457
944.00,48.406
945.00,48.436
946.00,48.383
947.00,48.382
948.00,48.389
949.00,48.324
950.00,48.288
951.00,48.295
952.00,48.279
953.00,48.241
954.00,48.205
955.00,48.196
956.00,48.162
957.00,48.116
958.00,48.116
959.00,48.098
960.00,48.062
961.00,48.046
962.00,48.055
963.00,48.020
964.00,48.021
965.00,47.990
966.00,48.009
967.00,47.970
968.00,47.997
969.00,47.951
970.00,47.959
971.00,47.964
972.00,47.930
973.00,47.967
974.00,47.938
975.00,47.963
976.00,47.947
977.00,47.966
978.00,47.983
979.00,47.965
980.00,47.985
981.00,47.961
982.00,47.982
983.00,47.931
984.00,47.966
985.00,47.958
986.00,47.949
987.00,47.946
988.00,47.907
989.00,47.915
990.00,47.891
991.00,47.909
992.00,47.899
993.00,47.871
994.00,47.826
995.00,47.815
996.00,47.845
997.00,47.798
998.00,47.806
999.00,47.799
1000.00,47.775
1001.00,47.782
1002.00,47.757
1003.00,47.779
1004.00,47.721
1005.00,47.713
1006.00,47.722
1007.00,47.698
1008.00,47.679
1009.00,47.720
1010.00,47.689
1011.00,47.644
1012.00,47.661
1013.00,47.631
1014.00,47.601
1015.00,47.608
1016.00,47.561
1017.00,47.566
1018.00,47.556
1019.00,47.552
1020.00,47.518
1021.00,47.525
1022.00,47.492
1023.00,47.482
1024.00,47.478
1025.00,47.451
1026.00,47.449
1027.00,47.392
1028.00,47.414
1029.00,47.373
1030.00,47.364
1031.00,47.354
1032.00,47.316
1033.00,47.322
1034.00,47.310
1035.00,47.279
1036.00,47.244
1037.00,47.241
1038.00,47.203
1039.00,47.202
1040.00,47.186
1041.00,47.156
1042.00,47.153
1043.00,47.133
1044.00,47.158
1045.00,47.129
1046.00,47.138
1047.00,47.132
1048.00,47.166
1049.00,47.136
1050.00,47.170
1051.00,47.156
1052.00,47.199
1053.00,47.208
1054.00,47.213
1055.00,47.206
1056.00,47.223
1057.00,47.255
1058.00,47.235
1059.00,47.225
1060.00,47.221
1061.00,47.227
1062.00,47.199
1063.00,47.204
1064.00,47.195
1065.00,47.200
1066.00,47.168
1067.00,47.193
1068.00,47.175
1069.00,47.173
1070.00,47.136
1071.00,47.124
1072.00,47.136
1073.00,47.118
1074.00,47.107
1075.00,47.077
1076.00,47.094
1077.00,47.075
1078.00,47.057
1079.00,47.052
1080.00,47.057
1081.00,47.034
1082.00,47.035
1083.00,47.009
1084.00,47.027
1085.00,47.007
1086.00,47.012
1087.00,47.002
1088.00,46.999
1089.00,46.985
1090.00,46.984
1091.00,46.978
1092.00,46.988
1093.00,46.948
1094.00,46.938
1095.00,46.910
1096.00,46.912
1097.00,46.919
1098.00,46.927
1099.00,46.879
1100.00,46.889
1101.00,46.879
1102.00,46.864
1103.00,46.855
1104.00,46.858
1105.00,46.851
1106.00,46.825
1107.00,46.804
1108.00,46.813
1109.00,46.825
1110.00,46.839
1111.00,46.794
1112.00,46.799
1113.00,46.772
1114.00,46.774
1115.00,46.779
1116.00,46.803
1117.00,46.761
1118.00,46.754
1119.00,46.738
1120.00,46.752
1121.00,46.733
1122.00,46.734
1123.00,46.723
1124.00,46.728
1125.00,46.708
1126.00,46.694
1127.00,46.699
1128.00,46.709
1129.00,46.680
1130.00,46.689
1131.00,46.668
1132.00,46.657
1133.00,46.649
1134.00,46.647
1135.00,46.625
1136.00,46.639
1137.00,46.616
1138.00,46.625
1139.00,46.600
1140.00,46.622
1141.00,46.613
1142.00,46.609
1143.00,46.582
1144.00,46.589
1145.00,46.580
1146.00,46.584
1147.00,46.591
1148.00,46.574
1149.00,46.589
1150.00,46.582
1151.00,46.581
1152.00,46.600
1153.00,46.589
1154.00,46.582
1155.00,46.573
1156.00,46.563
1157.00,46.568
1158.00,46.565
1159.00,46.556
1160.00,46.557
1161.00,46.558
1162.00,46.547
1163.00,46.559
1164.00,46.545
1165.00,46.543
1166.00,46.546
1167.00,46.530
1168.00,46.540
1169.00,46.558
1170.00,46.518
1171.00,46.548
1172.00,46.541
1173.00,46.503
1174.00,46.517
1175.00,46.529
1176.00,46.515
1177.00,46.493
1178.00,46.504
1179.00,46.498
1180.00,46.493
1181.00,46.502
1182.00,46.514
1183.00,46.484
1184.00,46.481
1185.00,46.499
1186.00,46.496
1187.00,46.488
1188.00,46.473
1189.00,46.506
1190.00,46.471
1191.00,46.506
1192.00,46.491
1193.00,46.488
1194.00,46.484
1195.00,46.457
1196.00,46.484
1197.00,46.495
1198.00,46.475
1199.00,46.465
1200.00,46.465
1201.00,46.480
1202.00,46.479
1203.00,46.455
1204.00,46.502
1205.00,46.486
1206.00,46.498
1207.00,46.498
1208.00,46.461
1209.00,46.477
1210.00,46.451
1211.00,46.469
1212.00,46.483
1213.00,46.463
1214.00,46.456
1215.00,46.453
1216.00,46.463
1217.00,46.452
1218.00,46.456
1219.00,46.461
1220.00,46.472
1221.00,46.458
1222.00,46.453
1223.00,46.494
1224.00,46.481
1225.00,46.479
1226.00,46.472
1227.00,46.477
1228.00,46.458
1229.00,46.487
1230.00,46.519
1231.00,46.500
1232.00,46.526
1233.00,46.534
1234.00,46.542
1235.00,46.518
1236.00,46.527
1237.00,46.521
1238.00,46.534
1239.00,46.520
1240.00,46.527
1241.00,46.531
1242.00,46.527
1243.00,46.552
1244.00,46.538
1245.00,46.551
1246.00,46.550
1247.00,46.548
1248.00,46.551
1249.00,46.558
1250.00,46.545
1251.00,46.574
1252.00,46.576
1253.00,46.568
1254.00,46.579
1255.00,46.607
1256.00,46.582
1257.00,46.580
1258.00,46.584
1259.00,46.601
1260.00,46.630
1261.00,46.609
1262.00,46.634
1263.00,46.622
1264.00,46.626
1265.00,46.629
1266.00,46.618
1267.00,46.647
1268.00,46.659
1269.00,46.621
1270.00,46.664
1271.00,46.661
1272.00,46.664
1273.00,46.671
1274.00,46.699
1275.00,46.679
1276.00,46.689
1277.00,46.690
1278.00,46.718
1279.00,46.701
1280.00,46.694
1281.00,46.716
1282.00,46.719
1283.00,46.720
1284.00,46.741
1285.00,46.716
1286.00,46.697
1287.00,46.727
1288.00,46.733
1289.00,46.714
1290.00,46.740
1291.00,46.736
1292.00,46.739
1293.00,46.732
1294.00,46.748
1295.00,46.797
1296.00,46.752
1297.00,46.785
1298.00,46.799
1299.00,46.805
1300.00,46.810
1301.00,46.805
1302.00,46.820
1303.00,46.837
1304.00,46.821
1305.00,46.836
1306.00,46.846
1307.00,46.863
1308.00,46.846
1309.00,46.863
1310.00,46.885
1311.00,46.878
1312.00,46.870
1313.00,46.858
1314.00,46.913
1315.00,46.886
1316.00,46.889
1317.00,46.924
1318.00,46.946
1319.00,46.924
1320.00,46.941
1321.00,47.094
1322.00,47.116
1323.00,47.090
1324.00,47.092
1325.00,47.070
1326.00,47.082
1327.00,47.061
1328.00,47.105
1329.00,47.079
1330.00,47.093
1331.00,47.094
1332.00,47.100
1333.00,47.105
1334.00,47.109
1335.00,47.122
1336.00,47.146
1337.00,47.169
1338.00,47.242
1339.00,47.286
1340.00,47.335
1341.00,47.396
1342.00,47.466
1343.00,47.510
1344.00,47.574
1345.00,47.632
1346.00,47.662
1347.00,47.730
1348.00,47.716
1349.00,47.757
1350.00,47.769
1351.00,47.794
1352.00,47.827
1353.00,47.851
1354.00,47.856
1355.00,47.848
1356.00,47.799
1357.00,47.829
1358.00,47.892
1359.00,47.866
1360.00,47.826
1361.00,47.924
1362.00,47.880
1363.00,47.889
1364.00,48.005
1365.00,47.933
1366.00,47.900
1367.00,47.903
1368.00,47.861
1369.00,47.914
1370.00,47.859
1371.00,47.844
1372.00,47.638
1373.00,47.944
1374.00,47.865
1375.00,47.847
1376.00,47.857
1377.00,47.852
1378.00,47.874
1379.00,47.809
1380.00,47.863
1381.00,47.880
1382.00,47.830
1383.00,48.028
1384.00,47.836
1385.00,47.787
1386.00,47.914
1387.00,47.865
1388.00,47.786
1389.00,47.792
1390.00,47.894
1391.00,47.898
1392.00,47.787
1393.00,47.807
1394.00,47.881
1395.00,47.799
1396.00,47.728
1397.00,47.798
1398.00,47.884
1399.00,47.855
1400.00,47.759
1401.00,47.790
1402.00,47.836
1403.00,47.844
1404.00,47.809
1405.00,47.857
1406.00,47.847
1407.00,47.882
1408.00,47.915
1409.00,47.897
1410.00,47.889
1411.00,47.892
1412.00,47.897
1413.00,47.857
1414.00,47.859
1415.00,47.878
1416.00,47.899
1417.00,47.907
1418.00,47.940
1419.00,47.898
1420.00,48.002
1421.00,47.984
1422.00,48.033
1423.00,48.006
1424.00,48.031
1425.00,48.015
1426.00,48.034
1427.00,48.073
1428.00,48.049
1429.00,48.064
1430.00,48.102
1431.00,48.089
1432.00,48.117
1433.00,48.139
1434.00,48.138
1435.00,48.192
1436.00,48.194
1437.00,48.190
1438.00,48.225
1439.00,48.256
1440.00,48.256
1441.00,48.282
1442.00,48.284
1443.00,48.340
1444.00,48.328
1445.00,48.336
1446.00,48.342
1447.00,48.398
1448.00,48.403
1449.00,48.442
1450.00,48.406
1451.00,48.443
1452.00,48.464
1453.00,48.477
1454.00,48.473
1455.00,48.515
1456.00,48.513
1457.00,48.536
1458.00,48.546
1459.00,48.568
1460.00,48.592
1461.00,48.588
1462.00,48.633
1463.00,48.639
1464.00,48.630
1465.00,48.673
1466.00,48.651
1467.00,48.677
1468.00,48.719
1469.00,48.720
1470.00,48.731
1471.00,48.761
1472.00,48.752
1473.00,48.781
1474.00,48.813
1475.00,48.823
1476.00,48.845
1477.00,48.821
1478.00,48.834
1479.00,48.868
1480.00,48.845
1481.00,48.897
1482.00,48.920
1483.00,48.906
1484.00,48.928
1485.00,48.957
1486.00,48.953
1487.00,48.951
1488.00,48.977
1489.00,49.008
1490.00,49.001
1491.00,49.022
1492.00,49.021
1493.00,49.052
1494.00,49.052
1495.00,49.077
1496.00,49.095
1497.00,49.105
1498.00,49.107
1499.00,49.135
1500.00,49.136
1501.00, 
1502.00, 
1503.00, 
1504.00, 
1505.00, 
1506.00, 
1507.00, 
1508.00, 
1509.00, 
1510.00, 
1511.00, 
1512.00, 
1513.00, 
1514.00, 
1515.00, 
1516.00, 
1517.00, 
1518.00, 
1519.00, 
1520.00, 
1521.00, 
1522.00, 
1523.00, 
1524.00, 
1525.00, 
1526.00, 
1527.00, 
1528.00, 
1529.00, 
1530.00, 
1531.00, 
1532.00, 
1533.00, 
1534.00, 
1535.00, 
1536.00, 
1537.00, 
1538.00, 
1539.00, 
1540.00, 
1541.00, 
1542.00, 
1543.00, 
1544.00, 
1545.00, 
1546.00, 
1547.00, 
1548.00, 
1549.00, 
1550.00, 
1551.00, 
1552.00, 
1553.00, 
1554.00, 
1555.00, 
1556.00, 
1557.00, 
1558.00, 
1559.00, 
1560.00, 
1561.00, 
1562.00, 
1563.00, 
1564.00, 
1565.00, 
1566.00, 
1567.00, 
1568.00, 
1569.00, 
1570.00, 
1571.00, 
1572.00, 
1573.00, 
1574.00, 
1575.00, 
1576.00, 
1577.00, 
1578.00, 
1579.00, 
1580.00, 
1581.00, 
1582.00, 
1583.00, 
1584.00, 
1585.00, 
1586.00, 
1587.00, 
1588.00, 
1589.00, 
1590.00, 
1591.00, 
1592.00, 
1593.00, 
1594.00, 
1595.00, 
1596.00, 
1597.00, 
1598.00, 
1599.00, 
1600.00, 
1601.00, 
1602.00, 
1603.00, 
1604.00, 
1605.00, 
1606.00, 
1607.00, 
1608.00, 
1609.00, 
1610.00, 
1611.00, 
1612.00, 
1613.00, 
1614.00, 
1615.00, 
1616.00, 
1617.00, 
1618.00, 
1619.00, 
1620.00, 
1621.00, 
1622.00, 
1623.00, 
1624.00, 
1625.00, 
1626.00, 
1627.00, 
1628.00, 
1629.00, 
1630.00, 
1631.00, 
1632.00, 
1633.00, 
1634.00, 
1635.00, 
1636.00, 
1637.00, 
1638.00, 
1639.00, 
1640.00, 
1641.00, 
1642.00, 
1643.00, 
1644.00, 
1645.00, 
1646.00, 
1647.00, 
1648.00, 
1649.00, 
1650.00, 
1651.00, 
1652.00, 
1653.00, 
1654.00, 
1655.00, 
1656.00, 
1657.00, 
1658.00, 
1659.00, 
1660.00, 
1661.00, 
1662.00, 
1663.00, 
1664.00, 
1665.00, 
1666.00, 
1667.00, 
1668.00, 
1669.00, 
1670.00, 
1671.00, 
1672.00, 
1673.00, 
1674.00, 
1675.00, 
1676.00, 
1677.00, 
1678.00, 
1679.00, 
1680.00, 
1681.00, 
1682.00, 
1683.00, 
1684.00, 
1685.00, 
1686.00, 
1687.00, 
1688.00, 
1689.00, 
1690.00, 
1691.00, 
1692.00, 
1693.00, 
1694.00, 
1695.00, 
1696.00, 
1697.00, 
1698.00, 
1699.00, 
1700.00, 
1701.00, 
1702.00, 
1703.00, 
1704.00, 
1705.00, 
1706.00, 
1707.00, 
1708.00, 
1709.00, 
1710.00, 
1711.00, 
1712.00, 
1713.00, 
1714.00, 
1715.00, 
1716.00, 
1717.00, 
1718.00, 
1719.00, 
1720.00, 
1721.00, 
1722.00, 
1723.00, 
1724.00, 
1725.00, 
1726.00, 
1727.00, 
1728.00, 
1729.00, 
1730.00, 
1731.00, 
1732.00, 
1733.00, 
1734.00, 
1735.00, 
1736.00, 
1737.00, 
1738.00, 
1739.00, 
1740.00, 
1741.00, 
1742.00, 
1743.00, 
1744.00, 
1745.00, 
1746.00, 
1747.00, 
1748.00, 
1749.00, 
1750.00, 
1751.00, 
1752.00, 
1753.00, 
1754.00, 
1755.00, 
1756.00, 
1757.00, 
1758.00, 
1759.00, 
1760.00, 
1761.00, 
1762.00, 
1763.00, 
1764.00, 
1765.00, 
1766.00, 
1767.00, 
1768.00, 
1769.00, 
1770.00, 
1771.00, 
1772.00, 
1773.00, 
1774.00, 
1775.00, 
1776.00, 
1777.00, 
1778.00, 
1779.00, 
1780.00, 
1781.00, 
1782.00, 
1783.00, 
1784.00, 
1785.00, 
1786.00, 
1787.00, 
1788.00, 
1789.00, 
1790.00, 
1791.00, 
1792.00, 
1793.00, 
1794.00, 
1795.00, 
1796.00, 
1797.00, 
1798.00, 
1799.00, 
1800.00, 
1801.00, 
1802.00, 
1803.00, 
1804.00, 
1805.00, 
1806.00, 
1807.00, 
1808.00, 
1809.00, 
1810.00, 
1811.00, 
1812.00, 
1813.00, 
1814.00, 
1815.00, 
1816.00, 
1817.00, 
1818.00, 
1819.00, 
1820.00, 
1821.00, 
1822.00, 
1823.00, 
1824.00, 
1825.00, 
1826.00, 
1827.00, 
1828.00, 
1829.00, 
1830.00, 
1831.00, 
1832.00, 
1833.00, 
1834.00, 
1835.00, 
1836.00, 
1837.00, 
1838.00, 
1839.00, 
1840.00, 
1841.00, 
1842.00, 
1843.00, 
1844.00, 
1845.00, 
1846.00, 
1847.00, 
1848.00, 
1849.00, 
1850.00, 
1851.00, 
1852.00, 
1853.00, 
1854.00, 
1855.00, 
1856.00, 
1857.00, 
1858.00, 
1859.00, 
1860.00, 
1861.00, 
1862.00, 
1863.00, 
1864.00, 
1865.00, 
1866.00, 
1867.00, 
1868.00, 
1869.00, 
1870.00, 
1871.00, 
1872.00, 
1873.00, 
1874.00, 
1875.00, 
1876.00, 
1877.00, 
1878.00, 
1879.00, 
1880.00, 
1881.00, 
1882.00, 
1883.00, 
1884.00, 
1885.00, 
1886.00, 
1887.00, 
1888.00, 
1889.00, 
1890.00, 
1891.00, 
1892.00, 
1893.00, 
1894.00, 
1895.00, 
1896.00, 
1897.00, 
1898.00, 
1899.00, 
1900.00, 
1901.00, 
1902.00, 
1903.00, 
1904.00, 
1905.00, 
1906.00, 
1907.00, 
1908.00, 
1909.00, 
1910.00, 
1911.00, 
1912.00, 
1913.00, 
1914.00, 
1915.00, 
1916.00, 
1917.00, 
1918.00, 
1919.00, 
1920.00, 
1921.00, 
1922.00, 
1923.00, 
1924.00, 
1925.00, 
1926.00, 
1927.00, 
1928.00, 
1929.00, 
1930.00, 
1931.00, 
1932.00, 
1933.00, 
1934.00, 
1935.00, 
1936.00, 
1937.00, 
1938.00, 
1939.00, 
1940.00, 
1941.00, 
1942.00, 
1943.00, 
1944.00, 
1945.00, 
1946.00, 
1947.00, 
1948.00, 
1949.00, 
1950.00, 
1951.00, 
1952.00, 
1953.00, 
1954.00, 
1955.00, 
1956.00, 
1957.00, 
1958.00, 
1959.00, 
1960.00, 
1961.00, 
1962.00, 
1963.00, 
1964.00, 
1965.00, 
1966.00, 
1967.00, 
1968.00, 
1969.00, 
1970.00, 
1971.00, 
1972.00, 
1973.00, 
1974.00, 
1975.00, 
1976.00, 
1977.00, 
1978.00, 
1979.00, 
1980.00, 
1981.00, 
1982.00, 
1983.00, 
1984.00, 
1985.00, 
1986.00, 
1987.00, 
1988.00, 
1989.00, 
1990.00, 
1991.00, 
1992.00, 
1993.00, 
1994.00, 
1995.00, 
1996.00, 
1997.00, 
1998.00, 
1999.00, 
2000.00, 
2001.00, 
2002.00, 
2003.00, 
2004.00, 
2005.00, 
2006.00, 
2007.00, 
2008.00, 
2009.00, 
2010.00, 
2011.00, 
2012.00, 
2013.00, 
2014.00, 
2015.00, 
2016.00, 
2017.00, 
2018.00, 
2019.00, 
2020.00, 
2021.00, 
2022.00, 
2023.00, 
2024.00, 
2025.00, 
2026.00, 
2027.00, 
2028.00, 
2029.00, 
2030.00, 
2031.00, 
2032.00, 
2033.00, 
2034.00, 
2035.00, 
2036.00, 
2037.00, 
2038.00, 
2039.00, 
2040.00, 
2041.00, 
2042.00, 
2043.00, 
2044.00, 
2045.00, 
2046.00, 
2047.00, 
2048.00, 
2049.00, 
2050.00, 
2051.00, 
2052.00, 
2053.00, 
2054.00, 
2055.00, 
2056.00, 
2057.00, 
2058.00, 
2059.00, 
2060.00, 
2061.00, 
2062.00, 
2063.00, 
2064.00, 
2065.00, 
2066.00, 
2067.00, 
2068.00, 
2069.00, 
2070.00, 
2071.00, 
2072.00, 
2073.00, 
2074.00, 
2075.00, 
2076.00, 
2077.00, 
2078.00, 
2079.00, 
2080.00, 
2081.00, 
2082.00, 
2083.00, 
2084.00, 
2085.00, 
2086.00, 
2087.00, 
2088.00, 
2089.00, 
2090.00, 
2091.00, 
2092.00, 
2093.00, 
2094.00, 
2095.00, 
2096.00, 
2097.00, 
2098.00, 
2099.00, 
2100.00, 
2101.00, 
2102.00, 
2103.00, 
2104.00, 
2105.00, 
2106.00, 
2107.00, 
2108.00, 
2109.00, 
2110.00, 
2111.00, 
2112.00, 
2113.00, 
2114.00, 
2115.00, 
2116.00, 
2117.00, 
2118.00, 
2119.00, 
2120.00, 
2121.00, 
2122.00, 
2123.00, 
2124.00, 
2125.00, 
2126.00, 
2127.00, 
2128.00, 
2129.00, 
2130.00, 
2131.00, 
2132.00, 
2133.00, 
2134.00, 
2135.00, 
2136.00, 
2137.00, 
2138.00, 
2139.00, 
2140.00, 
2141.00, 
2142.00, 
2143.00, 
2144.00, 
2145.00, 
2146.00, 
2147.00, 
2148.00, 
2149.00, 
2150.00, 
2151.00, 
2152.00, 
2153.00, 
2154.00, 
2155.00, 
2156.00, 
2157.00, 
2158.00, 
2159.00, 
2160.00, 
2161.00, 
2162.00, 
2163.00, 
2164.00, 
2165.00, 
2166.00, 
2167.00, 
2168.00, 
2169.00, 
2170.00, 
2171.00, 
2172.00, 
2173.00, 
2174.00, 
2175.00, 
2176.00, 
2177.00, 
2178.00, 
2179.00, 
2180.00, 
2181.00, 
2182.00, 
2183.00, 
2184.00, 
2185.00, 
2186.00, 
2187.00, 
2188.00, 
2189.00, 
2190.00, 
2191.00, 
2192.00, 
2193.00, 
2194.00, 
2195.00, 
2196.00, 
2197.00, 
2198.00, 
2199.00, 
2200.00, 
2201.00, 
2202.00, 
2203.00, 
2204.00, 
2205.00, 
2206.00, 
2207.00, 
2208.00, 
2209.00, 
2210.00, 
2211.00, 
2212.00, 
2213.00, 
2214.00, 
2215.00, 
2216.00, 
2217.00, 
2218.00, 
2219.00, 
2220.00, 
2221.00, 
2222.00, 
2223.00, 
2224.00, 
2225.00, 
2226.00, 
2227.00, 
2228.00, 
2229.00, 
2230.00, 
2231.00, 
2232.00, 
2233.00, 
2234.00, 
2235.00, 
2236.00, 
2237.00, 
2238.00, 
2239.00, 
2240.00, 
2241.00, 
2242.00, 
2243.00, 
2244.00, 
2245.00, 
2246.00, 
2247.00, 
2248.00, 
2249.00, 
2250.00, 
2251.00, 
2252.00, 
2253.00, 
2254.00, 
2255.00, 
2256.00, 
2257.00, 
2258.00, 
2259.00, 
2260.00, 
2261.00, 
2262.00, 
2263.00, 
2264.00, 
2265.00, 
2266.00, 
2267.00, 
2268.00, 
2269.00, 
2270.00, 
2271.00, 
2272.00, 
2273.00, 
2274.00, 
2275.00, 
2276.00, 
2277.00, 
2278.00, 
2279.00, 
2280.00, 
2281.00, 
2282.00, 
2283.00, 
2284.00, 
2285.00, 
2286.00, 
2287.00, 
2288.00, 
2289.00, 
2290.00, 
2291.00, 
2292.00, 
2293.00, 
2294.00, 
2295.00, 
2296.00, 
2297.00, 
2298.00, 
2299.00, 
2300.00, 
2301.00, 
2302.00, 
2303.00, 
2304.00, 
2305.00, 
2306.00, 
2307.00, 
2308.00, 
2309.00, 
2310.00, 
2311.00, 
2312.00, 
2313.00, 
2314.00, 
2315.00, 
2316.00, 
2317.00, 
2318.00, 
2319.00, 
2320.00, 
2321.00, 
2322.00, 
2323.00, 
2324.00, 
2325.00, 
2326.00, 
2327.00, 
2328.00, 
2329.00, 
2330.00, 
2331.00, 
2332.00, 
2333.00, 
2334.00, 
2335.00, 
2336.00, 
2337.00, 
2338.00, 
2339.00, 
2340.00, 
2341.00, 
2342.00, 
2343.00, 
2344.00, 
2345.00, 
2346.00, 
2347.00, 
2348.00, 
2349.00, 
2350.00, 
2351.00, 
2352.00, 
2353.00, 
2354.00, 
2355.00, 
2356.00, 
2357.00, 
2358.00, 
2359.00, 
2360.00, 
2361.00, 
2362.00, 
2363.00, 
2364.00, 
2365.00, 
2366.00, 
2367.00, 
2368.00, 
2369.00, 
2370.00, 
2371.00, 
2372.00, 
2373.00, 
2374.00, 
2375.00, 
2376.00, 
2377.00, 
2378.00, 
2379.00, 
2380.00, 
2381.00, 
2382.00, 
2383.00, 
2384.00, 
2385.00, 
2386.00, 
2387.00, 
2388.00, 
2389.00, 
2390.00, 
2391.00, 
2392.00, 
2393.00, 
2394.00, 
2395.00, 
2396.00, 
2397.00, 
2398.00, 
2399.00, 
2400.00, 
2401.00, 
2402.00, 
2403.00, 
2404.00, 
2405.00, 
2406.00, 
2407.00, 
2408.00, 
2409.00, 
2410.00, 
2411.00, 
2412.00, 
2413.00, 
2414.00, 
2415.00, 
2416.00, 
2417.00, 
2418.00, 
2419.00, 
2420.00, 
2421.00, 
2422.00, 
2423.00, 
2424.00, 
2425.00, 
2426.00, 
2427.00, 
2428.00, 
2429.00, 
2430.00, 
2431.00, 
2432.00, 
2433.00, 
2434.00, 
2435.00, 
2436.00, 
2437.00, 
2438.00, 
2439.00, 
2440.00, 
2441.00, 
2442.00, 
2443.00, 
2444.00, 
2445.00, 
2446.00, 
2447.00, 
2448.00, 
2449.00, 
2450.00, 
2451.00, 
2452.00, 
2453.00, 
2454.00, 
2455.00, 
2456.00, 
2457.00, 
2458.00, 
2459.00, 
2460.00, 
2461.00, 
2462.00, 
2463.00, 
2464.00, 
2465.00, 
2466.00, 
2467.00, 
2468.00, 
2469.00, 
2470.00, 
2471.00, 
2472.00, 
2473.00, 
2474.00, 
2475.00, 
2476.00, 
2477.00, 
2478.00, 
2479.00, 
2480.00, 
2481.00, 
2482.00, 
2483.00, 
2484.00, 
2485.00, 
2486.00, 
2487.00, 
2488.00, 
2489.00, 
2490.00, 
2491.00, 
2492.00, 
2493.00, 
2494.00, 
2495.00, 
2496.00, 
2497.00, 
2498.00, 
2499.00, 
2500.00, 
2501.00, 
2502.00, 
2503.00, 
2504.00, 
2505.00, 
2506.00, 
2507.00, 
2508.00, 
2509.00, 
2510.00, 
2511.00, 
2512.00, 
2513.00, 
2514.00, 
2515.00, 
2516.00, 
2517.00, 
2518.00, 
2519.00, 
2520.00, 
2521.00, 
2522.00, 
2523.00, 
2524.00, 
2525.00, 
2526.00, 
2527.00, 
2528.00, 
2529.00, 
2530.00, 
2531.00, 
2532.00, 
2533.00, 
2534.00, 
2535.00, 
2536.00, 
2537.00, 
2538.00, 
2539.00, 
2540.00, 
2541.00, 
2542.00, 
2543.00, 
2544.00, 
2545.00, 
2546.00, 
2547.00, 
2548.00, 
2549.00, 
2550.00, 
2551.00, 
2552.00, 
2553.00, 
2554.00, 
2555.00, 
2556.00, 
2557.00, 
2558.00, 
2559.00, 
2560.00, 
2561.00, 
2562.00, 
2563.00, 
2564.00, 
2565.00, 
2566.00, 
2567.00, 
2568.00, 
2569.00, 
2570.00, 
2571.00, 
2572.00, 
2573.00, 
2574.00, 
2575.00, 
2576.00, 
2577.00, 
2578.00, 
2579.00, 
2580.00, 
2581.00, 
2582.00, 
2583.00, 
2584.00, 
2585.00, 
2586.00, 
2587.00, 
2588.00, 
2589.00, 
2590.00, 
2591.00, 
2592.00, 
2593.00, 
2594.00, 
2595.00, 
2596.00, 
2597.00, 
2598.00, 
2599.00, 
2600.00, 
