"2bP2 - RawData"
"Wavelength nm.","T%"
200.00,0.003
201.00,0.002
202.00,0.000
203.00,-0.000
204.00,0.000
205.00,0.002
206.00,0.001
207.00,-0.000
208.00,0.003
209.00,-0.001
210.00,0.001
211.00,0.001
212.00,-0.000
213.00,0.001
214.00,0.000
215.00,-0.001
216.00,-0.003
217.00,-0.001
218.00,0.002
219.00,0.002
220.00,-0.002
221.00,-0.001
222.00,0.000
223.00,0.001
224.00,0.002
225.00,0.002
226.00,0.001
227.00,0.000
228.00,-0.000
229.00,0.004
230.00,0.000
231.00,0.001
232.00,0.002
233.00,0.001
234.00,-0.001
235.00,-0.001
236.00,0.000
237.00,0.000
238.00,0.001
239.00,-0.000
240.00,-0.001
241.00,0.001
242.00,0.001
243.00,0.000
244.00,-0.000
245.00,0.001
246.00,0.001
247.00,-0.001
248.00,0.002
249.00,0.002
250.00,0.001
251.00,-0.001
252.00,-0.001
253.00,0.001
254.00,-0.002
255.00,-0.001
256.00,0.001
257.00,0.000
258.00,0.000
259.00,-0.000
260.00,-0.000
261.00,-0.001
262.00,-0.000
263.00,-0.000
264.00,0.000
265.00,-0.001
266.00,-0.001
267.00,0.003
268.00,-0.001
269.00,-0.000
270.00,0.000
271.00,-0.001
272.00,-0.001
273.00,0.001
274.00,0.001
275.00,0.002
276.00,-0.000
277.00,-0.002
278.00,-0.001
279.00,-0.000
280.00,0.000
281.00,-0.001
282.00,-0.002
283.00,0.001
284.00,0.000
285.00,0.002
286.00,-0.000
287.00,0.001
288.00,0.001
289.00,-0.001
290.00,0.000
291.00,0.001
292.00,-0.002
293.00,0.000
294.00,0.001
295.00,0.000
296.00,-0.001
297.00,0.000
298.00,0.001
299.00,0.001
300.00,0.003
301.00,0.003
302.00,0.004
303.00,0.007
304.00,0.011
305.00,0.020
306.00,0.030
307.00,0.047
308.00,0.070
309.00,0.104
310.00,0.146
311.00,0.199
312.00,0.270
313.00,0.354
314.00,0.460
315.00,0.588
316.00,0.744
317.00,0.933
318.00,1.159
319.00,1.383
320.00,1.674
321.00,1.975
322.00,2.322
323.00,2.708
324.00,3.118
325.00,3.522
326.00,3.967
327.00,4.452
328.00,4.937
329.00,5.431
330.00,5.939
331.00,6.441
332.00,6.957
333.00,7.517
334.00,8.004
335.00,8.581
336.00,9.078
337.00,9.598
338.00,10.107
339.00,10.578
340.00,11.056
341.00,11.504
342.00,11.898
343.00,12.339
344.00,12.720
345.00,13.129
346.00,13.461
347.00,13.792
348.00,14.112
349.00,14.403
350.00,14.694
351.00,14.913
352.00,15.150
353.00,15.368
354.00,15.555
355.00,15.792
356.00,15.972
357.00,16.113
358.00,16.252
359.00,16.398
360.00,16.553
361.00,16.616
362.00,16.679
363.00,16.810
364.00,16.877
365.00,16.948
366.00,16.965
367.00,17.027
368.00,17.064
369.00,17.063
370.00,17.081
371.00,17.081
372.00,17.049
373.00,17.062
374.00,17.019
375.00,16.964
376.00,16.949
377.00,16.888
378.00,16.854
379.00,16.794
380.00,16.737
381.00,16.729
382.00,16.718
383.00,16.696
384.00,16.707
385.00,16.753
386.00,16.713
387.00,16.735
388.00,16.723
389.00,16.742
390.00,16.728
391.00,16.719
392.00,16.739
393.00,16.684
394.00,16.714
395.00,16.673
396.00,16.684
397.00,16.689
398.00,16.649
399.00,16.630
400.00,16.543
401.00,16.634
402.00,16.606
403.00,16.593
404.00,16.570
405.00,16.548
406.00,16.540
407.00,16.493
408.00,16.512
409.00,16.468
410.00,16.423
411.00,16.416
412.00,16.368
413.00,16.416
414.00,16.389
415.00,16.390
416.00,16.407
417.00,16.417
418.00,16.472
419.00,16.471
420.00,16.472
421.00,16.516
422.00,16.587
423.00,16.588
424.00,16.600
425.00,16.632
426.00,16.608
427.00,16.717
428.00,16.750
429.00,16.795
430.00,16.822
431.00,16.879
432.00,16.938
433.00,16.993
434.00,17.026
435.00,17.084
436.00,17.159
437.00,17.214
438.00,17.283
439.00,17.347
440.00,17.415
441.00,17.509
442.00,17.590
443.00,17.690
444.00,17.778
445.00,17.830
446.00,17.941
447.00,17.988
448.00,18.104
449.00,18.207
450.00,18.271
451.00,18.409
452.00,18.520
453.00,18.602
454.00,18.688
455.00,18.844
456.00,18.923
457.00,19.056
458.00,19.158
459.00,19.210
460.00,19.428
461.00,19.543
462.00,19.658
463.00,19.766
464.00,19.913
465.00,20.019
466.00,20.159
467.00,20.267
468.00,20.377
469.00,20.528
470.00,20.586
471.00,20.748
472.00,20.889
473.00,21.002
474.00,21.139
475.00,21.300
476.00,21.419
477.00,21.544
478.00,21.676
479.00,21.832
480.00,21.984
481.00,22.141
482.00,22.301
483.00,22.433
484.00,22.570
485.00,22.763
486.00,22.886
487.00,23.058
488.00,23.206
489.00,23.332
490.00,23.487
491.00,23.658
492.00,23.785
493.00,23.963
494.00,24.119
495.00,24.190
496.00,24.305
497.00,24.488
498.00,24.607
499.00,24.745
500.00,24.886
501.00,24.975
502.00,25.143
503.00,25.313
504.00,25.443
505.00,25.551
506.00,25.691
507.00,25.860
508.00,25.929
509.00,26.067
510.00,26.247
511.00,26.351
512.00,26.471
513.00,26.640
514.00,26.692
515.00,26.826
516.00,26.941
517.00,27.079
518.00,27.261
519.00,27.347
520.00,27.472
521.00,27.572
522.00,27.671
523.00,27.811
524.00,27.874
525.00,28.035
526.00,28.094
527.00,28.191
528.00,28.295
529.00,28.419
530.00,28.490
531.00,28.620
532.00,28.736
533.00,28.838
534.00,28.929
535.00,29.000
536.00,29.169
537.00,29.198
538.00,29.317
539.00,29.434
540.00,29.447
541.00,29.570
542.00,29.607
543.00,29.713
544.00,29.819
545.00,29.910
546.00,29.950
547.00,30.053
548.00,30.081
549.00,30.183
550.00,30.278
551.00,30.325
552.00,30.380
553.00,30.468
554.00,30.597
555.00,30.622
556.00,30.659
557.00,30.805
558.00,30.770
559.00,30.881
560.00,30.907
561.00,31.033
562.00,31.075
563.00,31.115
564.00,31.191
565.00,31.265
566.00,31.248
567.00,31.322
568.00,31.368
569.00,31.447
570.00,31.467
571.00,31.497
572.00,31.578
573.00,31.557
574.00,31.637
575.00,31.642
576.00,31.761
577.00,31.819
578.00,31.925
579.00,31.979
580.00,32.049
581.00,32.164
582.00,32.205
583.00,32.227
584.00,32.288
585.00,32.415
586.00,32.396
587.00,32.498
588.00,32.562
589.00,32.646
590.00,32.695
591.00,32.782
592.00,32.830
593.00,32.839
594.00,32.890
595.00,32.932
596.00,32.955
597.00,33.047
598.00,33.083
599.00,33.135
600.00,33.217
601.00,33.240
602.00,33.344
603.00,33.407
604.00,33.457
605.00,33.476
606.00,33.521
607.00,33.643
608.00,33.704
609.00,33.737
610.00,33.837
611.00,33.833
612.00,33.857
613.00,33.923
614.00,33.993
615.00,33.994
616.00,34.095
617.00,34.155
618.00,34.249
619.00,34.326
620.00,34.388
621.00,34.443
622.00,34.503
623.00,34.597
624.00,34.745
625.00,34.760
626.00,34.858
627.00,34.874
628.00,35.010
629.00,35.072
630.00,35.163
631.00,35.182
632.00,35.298
633.00,35.374
634.00,35.460
635.00,35.559
636.00,35.635
637.00,35.793
638.00,35.860
639.00,35.948
640.00,36.053
641.00,36.147
642.00,36.224
643.00,36.297
644.00,36.419
645.00,36.475
646.00,36.650
647.00,36.703
648.00,36.847
649.00,36.915
650.00,36.981
651.00,37.135
652.00,37.208
653.00,37.335
654.00,37.448
655.00,37.491
656.00,37.557
657.00,37.728
658.00,37.570
659.00,37.945
660.00,38.237
661.00,38.345
662.00,38.352
663.00,38.410
664.00,38.546
665.00,38.801
666.00,38.819
667.00,39.036
668.00,38.931
669.00,39.227
670.00,39.357
671.00,39.403
672.00,39.411
673.00,39.613
674.00,39.826
675.00,39.846
676.00,39.971
677.00,40.170
678.00,40.252
679.00,40.384
680.00,40.493
681.00,40.601
682.00,40.792
683.00,40.841
684.00,41.061
685.00,41.274
686.00,41.268
687.00,41.382
688.00,41.557
689.00,41.542
690.00,41.667
691.00,41.913
692.00,41.930
693.00,42.109
694.00,42.205
695.00,42.313
696.00,42.424
697.00,42.455
698.00,42.633
699.00,42.877
700.00,42.975
701.00,43.116
702.00,43.155
703.00,43.269
704.00,43.595
705.00,43.519
706.00,43.583
707.00,43.965
708.00,43.844
709.00,43.985
710.00,44.222
711.00,44.132
712.00,44.254
713.00,44.442
714.00,44.432
715.00,44.610
716.00,44.698
717.00,44.708
718.00,44.855
719.00,44.977
720.00,44.962
721.00,49.463
722.00,49.519
723.00,49.557
724.00,49.546
725.00,49.628
726.00,49.646
727.00,49.709
728.00,49.809
729.00,49.856
730.00,49.966
731.00,49.987
732.00,50.007
733.00,50.201
734.00,50.231
735.00,50.318
736.00,50.387
737.00,50.337
738.00,50.406
739.00,50.530
740.00,50.546
741.00,50.712
742.00,50.684
743.00,50.697
744.00,50.714
745.00,50.818
746.00,50.859
747.00,50.898
748.00,50.967
749.00,50.947
750.00,50.977
751.00,51.041
752.00,51.097
753.00,51.074
754.00,51.145
755.00,51.192
756.00,51.248
757.00,51.260
758.00,51.276
759.00,51.321
760.00,51.379
761.00,51.404
762.00,51.354
763.00,51.462
764.00,51.471
765.00,51.523
766.00,51.566
767.00,51.720
768.00,51.673
769.00,51.695
770.00,51.691
771.00,51.687
772.00,51.738
773.00,51.804
774.00,51.831
775.00,51.918
776.00,51.919
777.00,51.917
778.00,51.964
779.00,52.032
780.00,51.957
781.00,52.007
782.00,52.032
783.00,52.032
784.00,52.116
785.00,52.081
786.00,52.054
787.00,52.133
788.00,52.085
789.00,52.130
790.00,52.186
791.00,52.191
792.00,52.152
793.00,52.199
794.00,52.222
795.00,52.208
796.00,52.124
797.00,52.201
798.00,52.211
799.00,52.173
800.00,52.281
801.00,52.214
802.00,52.212
803.00,52.230
804.00,52.158
805.00,52.207
806.00,52.157
807.00,52.227
808.00,52.199
809.00,52.139
810.00,52.165
811.00,52.154
812.00,52.174
813.00,52.115
814.00,52.173
815.00,52.172
816.00,52.228
817.00,52.247
818.00,52.118
819.00,52.109
820.00,52.098
821.00,52.202
822.00,52.103
823.00,52.172
824.00,52.163
825.00,52.166
826.00,52.189
827.00,52.151
828.00,52.114
829.00,52.066
830.00,52.186
831.00,54.380
832.00,54.255
833.00,54.284
834.00,54.302
835.00,54.270
836.00,54.298
837.00,54.265
838.00,54.272
839.00,54.233
840.00,54.221
841.00,54.230
842.00,54.234
843.00,54.202
844.00,54.155
845.00,54.170
846.00,54.175
847.00,54.158
848.00,54.100
849.00,54.109
850.00,54.065
851.00,54.051
852.00,54.045
853.00,54.009
854.00,53.971
855.00,53.910
856.00,53.940
857.00,53.919
858.00,53.917
859.00,53.903
860.00,53.904
861.00,53.857
862.00,53.874
863.00,53.790
864.00,53.822
865.00,53.799
866.00,53.797
867.00,53.752
868.00,53.851
869.00,53.824
870.00,53.780
871.00,53.806
872.00,53.799
873.00,53.789
874.00,53.744
875.00,53.753
876.00,53.743
877.00,53.768
878.00,53.721
879.00,53.738
880.00,53.695
881.00,53.732
882.00,53.701
883.00,53.667
884.00,53.660
885.00,53.628
886.00,53.634
887.00,53.602
888.00,53.595
889.00,53.549
890.00,53.537
891.00,53.573
892.00,53.532
893.00,53.481
894.00,53.461
895.00,53.482
896.00,53.456
897.00,53.462
898.00,53.454
899.00,53.416
900.00,53.364
901.00,53.435
902.00,53.408
903.00,53.372
904.00,53.384
905.00,53.369
906.00,53.366
907.00,53.333
908.00,53.311
909.00,53.296
910.00,53.277
911.00,53.237
912.00,53.203
913.00,53.236
914.00,53.223
915.00,53.180
916.00,53.180
917.00,53.130
918.00,53.149
919.00,53.107
920.00,53.116
921.00,53.110
922.00,53.091
923.00,53.089
924.00,53.050
925.00,53.027
926.00,53.008
927.00,53.042
928.00,53.007
929.00,52.931
930.00,52.919
931.00,52.908
932.00,52.880
933.00,52.880
934.00,52.861
935.00,52.860
936.00,52.839
937.00,52.817
938.00,52.828
939.00,52.783
940.00,52.764
941.00,52.737
942.00,52.858
943.00,52.730
944.00,52.693
945.00,52.687
946.00,52.666
947.00,52.691
948.00,52.637
949.00,52.651
950.00,52.619
951.00,52.600
952.00,52.564
953.00,52.569
954.00,52.511
955.00,52.498
956.00,52.470
957.00,52.538
958.00,52.441
959.00,52.428
960.00,52.408
961.00,52.396
962.00,52.386
963.00,52.353
964.00,52.350
965.00,52.305
966.00,52.324
967.00,52.295
968.00,52.312
969.00,52.260
970.00,52.336
971.00,52.294
972.00,52.265
973.00,52.294
974.00,52.270
975.00,52.273
976.00,52.248
977.00,52.295
978.00,52.313
979.00,52.287
980.00,52.322
981.00,52.306
982.00,52.329
983.00,52.276
984.00,52.305
985.00,52.290
986.00,52.281
987.00,52.284
988.00,52.271
989.00,52.293
990.00,52.253
991.00,52.231
992.00,52.238
993.00,52.239
994.00,52.222
995.00,52.195
996.00,52.239
997.00,52.177
998.00,52.182
999.00,52.175
1000.00,52.147
1001.00,52.142
1002.00,52.113
1003.00,52.132
1004.00,52.080
1005.00,52.069
1006.00,52.064
1007.00,52.055
1008.00,52.042
1009.00,52.028
1010.00,52.041
1011.00,52.000
1012.00,52.000
1013.00,51.953
1014.00,51.959
1015.00,51.955
1016.00,51.919
1017.00,51.942
1018.00,51.968
1019.00,51.922
1020.00,51.885
1021.00,51.893
1022.00,51.875
1023.00,51.863
1024.00,51.842
1025.00,51.822
1026.00,51.834
1027.00,51.798
1028.00,51.817
1029.00,51.767
1030.00,51.765
1031.00,51.766
1032.00,51.713
1033.00,51.717
1034.00,51.707
1035.00,51.679
1036.00,51.643
1037.00,51.629
1038.00,51.604
1039.00,51.587
1040.00,51.562
1041.00,51.531
1042.00,51.514
1043.00,51.499
1044.00,51.533
1045.00,51.505
1046.00,51.504
1047.00,51.506
1048.00,51.528
1049.00,51.506
1050.00,51.539
1051.00,51.544
1052.00,51.563
1053.00,51.554
1054.00,51.574
1055.00,51.579
1056.00,51.581
1057.00,51.601
1058.00,51.605
1059.00,51.589
1060.00,51.591
1061.00,51.609
1062.00,51.553
1063.00,51.566
1064.00,51.596
1065.00,51.571
1066.00,51.534
1067.00,51.548
1068.00,51.541
1069.00,51.547
1070.00,51.500
1071.00,51.507
1072.00,51.518
1073.00,51.493
1074.00,51.487
1075.00,51.463
1076.00,51.468
1077.00,51.455
1078.00,51.437
1079.00,51.419
1080.00,51.436
1081.00,51.422
1082.00,51.416
1083.00,51.393
1084.00,51.397
1085.00,51.373
1086.00,51.377
1087.00,51.363
1088.00,51.374
1089.00,51.356
1090.00,51.332
1091.00,51.336
1092.00,51.357
1093.00,51.332
1094.00,51.326
1095.00,51.295
1096.00,51.296
1097.00,51.284
1098.00,51.280
1099.00,51.236
1100.00,51.253
1101.00,51.232
1102.00,51.225
1103.00,51.207
1104.00,51.217
1105.00,51.200
1106.00,51.174
1107.00,51.160
1108.00,51.180
1109.00,51.169
1110.00,51.161
1111.00,51.144
1112.00,51.147
1113.00,51.144
1114.00,51.149
1115.00,51.152
1116.00,51.160
1117.00,51.129
1118.00,51.124
1119.00,51.108
1120.00,51.105
1121.00,51.087
1122.00,51.078
1123.00,51.043
1124.00,51.075
1125.00,51.062
1126.00,51.067
1127.00,51.055
1128.00,51.055
1129.00,51.018
1130.00,51.018
1131.00,50.994
1132.00,51.013
1133.00,51.003
1134.00,50.988
1135.00,50.984
1136.00,50.995
1137.00,50.974
1138.00,50.982
1139.00,50.965
1140.00,50.967
1141.00,50.951
1142.00,50.959
1143.00,50.945
1144.00,50.954
1145.00,50.937
1146.00,50.940
1147.00,50.944
1148.00,50.929
1149.00,50.948
1150.00,50.938
1151.00,50.903
1152.00,50.922
1153.00,50.901
1154.00,50.878
1155.00,50.883
1156.00,50.877
1157.00,50.878
1158.00,50.865
1159.00,50.860
1160.00,50.856
1161.00,50.861
1162.00,50.853
1163.00,50.864
1164.00,50.856
1165.00,50.864
1166.00,50.848
1167.00,50.840
1168.00,50.852
1169.00,50.863
1170.00,50.854
1171.00,50.845
1172.00,50.831
1173.00,50.820
1174.00,50.822
1175.00,50.832
1176.00,50.841
1177.00,50.806
1178.00,50.804
1179.00,50.820
1180.00,50.827
1181.00,50.820
1182.00,50.821
1183.00,50.813
1184.00,50.794
1185.00,50.805
1186.00,50.802
1187.00,50.796
1188.00,50.790
1189.00,50.797
1190.00,50.796
1191.00,50.820
1192.00,50.808
1193.00,50.804
1194.00,50.796
1195.00,50.770
1196.00,50.791
1197.00,50.791
1198.00,50.789
1199.00,50.770
1200.00,50.772
1201.00,50.789
1202.00,50.793
1203.00,50.777
1204.00,50.761
1205.00,50.770
1206.00,50.769
1207.00,50.767
1208.00,50.755
1209.00,50.785
1210.00,50.758
1211.00,50.762
1212.00,50.768
1213.00,50.766
1214.00,50.770
1215.00,50.756
1216.00,50.766
1217.00,50.734
1218.00,50.745
1219.00,50.755
1220.00,50.756
1221.00,50.778
1222.00,50.753
1223.00,50.782
1224.00,50.766
1225.00,50.754
1226.00,50.750
1227.00,50.747
1228.00,50.736
1229.00,50.752
1230.00,50.769
1231.00,50.767
1232.00,50.806
1233.00,50.793
1234.00,50.811
1235.00,50.797
1236.00,50.815
1237.00,50.796
1238.00,50.811
1239.00,50.811
1240.00,50.815
1241.00,50.812
1242.00,50.812
1243.00,50.819
1244.00,50.791
1245.00,50.815
1246.00,50.832
1247.00,50.827
1248.00,50.822
1249.00,50.836
1250.00,50.821
1251.00,50.839
1252.00,50.835
1253.00,50.829
1254.00,50.848
1255.00,50.851
1256.00,50.835
1257.00,50.845
1258.00,50.830
1259.00,50.843
1260.00,50.870
1261.00,50.859
1262.00,50.858
1263.00,50.847
1264.00,50.868
1265.00,50.859
1266.00,50.844
1267.00,50.870
1268.00,50.880
1269.00,50.854
1270.00,50.892
1271.00,50.897
1272.00,50.892
1273.00,50.896
1274.00,50.905
1275.00,50.897
1276.00,50.898
1277.00,50.879
1278.00,50.922
1279.00,50.908
1280.00,50.903
1281.00,50.916
1282.00,50.910
1283.00,50.904
1284.00,50.940
1285.00,50.926
1286.00,50.909
1287.00,50.927
1288.00,50.915
1289.00,50.917
1290.00,50.932
1291.00,50.937
1292.00,50.976
1293.00,50.980
1294.00,50.979
1295.00,51.020
1296.00,50.985
1297.00,51.007
1298.00,50.996
1299.00,50.999
1300.00,51.008
1301.00,50.994
1302.00,51.023
1303.00,51.030
1304.00,51.009
1305.00,51.031
1306.00,51.039
1307.00,51.053
1308.00,51.039
1309.00,51.059
1310.00,51.064
1311.00,51.056
1312.00,51.067
1313.00,51.063
1314.00,51.093
1315.00,51.073
1316.00,51.070
1317.00,51.089
1318.00,51.099
1319.00,51.093
1320.00,51.115
1321.00,51.256
1322.00,51.289
1323.00,51.262
1324.00,51.253
1325.00,51.217
1326.00,51.246
1327.00,51.230
1328.00,51.241
1329.00,51.227
1330.00,51.246
1331.00,51.247
1332.00,51.230
1333.00,51.248
1334.00,51.269
1335.00,51.275
1336.00,51.316
1337.00,51.323
1338.00,51.361
1339.00,51.400
1340.00,51.459
1341.00,51.536
1342.00,51.604
1343.00,51.643
1344.00,51.708
1345.00,51.758
1346.00,51.801
1347.00,51.839
1348.00,51.827
1349.00,51.871
1350.00,51.874
1351.00,51.920
1352.00,51.961
1353.00,51.980
1354.00,51.926
1355.00,51.925
1356.00,51.867
1357.00,51.921
1358.00,51.998
1359.00,51.949
1360.00,51.933
1361.00,52.017
1362.00,52.040
1363.00,51.959
1364.00,52.296
1365.00,52.315
1366.00,51.989
1367.00,51.993
1368.00,51.896
1369.00,51.987
1370.00,51.965
1371.00,51.957
1372.00,51.923
1373.00,51.903
1374.00,51.945
1375.00,51.935
1376.00,51.910
1377.00,51.950
1378.00,51.972
1379.00,51.922
1380.00,51.987
1381.00,51.956
1382.00,51.837
1383.00,52.109
1384.00,51.913
1385.00,51.856
1386.00,51.974
1387.00,51.946
1388.00,51.816
1389.00,51.844
1390.00,52.020
1391.00,52.004
1392.00,51.877
1393.00,51.888
1394.00,51.960
1395.00,51.901
1396.00,51.831
1397.00,51.895
1398.00,51.945
1399.00,51.989
1400.00,51.799
1401.00,51.866
1402.00,51.952
1403.00,51.984
1404.00,51.878
1405.00,51.936
1406.00,51.954
1407.00,51.975
1408.00,51.964
1409.00,51.952
1410.00,51.944
1411.00,51.985
1412.00,51.985
1413.00,51.993
1414.00,51.941
1415.00,51.980
1416.00,51.980
1417.00,51.999
1418.00,52.025
1419.00,51.949
1420.00,52.006
1421.00,52.016
1422.00,52.087
1423.00,52.054
1424.00,52.074
1425.00,52.072
1426.00,52.106
1427.00,52.122
1428.00,52.097
1429.00,52.133
1430.00,52.161
1431.00,52.132
1432.00,52.170
1433.00,52.202
1434.00,52.201
1435.00,52.247
1436.00,52.259
1437.00,52.247
1438.00,52.265
1439.00,52.296
1440.00,52.298
1441.00,52.326
1442.00,52.313
1443.00,52.362
1444.00,52.367
1445.00,52.380
1446.00,52.386
1447.00,52.417
1448.00,52.432
1449.00,52.478
1450.00,52.441
1451.00,52.480
1452.00,52.480
1453.00,52.485
1454.00,52.499
1455.00,52.537
1456.00,52.529
1457.00,52.558
1458.00,52.537
1459.00,52.575
1460.00,52.591
1461.00,52.598
1462.00,52.643
1463.00,52.641
1464.00,52.628
1465.00,52.672
1466.00,52.656
1467.00,52.687
1468.00,52.717
1469.00,52.694
1470.00,52.718
1471.00,52.752
1472.00,52.746
1473.00,52.781
1474.00,52.803
1475.00,52.785
1476.00,52.817
1477.00,52.807
1478.00,52.813
1479.00,52.833
1480.00,52.825
1481.00,52.848
1482.00,52.864
1483.00,52.871
1484.00,52.914
1485.00,52.916
1486.00,52.911
1487.00,52.940
1488.00,52.956
1489.00,52.959
1490.00,52.951
1491.00,52.954
1492.00,52.964
1493.00,52.982
1494.00,52.978
1495.00,53.002
1496.00,52.990
1497.00,53.011
1498.00,53.025
1499.00,53.056
1500.00,53.064
1501.00, 
1502.00, 
1503.00, 
1504.00, 
1505.00, 
1506.00, 
1507.00, 
1508.00, 
1509.00, 
1510.00, 
1511.00, 
1512.00, 
1513.00, 
1514.00, 
1515.00, 
1516.00, 
1517.00, 
1518.00, 
1519.00, 
1520.00, 
1521.00, 
1522.00, 
1523.00, 
1524.00, 
1525.00, 
1526.00, 
1527.00, 
1528.00, 
1529.00, 
1530.00, 
1531.00, 
1532.00, 
1533.00, 
1534.00, 
1535.00, 
1536.00, 
1537.00, 
1538.00, 
1539.00, 
1540.00, 
1541.00, 
1542.00, 
1543.00, 
1544.00, 
1545.00, 
1546.00, 
1547.00, 
1548.00, 
1549.00, 
1550.00, 
1551.00, 
1552.00, 
1553.00, 
1554.00, 
1555.00, 
1556.00, 
1557.00, 
1558.00, 
1559.00, 
1560.00, 
1561.00, 
1562.00, 
1563.00, 
1564.00, 
1565.00, 
1566.00, 
1567.00, 
1568.00, 
1569.00, 
1570.00, 
1571.00, 
1572.00, 
1573.00, 
1574.00, 
1575.00, 
1576.00, 
1577.00, 
1578.00, 
1579.00, 
1580.00, 
1581.00, 
1582.00, 
1583.00, 
1584.00, 
1585.00, 
1586.00, 
1587.00, 
1588.00, 
1589.00, 
1590.00, 
1591.00, 
1592.00, 
1593.00, 
1594.00, 
1595.00, 
1596.00, 
1597.00, 
1598.00, 
1599.00, 
1600.00, 
1601.00, 
1602.00, 
1603.00, 
1604.00, 
1605.00, 
1606.00, 
1607.00, 
1608.00, 
1609.00, 
1610.00, 
1611.00, 
1612.00, 
1613.00, 
1614.00, 
1615.00, 
1616.00, 
1617.00, 
1618.00, 
1619.00, 
1620.00, 
1621.00, 
1622.00, 
1623.00, 
1624.00, 
1625.00, 
1626.00, 
1627.00, 
1628.00, 
1629.00, 
1630.00, 
1631.00, 
1632.00, 
1633.00, 
1634.00, 
1635.00, 
1636.00, 
1637.00, 
1638.00, 
1639.00, 
1640.00, 
1641.00, 
1642.00, 
1643.00, 
1644.00, 
1645.00, 
1646.00, 
1647.00, 
1648.00, 
1649.00, 
1650.00, 
1651.00, 
1652.00, 
1653.00, 
1654.00, 
1655.00, 
1656.00, 
1657.00, 
1658.00, 
1659.00, 
1660.00, 
1661.00, 
1662.00, 
1663.00, 
1664.00, 
1665.00, 
1666.00, 
1667.00, 
1668.00, 
1669.00, 
1670.00, 
1671.00, 
1672.00, 
1673.00, 
1674.00, 
1675.00, 
1676.00, 
1677.00, 
1678.00, 
1679.00, 
1680.00, 
1681.00, 
1682.00, 
1683.00, 
1684.00, 
1685.00, 
1686.00, 
1687.00, 
1688.00, 
1689.00, 
1690.00, 
1691.00, 
1692.00, 
1693.00, 
1694.00, 
1695.00, 
1696.00, 
1697.00, 
1698.00, 
1699.00, 
1700.00, 
1701.00, 
1702.00, 
1703.00, 
1704.00, 
1705.00, 
1706.00, 
1707.00, 
1708.00, 
1709.00, 
1710.00, 
1711.00, 
1712.00, 
1713.00, 
1714.00, 
1715.00, 
1716.00, 
1717.00, 
1718.00, 
1719.00, 
1720.00, 
1721.00, 
1722.00, 
1723.00, 
1724.00, 
1725.00, 
1726.00, 
1727.00, 
1728.00, 
1729.00, 
1730.00, 
1731.00, 
1732.00, 
1733.00, 
1734.00, 
1735.00, 
1736.00, 
1737.00, 
1738.00, 
1739.00, 
1740.00, 
1741.00, 
1742.00, 
1743.00, 
1744.00, 
1745.00, 
1746.00, 
1747.00, 
1748.00, 
1749.00, 
1750.00, 
1751.00, 
1752.00, 
1753.00, 
1754.00, 
1755.00, 
1756.00, 
1757.00, 
1758.00, 
1759.00, 
1760.00, 
1761.00, 
1762.00, 
1763.00, 
1764.00, 
1765.00, 
1766.00, 
1767.00, 
1768.00, 
1769.00, 
1770.00, 
1771.00, 
1772.00, 
1773.00, 
1774.00, 
1775.00, 
1776.00, 
1777.00, 
1778.00, 
1779.00, 
1780.00, 
1781.00, 
1782.00, 
1783.00, 
1784.00, 
1785.00, 
1786.00, 
1787.00, 
1788.00, 
1789.00, 
1790.00, 
1791.00, 
1792.00, 
1793.00, 
1794.00, 
1795.00, 
1796.00, 
1797.00, 
1798.00, 
1799.00, 
1800.00, 
1801.00, 
1802.00, 
1803.00, 
1804.00, 
1805.00, 
1806.00, 
1807.00, 
1808.00, 
1809.00, 
1810.00, 
1811.00, 
1812.00, 
1813.00, 
1814.00, 
1815.00, 
1816.00, 
1817.00, 
1818.00, 
1819.00, 
1820.00, 
1821.00, 
1822.00, 
1823.00, 
1824.00, 
1825.00, 
1826.00, 
1827.00, 
1828.00, 
1829.00, 
1830.00, 
1831.00, 
1832.00, 
1833.00, 
1834.00, 
1835.00, 
1836.00, 
1837.00, 
1838.00, 
1839.00, 
1840.00, 
1841.00, 
1842.00, 
1843.00, 
1844.00, 
1845.00, 
1846.00, 
1847.00, 
1848.00, 
1849.00, 
1850.00, 
1851.00, 
1852.00, 
1853.00, 
1854.00, 
1855.00, 
1856.00, 
1857.00, 
1858.00, 
1859.00, 
1860.00, 
1861.00, 
1862.00, 
1863.00, 
1864.00, 
1865.00, 
1866.00, 
1867.00, 
1868.00, 
1869.00, 
1870.00, 
1871.00, 
1872.00, 
1873.00, 
1874.00, 
1875.00, 
1876.00, 
1877.00, 
1878.00, 
1879.00, 
1880.00, 
1881.00, 
1882.00, 
1883.00, 
1884.00, 
1885.00, 
1886.00, 
1887.00, 
1888.00, 
1889.00, 
1890.00, 
1891.00, 
1892.00, 
1893.00, 
1894.00, 
1895.00, 
1896.00, 
1897.00, 
1898.00, 
1899.00, 
1900.00, 
1901.00, 
1902.00, 
1903.00, 
1904.00, 
1905.00, 
1906.00, 
1907.00, 
1908.00, 
1909.00, 
1910.00, 
1911.00, 
1912.00, 
1913.00, 
1914.00, 
1915.00, 
1916.00, 
1917.00, 
1918.00, 
1919.00, 
1920.00, 
1921.00, 
1922.00, 
1923.00, 
1924.00, 
1925.00, 
1926.00, 
1927.00, 
1928.00, 
1929.00, 
1930.00, 
1931.00, 
1932.00, 
1933.00, 
1934.00, 
1935.00, 
1936.00, 
1937.00, 
1938.00, 
1939.00, 
1940.00, 
1941.00, 
1942.00, 
1943.00, 
1944.00, 
1945.00, 
1946.00, 
1947.00, 
1948.00, 
1949.00, 
1950.00, 
1951.00, 
1952.00, 
1953.00, 
1954.00, 
1955.00, 
1956.00, 
1957.00, 
1958.00, 
1959.00, 
1960.00, 
1961.00, 
1962.00, 
1963.00, 
1964.00, 
1965.00, 
1966.00, 
1967.00, 
1968.00, 
1969.00, 
1970.00, 
1971.00, 
1972.00, 
1973.00, 
1974.00, 
1975.00, 
1976.00, 
1977.00, 
1978.00, 
1979.00, 
1980.00, 
1981.00, 
1982.00, 
1983.00, 
1984.00, 
1985.00, 
1986.00, 
1987.00, 
1988.00, 
1989.00, 
1990.00, 
1991.00, 
1992.00, 
1993.00, 
1994.00, 
1995.00, 
1996.00, 
1997.00, 
1998.00, 
1999.00, 
2000.00, 
2001.00, 
2002.00, 
2003.00, 
2004.00, 
2005.00, 
2006.00, 
2007.00, 
2008.00, 
2009.00, 
2010.00, 
2011.00, 
2012.00, 
2013.00, 
2014.00, 
2015.00, 
2016.00, 
2017.00, 
2018.00, 
2019.00, 
2020.00, 
2021.00, 
2022.00, 
2023.00, 
2024.00, 
2025.00, 
2026.00, 
2027.00, 
2028.00, 
2029.00, 
2030.00, 
2031.00, 
2032.00, 
2033.00, 
2034.00, 
2035.00, 
2036.00, 
2037.00, 
2038.00, 
2039.00, 
2040.00, 
2041.00, 
2042.00, 
2043.00, 
2044.00, 
2045.00, 
2046.00, 
2047.00, 
2048.00, 
2049.00, 
2050.00, 
2051.00, 
2052.00, 
2053.00, 
2054.00, 
2055.00, 
2056.00, 
2057.00, 
2058.00, 
2059.00, 
2060.00, 
2061.00, 
2062.00, 
2063.00, 
2064.00, 
2065.00, 
2066.00, 
2067.00, 
2068.00, 
2069.00, 
2070.00, 
2071.00, 
2072.00, 
2073.00, 
2074.00, 
2075.00, 
2076.00, 
2077.00, 
2078.00, 
2079.00, 
2080.00, 
2081.00, 
2082.00, 
2083.00, 
2084.00, 
2085.00, 
2086.00, 
2087.00, 
2088.00, 
2089.00, 
2090.00, 
2091.00, 
2092.00, 
2093.00, 
2094.00, 
2095.00, 
2096.00, 
2097.00, 
2098.00, 
2099.00, 
2100.00, 
2101.00, 
2102.00, 
2103.00, 
2104.00, 
2105.00, 
2106.00, 
2107.00, 
2108.00, 
2109.00, 
2110.00, 
2111.00, 
2112.00, 
2113.00, 
2114.00, 
2115.00, 
2116.00, 
2117.00, 
2118.00, 
2119.00, 
2120.00, 
2121.00, 
2122.00, 
2123.00, 
2124.00, 
2125.00, 
2126.00, 
2127.00, 
2128.00, 
2129.00, 
2130.00, 
2131.00, 
2132.00, 
2133.00, 
2134.00, 
2135.00, 
2136.00, 
2137.00, 
2138.00, 
2139.00, 
2140.00, 
2141.00, 
2142.00, 
2143.00, 
2144.00, 
2145.00, 
2146.00, 
2147.00, 
2148.00, 
2149.00, 
2150.00, 
2151.00, 
2152.00, 
2153.00, 
2154.00, 
2155.00, 
2156.00, 
2157.00, 
2158.00, 
2159.00, 
2160.00, 
2161.00, 
2162.00, 
2163.00, 
2164.00, 
2165.00, 
2166.00, 
2167.00, 
2168.00, 
2169.00, 
2170.00, 
2171.00, 
2172.00, 
2173.00, 
2174.00, 
2175.00, 
2176.00, 
2177.00, 
2178.00, 
2179.00, 
2180.00, 
2181.00, 
2182.00, 
2183.00, 
2184.00, 
2185.00, 
2186.00, 
2187.00, 
2188.00, 
2189.00, 
2190.00, 
2191.00, 
2192.00, 
2193.00, 
2194.00, 
2195.00, 
2196.00, 
2197.00, 
2198.00, 
2199.00, 
2200.00, 
2201.00, 
2202.00, 
2203.00, 
2204.00, 
2205.00, 
2206.00, 
2207.00, 
2208.00, 
2209.00, 
2210.00, 
2211.00, 
2212.00, 
2213.00, 
2214.00, 
2215.00, 
2216.00, 
2217.00, 
2218.00, 
2219.00, 
2220.00, 
2221.00, 
2222.00, 
2223.00, 
2224.00, 
2225.00, 
2226.00, 
2227.00, 
2228.00, 
2229.00, 
2230.00, 
2231.00, 
2232.00, 
2233.00, 
2234.00, 
2235.00, 
2236.00, 
2237.00, 
2238.00, 
2239.00, 
2240.00, 
2241.00, 
2242.00, 
2243.00, 
2244.00, 
2245.00, 
2246.00, 
2247.00, 
2248.00, 
2249.00, 
2250.00, 
2251.00, 
2252.00, 
2253.00, 
2254.00, 
2255.00, 
2256.00, 
2257.00, 
2258.00, 
2259.00, 
2260.00, 
2261.00, 
2262.00, 
2263.00, 
2264.00, 
2265.00, 
2266.00, 
2267.00, 
2268.00, 
2269.00, 
2270.00, 
2271.00, 
2272.00, 
2273.00, 
2274.00, 
2275.00, 
2276.00, 
2277.00, 
2278.00, 
2279.00, 
2280.00, 
2281.00, 
2282.00, 
2283.00, 
2284.00, 
2285.00, 
2286.00, 
2287.00, 
2288.00, 
2289.00, 
2290.00, 
2291.00, 
2292.00, 
2293.00, 
2294.00, 
2295.00, 
2296.00, 
2297.00, 
2298.00, 
2299.00, 
2300.00, 
2301.00, 
2302.00, 
2303.00, 
2304.00, 
2305.00, 
2306.00, 
2307.00, 
2308.00, 
2309.00, 
2310.00, 
2311.00, 
2312.00, 
2313.00, 
2314.00, 
2315.00, 
2316.00, 
2317.00, 
2318.00, 
2319.00, 
2320.00, 
2321.00, 
2322.00, 
2323.00, 
2324.00, 
2325.00, 
2326.00, 
2327.00, 
2328.00, 
2329.00, 
2330.00, 
2331.00, 
2332.00, 
2333.00, 
2334.00, 
2335.00, 
2336.00, 
2337.00, 
2338.00, 
2339.00, 
2340.00, 
2341.00, 
2342.00, 
2343.00, 
2344.00, 
2345.00, 
2346.00, 
2347.00, 
2348.00, 
2349.00, 
2350.00, 
2351.00, 
2352.00, 
2353.00, 
2354.00, 
2355.00, 
2356.00, 
2357.00, 
2358.00, 
2359.00, 
2360.00, 
2361.00, 
2362.00, 
2363.00, 
2364.00, 
2365.00, 
2366.00, 
2367.00, 
2368.00, 
2369.00, 
2370.00, 
2371.00, 
2372.00, 
2373.00, 
2374.00, 
2375.00, 
2376.00, 
2377.00, 
2378.00, 
2379.00, 
2380.00, 
2381.00, 
2382.00, 
2383.00, 
2384.00, 
2385.00, 
2386.00, 
2387.00, 
2388.00, 
2389.00, 
2390.00, 
2391.00, 
2392.00, 
2393.00, 
2394.00, 
2395.00, 
2396.00, 
2397.00, 
2398.00, 
2399.00, 
2400.00, 
2401.00, 
2402.00, 
2403.00, 
2404.00, 
2405.00, 
2406.00, 
2407.00, 
2408.00, 
2409.00, 
2410.00, 
2411.00, 
2412.00, 
2413.00, 
2414.00, 
2415.00, 
2416.00, 
2417.00, 
2418.00, 
2419.00, 
2420.00, 
2421.00, 
2422.00, 
2423.00, 
2424.00, 
2425.00, 
2426.00, 
2427.00, 
2428.00, 
2429.00, 
2430.00, 
2431.00, 
2432.00, 
2433.00, 
2434.00, 
2435.00, 
2436.00, 
2437.00, 
2438.00, 
2439.00, 
2440.00, 
2441.00, 
2442.00, 
2443.00, 
2444.00, 
2445.00, 
2446.00, 
2447.00, 
2448.00, 
2449.00, 
2450.00, 
2451.00, 
2452.00, 
2453.00, 
2454.00, 
2455.00, 
2456.00, 
2457.00, 
2458.00, 
2459.00, 
2460.00, 
2461.00, 
2462.00, 
2463.00, 
2464.00, 
2465.00, 
2466.00, 
2467.00, 
2468.00, 
2469.00, 
2470.00, 
2471.00, 
2472.00, 
2473.00, 
2474.00, 
2475.00, 
2476.00, 
2477.00, 
2478.00, 
2479.00, 
2480.00, 
2481.00, 
2482.00, 
2483.00, 
2484.00, 
2485.00, 
2486.00, 
2487.00, 
2488.00, 
2489.00, 
2490.00, 
2491.00, 
2492.00, 
2493.00, 
2494.00, 
2495.00, 
2496.00, 
2497.00, 
2498.00, 
2499.00, 
2500.00, 
2501.00, 
2502.00, 
2503.00, 
2504.00, 
2505.00, 
2506.00, 
2507.00, 
2508.00, 
2509.00, 
2510.00, 
2511.00, 
2512.00, 
2513.00, 
2514.00, 
2515.00, 
2516.00, 
2517.00, 
2518.00, 
2519.00, 
2520.00, 
2521.00, 
2522.00, 
2523.00, 
2524.00, 
2525.00, 
2526.00, 
2527.00, 
2528.00, 
2529.00, 
2530.00, 
2531.00, 
2532.00, 
2533.00, 
2534.00, 
2535.00, 
2536.00, 
2537.00, 
2538.00, 
2539.00, 
2540.00, 
2541.00, 
2542.00, 
2543.00, 
2544.00, 
2545.00, 
2546.00, 
2547.00, 
2548.00, 
2549.00, 
2550.00, 
2551.00, 
2552.00, 
2553.00, 
2554.00, 
2555.00, 
2556.00, 
2557.00, 
2558.00, 
2559.00, 
2560.00, 
2561.00, 
2562.00, 
2563.00, 
2564.00, 
2565.00, 
2566.00, 
2567.00, 
2568.00, 
2569.00, 
2570.00, 
2571.00, 
2572.00, 
2573.00, 
2574.00, 
2575.00, 
2576.00, 
2577.00, 
2578.00, 
2579.00, 
2580.00, 
2581.00, 
2582.00, 
2583.00, 
2584.00, 
2585.00, 
2586.00, 
2587.00, 
2588.00, 
2589.00, 
2590.00, 
2591.00, 
2592.00, 
2593.00, 
2594.00, 
2595.00, 
2596.00, 
2597.00, 
2598.00, 
2599.00, 
2600.00, 
