"1bP2 - RawData"
"Wavelength nm.","T%"
200.00,-0.000
201.00,0.002
202.00,0.003
203.00,-0.000
204.00,0.001
205.00,0.002
206.00,0.000
207.00,0.003
208.00,0.001
209.00,-0.000
210.00,0.002
211.00,0.002
212.00,0.000
213.00,0.005
214.00,-0.000
215.00,0.001
216.00,0.003
217.00,-0.001
218.00,0.001
219.00,0.002
220.00,0.003
221.00,0.004
222.00,0.003
223.00,-0.003
224.00,-0.002
225.00,-0.001
226.00,0.001
227.00,0.001
228.00,0.001
229.00,-0.001
230.00,0.000
231.00,-0.001
232.00,-0.000
233.00,-0.002
234.00,0.002
235.00,0.001
236.00,-0.001
237.00,0.001
238.00,0.000
239.00,0.001
240.00,0.002
241.00,0.002
242.00,0.001
243.00,-0.002
244.00,0.000
245.00,0.003
246.00,0.001
247.00,0.001
248.00,0.001
249.00,0.000
250.00,0.000
251.00,0.000
252.00,0.002
253.00,0.001
254.00,0.001
255.00,-0.000
256.00,-0.000
257.00,0.000
258.00,0.001
259.00,-0.001
260.00,0.001
261.00,0.003
262.00,0.001
263.00,-0.001
264.00,-0.000
265.00,0.000
266.00,0.000
267.00,0.000
268.00,0.001
269.00,0.001
270.00,0.001
271.00,0.000
272.00,-0.001
273.00,0.001
274.00,-0.000
275.00,0.000
276.00,-0.001
277.00,0.001
278.00,0.001
279.00,0.000
280.00,0.000
281.00,-0.000
282.00,0.001
283.00,0.000
284.00,0.001
285.00,-0.001
286.00,0.000
287.00,0.001
288.00,0.001
289.00,-0.000
290.00,0.002
291.00,0.000
292.00,-0.000
293.00,-0.001
294.00,0.001
295.00,0.001
296.00,0.000
297.00,0.001
298.00,0.002
299.00,0.003
300.00,0.004
301.00,0.007
302.00,0.010
303.00,0.015
304.00,0.025
305.00,0.037
306.00,0.057
307.00,0.089
308.00,0.134
309.00,0.204
310.00,0.279
311.00,0.371
312.00,0.504
313.00,0.680
314.00,0.890
315.00,1.170
316.00,1.467
317.00,1.857
318.00,2.244
319.00,2.731
320.00,3.291
321.00,3.917
322.00,4.596
323.00,5.351
324.00,6.172
325.00,6.975
326.00,7.646
327.00,8.717
328.00,9.663
329.00,10.632
330.00,11.591
331.00,12.565
332.00,13.582
333.00,14.618
334.00,15.587
335.00,16.655
336.00,17.617
337.00,18.609
338.00,19.550
339.00,20.395
340.00,21.352
341.00,22.150
342.00,22.982
343.00,23.778
344.00,24.509
345.00,25.250
346.00,25.865
347.00,26.541
348.00,27.176
349.00,27.691
350.00,28.233
351.00,28.638
352.00,29.047
353.00,29.627
354.00,29.978
355.00,30.364
356.00,30.674
357.00,30.976
358.00,31.241
359.00,31.588
360.00,31.903
361.00,32.106
362.00,32.247
363.00,32.567
364.00,32.725
365.00,32.868
366.00,33.026
367.00,33.078
368.00,33.154
369.00,33.256
370.00,33.308
371.00,33.338
372.00,33.292
373.00,33.369
374.00,33.419
375.00,33.325
376.00,33.233
377.00,33.186
378.00,33.209
379.00,33.133
380.00,33.118
381.00,33.134
382.00,33.165
383.00,33.156
384.00,33.251
385.00,33.263
386.00,33.318
387.00,33.398
388.00,33.509
389.00,33.571
390.00,33.582
391.00,33.672
392.00,33.733
393.00,33.721
394.00,33.757
395.00,33.787
396.00,33.815
397.00,33.843
398.00,33.841
399.00,33.865
400.00,33.907
401.00,33.907
402.00,33.917
403.00,33.900
404.00,33.887
405.00,33.899
406.00,33.863
407.00,33.813
408.00,33.876
409.00,33.795
410.00,33.743
411.00,33.697
412.00,33.655
413.00,33.677
414.00,33.659
415.00,33.614
416.00,33.667
417.00,33.681
418.00,33.724
419.00,33.767
420.00,33.772
421.00,33.769
422.00,33.933
423.00,33.912
424.00,33.981
425.00,34.020
426.00,34.046
427.00,34.054
428.00,34.089
429.00,34.148
430.00,34.183
431.00,34.193
432.00,34.203
433.00,34.332
434.00,34.355
435.00,34.378
436.00,34.492
437.00,34.531
438.00,34.631
439.00,34.631
440.00,34.702
441.00,34.776
442.00,34.860
443.00,34.883
444.00,34.987
445.00,34.989
446.00,35.125
447.00,35.181
448.00,35.250
449.00,35.393
450.00,35.433
451.00,35.557
452.00,35.626
453.00,35.712
454.00,35.865
455.00,35.887
456.00,35.955
457.00,36.127
458.00,36.164
459.00,36.294
460.00,36.360
461.00,36.377
462.00,36.633
463.00,36.680
464.00,36.864
465.00,36.990
466.00,36.895
467.00,37.172
468.00,37.232
469.00,37.357
470.00,37.370
471.00,37.476
472.00,37.582
473.00,37.571
474.00,37.649
475.00,37.766
476.00,37.821
477.00,37.925
478.00,38.048
479.00,38.200
480.00,38.246
481.00,38.252
482.00,38.384
483.00,38.648
484.00,38.747
485.00,38.940
486.00,39.028
487.00,39.115
488.00,39.243
489.00,39.334
490.00,39.482
491.00,39.596
492.00,39.670
493.00,39.857
494.00,39.944
495.00,39.983
496.00,40.064
497.00,40.171
498.00,40.319
499.00,40.356
500.00,40.467
501.00,40.538
502.00,40.630
503.00,40.743
504.00,40.796
505.00,40.907
506.00,40.975
507.00,40.998
508.00,41.103
509.00,41.263
510.00,41.338
511.00,41.483
512.00,41.554
513.00,41.652
514.00,41.816
515.00,41.946
516.00,41.929
517.00,42.066
518.00,42.136
519.00,42.146
520.00,42.211
521.00,42.278
522.00,42.318
523.00,42.385
524.00,42.400
525.00,42.438
526.00,42.575
527.00,42.591
528.00,42.646
529.00,42.738
530.00,42.801
531.00,42.996
532.00,43.038
533.00,43.151
534.00,43.230
535.00,43.220
536.00,43.306
537.00,43.354
538.00,43.409
539.00,43.462
540.00,43.420
541.00,43.527
542.00,43.476
543.00,43.551
544.00,43.713
545.00,43.594
546.00,43.686
547.00,43.844
548.00,43.786
549.00,43.987
550.00,44.024
551.00,43.924
552.00,44.142
553.00,44.074
554.00,44.177
555.00,44.224
556.00,44.259
557.00,44.278
558.00,44.334
559.00,44.360
560.00,44.482
561.00,44.514
562.00,44.502
563.00,44.536
564.00,44.566
565.00,44.591
566.00,44.569
567.00,44.599
568.00,44.626
569.00,44.646
570.00,44.648
571.00,44.688
572.00,44.732
573.00,44.726
574.00,44.758
575.00,44.787
576.00,44.716
577.00,44.785
578.00,44.894
579.00,44.908
580.00,44.946
581.00,45.096
582.00,45.146
583.00,45.148
584.00,45.211
585.00,45.262
586.00,45.242
587.00,45.288
588.00,45.319
589.00,45.301
590.00,45.303
591.00,45.356
592.00,45.357
593.00,45.355
594.00,45.453
595.00,45.461
596.00,45.561
597.00,45.564
598.00,45.593
599.00,45.630
600.00,45.645
601.00,45.593
602.00,45.630
603.00,45.797
604.00,45.782
605.00,45.744
606.00,45.807
607.00,45.804
608.00,45.847
609.00,45.778
610.00,45.975
611.00,45.875
612.00,45.944
613.00,45.900
614.00,45.918
615.00,45.993
616.00,46.099
617.00,46.087
618.00,46.072
619.00,46.118
620.00,46.154
621.00,46.205
622.00,46.256
623.00,46.229
624.00,46.312
625.00,46.355
626.00,46.270
627.00,46.429
628.00,46.390
629.00,46.358
630.00,46.425
631.00,46.421
632.00,46.504
633.00,46.549
634.00,46.613
635.00,46.678
636.00,46.692
637.00,46.762
638.00,46.841
639.00,46.885
640.00,46.840
641.00,46.913
642.00,46.915
643.00,46.929
644.00,47.079
645.00,47.083
646.00,47.168
647.00,47.120
648.00,47.164
649.00,47.270
650.00,47.264
651.00,47.267
652.00,47.371
653.00,47.447
654.00,47.460
655.00,47.416
656.00,47.544
657.00,47.571
658.00,47.601
659.00,47.739
660.00,47.794
661.00,47.643
662.00,47.855
663.00,47.728
664.00,48.018
665.00,48.040
666.00,47.907
667.00,48.122
668.00,48.045
669.00,48.116
670.00,48.180
671.00,48.240
672.00,48.622
673.00,48.318
674.00,48.487
675.00,48.474
676.00,48.485
677.00,48.629
678.00,48.423
679.00,48.534
680.00,48.547
681.00,48.713
682.00,48.545
683.00,48.736
684.00,49.066
685.00,48.957
686.00,49.050
687.00,48.857
688.00,48.919
689.00,48.922
690.00,48.950
691.00,49.236
692.00,49.129
693.00,48.806
694.00,48.958
695.00,49.414
696.00,49.217
697.00,49.244
698.00,49.332
699.00,49.576
700.00,49.588
701.00,49.507
702.00,49.564
703.00,49.665
704.00,49.655
705.00,49.545
706.00,49.648
707.00,49.808
708.00,49.630
709.00,49.823
710.00,50.061
711.00,49.783
712.00,49.711
713.00,49.945
714.00,49.898
715.00,49.895
716.00,49.877
717.00,50.047
718.00,49.946
719.00,50.025
720.00,50.091
721.00,54.692
722.00,54.572
723.00,54.702
724.00,54.627
725.00,54.587
726.00,54.492
727.00,54.583
728.00,54.491
729.00,54.478
730.00,54.546
731.00,54.460
732.00,54.467
733.00,54.479
734.00,54.483
735.00,54.428
736.00,54.445
737.00,54.442
738.00,54.477
739.00,54.435
740.00,54.423
741.00,54.319
742.00,54.434
743.00,54.348
744.00,54.353
745.00,54.450
746.00,54.278
747.00,54.270
748.00,54.309
749.00,54.228
750.00,54.241
751.00,54.155
752.00,54.141
753.00,54.121
754.00,54.127
755.00,54.053
756.00,54.101
757.00,54.094
758.00,54.049
759.00,54.032
760.00,54.083
761.00,53.953
762.00,54.010
763.00,54.020
764.00,53.944
765.00,53.937
766.00,53.910
767.00,54.021
768.00,53.888
769.00,53.914
770.00,54.003
771.00,53.806
772.00,53.882
773.00,53.952
774.00,53.860
775.00,53.917
776.00,53.837
777.00,53.844
778.00,53.838
779.00,53.821
780.00,53.816
781.00,53.776
782.00,53.793
783.00,53.730
784.00,53.725
785.00,53.701
786.00,53.795
787.00,53.624
788.00,53.630
789.00,53.693
790.00,53.606
791.00,53.660
792.00,53.539
793.00,53.573
794.00,53.504
795.00,53.557
796.00,53.428
797.00,53.427
798.00,53.446
799.00,53.279
800.00,53.339
801.00,53.333
802.00,53.287
803.00,53.279
804.00,53.264
805.00,53.248
806.00,53.199
807.00,53.147
808.00,53.225
809.00,53.221
810.00,53.143
811.00,53.135
812.00,53.069
813.00,53.022
814.00,53.002
815.00,52.971
816.00,53.035
817.00,52.984
818.00,52.964
819.00,52.938
820.00,52.856
821.00,52.832
822.00,52.850
823.00,52.799
824.00,52.878
825.00,52.700
826.00,52.873
827.00,52.721
828.00,52.769
829.00,52.750
830.00,52.801
831.00,55.288
832.00,55.240
833.00,55.188
834.00,55.236
835.00,55.173
836.00,55.207
837.00,55.167
838.00,55.152
839.00,55.122
840.00,55.047
841.00,55.074
842.00,55.104
843.00,55.056
844.00,55.038
845.00,54.984
846.00,54.976
847.00,54.942
848.00,54.962
849.00,54.870
850.00,54.848
851.00,54.791
852.00,54.792
853.00,54.765
854.00,54.715
855.00,54.696
856.00,54.660
857.00,54.647
858.00,54.581
859.00,54.593
860.00,54.591
861.00,54.554
862.00,54.533
863.00,54.557
864.00,54.495
865.00,54.512
866.00,54.498
867.00,54.490
868.00,54.452
869.00,54.413
870.00,54.451
871.00,54.406
872.00,54.360
873.00,54.382
874.00,54.427
875.00,54.387
876.00,54.374
877.00,54.363
878.00,54.367
879.00,54.342
880.00,54.308
881.00,54.307
882.00,54.345
883.00,54.174
884.00,54.164
885.00,54.195
886.00,54.181
887.00,54.176
888.00,54.133
889.00,54.129
890.00,54.112
891.00,54.048
892.00,54.086
893.00,54.047
894.00,54.057
895.00,54.027
896.00,54.008
897.00,53.989
898.00,53.973
899.00,53.981
900.00,53.924
901.00,53.935
902.00,53.932
903.00,53.905
904.00,53.878
905.00,53.880
906.00,53.854
907.00,53.829
908.00,53.766
909.00,53.794
910.00,53.761
911.00,53.696
912.00,53.717
913.00,53.709
914.00,53.673
915.00,53.643
916.00,53.642
917.00,53.588
918.00,53.593
919.00,53.557
920.00,53.499
921.00,53.519
922.00,53.526
923.00,53.485
924.00,53.464
925.00,53.469
926.00,53.482
927.00,53.467
928.00,53.431
929.00,53.402
930.00,53.402
931.00,53.363
932.00,53.334
933.00,53.344
934.00,53.310
935.00,53.306
936.00,53.284
937.00,53.267
938.00,53.285
939.00,53.254
940.00,53.233
941.00,53.223
942.00,53.184
943.00,53.153
944.00,53.131
945.00,53.137
946.00,53.130
947.00,53.098
948.00,53.080
949.00,53.078
950.00,53.043
951.00,53.035
952.00,53.013
953.00,52.979
954.00,52.953
955.00,52.900
956.00,52.883
957.00,52.858
958.00,52.873
959.00,52.813
960.00,52.805
961.00,52.813
962.00,52.821
963.00,52.771
964.00,52.754
965.00,52.765
966.00,52.748
967.00,52.724
968.00,52.724
969.00,52.747
970.00,52.721
971.00,52.726
972.00,52.684
973.00,52.738
974.00,52.747
975.00,52.715
976.00,52.731
977.00,52.729
978.00,52.758
979.00,52.737
980.00,52.742
981.00,52.726
982.00,52.717
983.00,52.718
984.00,52.711
985.00,52.726
986.00,52.670
987.00,52.711
988.00,52.680
989.00,52.664
990.00,52.669
991.00,52.650
992.00,52.650
993.00,52.636
994.00,52.620
995.00,52.603
996.00,52.596
997.00,52.591
998.00,52.568
999.00,52.582
1000.00,52.546
1001.00,52.558
1002.00,52.531
1003.00,52.532
1004.00,52.518
1005.00,52.482
1006.00,52.504
1007.00,52.487
1008.00,52.466
1009.00,52.439
1010.00,52.442
1011.00,52.426
1012.00,52.414
1013.00,52.412
1014.00,52.365
1015.00,52.400
1016.00,52.350
1017.00,52.343
1018.00,52.347
1019.00,52.312
1020.00,52.297
1021.00,52.286
1022.00,52.273
1023.00,52.231
1024.00,52.229
1025.00,52.213
1026.00,52.230
1027.00,52.195
1028.00,52.181
1029.00,52.194
1030.00,52.158
1031.00,52.174
1032.00,52.118
1033.00,52.120
1034.00,52.093
1035.00,52.048
1036.00,52.043
1037.00,52.039
1038.00,52.004
1039.00,51.986
1040.00,51.973
1041.00,51.947
1042.00,51.942
1043.00,51.934
1044.00,51.932
1045.00,51.939
1046.00,51.932
1047.00,51.933
1048.00,51.958
1049.00,51.945
1050.00,51.956
1051.00,51.987
1052.00,51.990
1053.00,52.004
1054.00,51.992
1055.00,52.008
1056.00,52.026
1057.00,52.035
1058.00,52.006
1059.00,52.022
1060.00,52.033
1061.00,52.049
1062.00,52.009
1063.00,52.009
1064.00,52.020
1065.00,51.999
1066.00,51.986
1067.00,52.008
1068.00,52.015
1069.00,51.989
1070.00,51.967
1071.00,51.948
1072.00,51.942
1073.00,51.944
1074.00,51.916
1075.00,51.915
1076.00,51.968
1077.00,51.961
1078.00,51.922
1079.00,51.915
1080.00,51.923
1081.00,51.898
1082.00,51.883
1083.00,51.878
1084.00,51.884
1085.00,51.869
1086.00,51.857
1087.00,51.868
1088.00,51.857
1089.00,51.848
1090.00,51.858
1091.00,51.828
1092.00,51.837
1093.00,51.795
1094.00,51.792
1095.00,51.784
1096.00,51.764
1097.00,51.770
1098.00,51.764
1099.00,51.744
1100.00,51.746
1101.00,51.737
1102.00,51.715
1103.00,51.724
1104.00,51.720
1105.00,51.687
1106.00,51.707
1107.00,51.717
1108.00,51.706
1109.00,51.699
1110.00,51.684
1111.00,51.678
1112.00,51.644
1113.00,51.624
1114.00,51.631
1115.00,51.624
1116.00,51.622
1117.00,51.599
1118.00,51.586
1119.00,51.601
1120.00,51.616
1121.00,51.603
1122.00,51.598
1123.00,51.577
1124.00,51.560
1125.00,51.569
1126.00,51.568
1127.00,51.570
1128.00,51.559
1129.00,51.538
1130.00,51.548
1131.00,51.547
1132.00,51.545
1133.00,51.543
1134.00,51.525
1135.00,51.488
1136.00,51.516
1137.00,51.514
1138.00,51.520
1139.00,51.525
1140.00,51.506
1141.00,51.514
1142.00,51.505
1143.00,51.502
1144.00,51.495
1145.00,51.489
1146.00,51.471
1147.00,51.468
1148.00,51.455
1149.00,51.470
1150.00,51.481
1151.00,51.478
1152.00,51.468
1153.00,51.468
1154.00,51.437
1155.00,51.461
1156.00,51.442
1157.00,51.433
1158.00,51.446
1159.00,51.433
1160.00,51.437
1161.00,51.455
1162.00,51.444
1163.00,51.458
1164.00,51.451
1165.00,51.456
1166.00,51.441
1167.00,51.457
1168.00,51.468
1169.00,51.458
1170.00,51.456
1171.00,51.431
1172.00,51.428
1173.00,51.422
1174.00,51.443
1175.00,51.431
1176.00,51.435
1177.00,51.440
1178.00,51.430
1179.00,51.422
1180.00,51.428
1181.00,51.446
1182.00,51.432
1183.00,51.432
1184.00,51.418
1185.00,51.439
1186.00,51.432
1187.00,51.426
1188.00,51.429
1189.00,51.423
1190.00,51.403
1191.00,51.418
1192.00,51.426
1193.00,51.412
1194.00,51.425
1195.00,51.407
1196.00,51.444
1197.00,51.441
1198.00,51.432
1199.00,51.452
1200.00,51.449
1201.00,51.439
1202.00,51.435
1203.00,51.427
1204.00,51.416
1205.00,51.432
1206.00,51.425
1207.00,51.439
1208.00,51.407
1209.00,51.411
1210.00,51.415
1211.00,51.423
1212.00,51.404
1213.00,51.404
1214.00,51.459
1215.00,51.409
1216.00,51.429
1217.00,51.430
1218.00,51.426
1219.00,51.435
1220.00,51.398
1221.00,51.452
1222.00,51.416
1223.00,51.433
1224.00,51.433
1225.00,51.418
1226.00,51.403
1227.00,51.408
1228.00,51.460
1229.00,51.464
1230.00,51.452
1231.00,51.446
1232.00,51.467
1233.00,51.463
1234.00,51.457
1235.00,51.479
1236.00,51.472
1237.00,51.459
1238.00,51.476
1239.00,51.480
1240.00,51.476
1241.00,51.477
1242.00,51.477
1243.00,51.508
1244.00,51.482
1245.00,51.498
1246.00,51.511
1247.00,51.496
1248.00,51.481
1249.00,51.509
1250.00,51.503
1251.00,51.513
1252.00,51.514
1253.00,51.497
1254.00,51.541
1255.00,51.524
1256.00,51.496
1257.00,51.503
1258.00,51.516
1259.00,51.517
1260.00,51.548
1261.00,51.554
1262.00,51.552
1263.00,51.541
1264.00,51.542
1265.00,51.567
1266.00,51.565
1267.00,51.556
1268.00,51.594
1269.00,51.582
1270.00,51.593
1271.00,51.599
1272.00,51.609
1273.00,51.617
1274.00,51.638
1275.00,51.638
1276.00,51.634
1277.00,51.628
1278.00,51.633
1279.00,51.645
1280.00,51.642
1281.00,51.642
1282.00,51.654
1283.00,51.630
1284.00,51.661
1285.00,51.659
1286.00,51.642
1287.00,51.660
1288.00,51.659
1289.00,51.641
1290.00,51.683
1291.00,51.687
1292.00,51.681
1293.00,51.706
1294.00,51.698
1295.00,51.731
1296.00,51.716
1297.00,51.714
1298.00,51.740
1299.00,51.715
1300.00,51.708
1301.00,51.724
1302.00,51.735
1303.00,51.719
1304.00,51.737
1305.00,51.781
1306.00,51.741
1307.00,51.759
1308.00,51.771
1309.00,51.804
1310.00,51.799
1311.00,51.764
1312.00,51.794
1313.00,51.776
1314.00,51.805
1315.00,51.837
1316.00,51.827
1317.00,51.849
1318.00,51.840
1319.00,51.827
1320.00,51.843
1321.00,52.021
1322.00,51.995
1323.00,51.996
1324.00,51.988
1325.00,51.956
1326.00,52.005
1327.00,51.980
1328.00,51.966
1329.00,51.984
1330.00,51.985
1331.00,51.986
1332.00,51.982
1333.00,51.968
1334.00,52.030
1335.00,52.036
1336.00,52.062
1337.00,52.104
1338.00,52.161
1339.00,52.207
1340.00,52.276
1341.00,52.329
1342.00,52.397
1343.00,52.452
1344.00,52.478
1345.00,52.548
1346.00,52.576
1347.00,52.581
1348.00,52.636
1349.00,52.660
1350.00,52.680
1351.00,52.694
1352.00,52.710
1353.00,52.694
1354.00,52.711
1355.00,52.624
1356.00,52.657
1357.00,52.701
1358.00,52.721
1359.00,52.759
1360.00,52.804
1361.00,52.718
1362.00,52.715
1363.00,52.774
1364.00,52.726
1365.00,52.745
1366.00,52.752
1367.00,52.737
1368.00,52.726
1369.00,52.690
1370.00,52.715
1371.00,52.681
1372.00,52.680
1373.00,52.712
1374.00,52.714
1375.00,52.724
1376.00,52.705
1377.00,52.620
1378.00,52.696
1379.00,52.736
1380.00,52.811
1381.00,52.728
1382.00,52.766
1383.00,52.716
1384.00,52.695
1385.00,52.646
1386.00,52.684
1387.00,52.746
1388.00,52.616
1389.00,52.652
1390.00,52.668
1391.00,52.626
1392.00,52.700
1393.00,52.722
1394.00,52.709
1395.00,52.623
1396.00,52.625
1397.00,52.653
1398.00,52.655
1399.00,52.670
1400.00,52.685
1401.00,52.661
1402.00,52.732
1403.00,52.656
1404.00,52.674
1405.00,52.713
1406.00,52.716
1407.00,52.718
1408.00,52.745
1409.00,52.713
1410.00,52.757
1411.00,52.413
1412.00,52.823
1413.00,52.761
1414.00,52.709
1415.00,52.734
1416.00,52.785
1417.00,52.861
1418.00,52.796
1419.00,52.795
1420.00,52.812
1421.00,52.851
1422.00,52.848
1423.00,52.847
1424.00,52.834
1425.00,52.858
1426.00,52.882
1427.00,52.900
1428.00,52.900
1429.00,52.912
1430.00,52.922
1431.00,52.934
1432.00,52.933
1433.00,52.960
1434.00,52.964
1435.00,52.992
1436.00,53.022
1437.00,52.996
1438.00,53.023
1439.00,53.056
1440.00,53.067
1441.00,53.082
1442.00,53.079
1443.00,53.118
1444.00,53.172
1445.00,53.114
1446.00,53.106
1447.00,53.137
1448.00,53.183
1449.00,53.202
1450.00,53.208
1451.00,53.211
1452.00,53.228
1453.00,53.241
1454.00,53.232
1455.00,53.277
1456.00,53.309
1457.00,53.277
1458.00,53.306
1459.00,53.325
1460.00,53.325
1461.00,53.348
1462.00,53.381
1463.00,53.395
1464.00,53.399
1465.00,53.409
1466.00,53.413
1467.00,53.425
1468.00,53.453
1469.00,53.443
1470.00,53.458
1471.00,53.469
1472.00,53.499
1473.00,53.527
1474.00,53.530
1475.00,53.540
1476.00,53.538
1477.00,53.548
1478.00,53.570
1479.00,53.575
1480.00,53.572
1481.00,53.573
1482.00,53.588
1483.00,53.601
1484.00,53.586
1485.00,53.614
1486.00,53.614
1487.00,53.638
1488.00,53.673
1489.00,53.668
1490.00,53.649
1491.00,53.685
1492.00,53.700
1493.00,53.689
1494.00,53.730
1495.00,53.727
1496.00,53.741
1497.00,53.767
1498.00,53.751
1499.00,53.785
1500.00,53.777
1501.00, 
1502.00, 
1503.00, 
1504.00, 
1505.00, 
1506.00, 
1507.00, 
1508.00, 
1509.00, 
1510.00, 
1511.00, 
1512.00, 
1513.00, 
1514.00, 
1515.00, 
1516.00, 
1517.00, 
1518.00, 
1519.00, 
1520.00, 
1521.00, 
1522.00, 
1523.00, 
1524.00, 
1525.00, 
1526.00, 
1527.00, 
1528.00, 
1529.00, 
1530.00, 
1531.00, 
1532.00, 
1533.00, 
1534.00, 
1535.00, 
1536.00, 
1537.00, 
1538.00, 
1539.00, 
1540.00, 
1541.00, 
1542.00, 
1543.00, 
1544.00, 
1545.00, 
1546.00, 
1547.00, 
1548.00, 
1549.00, 
1550.00, 
1551.00, 
1552.00, 
1553.00, 
1554.00, 
1555.00, 
1556.00, 
1557.00, 
1558.00, 
1559.00, 
1560.00, 
1561.00, 
1562.00, 
1563.00, 
1564.00, 
1565.00, 
1566.00, 
1567.00, 
1568.00, 
1569.00, 
1570.00, 
1571.00, 
1572.00, 
1573.00, 
1574.00, 
1575.00, 
1576.00, 
1577.00, 
1578.00, 
1579.00, 
1580.00, 
1581.00, 
1582.00, 
1583.00, 
1584.00, 
1585.00, 
1586.00, 
1587.00, 
1588.00, 
1589.00, 
1590.00, 
1591.00, 
1592.00, 
1593.00, 
1594.00, 
1595.00, 
1596.00, 
1597.00, 
1598.00, 
1599.00, 
1600.00, 
1601.00, 
1602.00, 
1603.00, 
1604.00, 
1605.00, 
1606.00, 
1607.00, 
1608.00, 
1609.00, 
1610.00, 
1611.00, 
1612.00, 
1613.00, 
1614.00, 
1615.00, 
1616.00, 
1617.00, 
1618.00, 
1619.00, 
1620.00, 
1621.00, 
1622.00, 
1623.00, 
1624.00, 
1625.00, 
1626.00, 
1627.00, 
1628.00, 
1629.00, 
1630.00, 
1631.00, 
1632.00, 
1633.00, 
1634.00, 
1635.00, 
1636.00, 
1637.00, 
1638.00, 
1639.00, 
1640.00, 
1641.00, 
1642.00, 
1643.00, 
1644.00, 
1645.00, 
1646.00, 
1647.00, 
1648.00, 
1649.00, 
1650.00, 
1651.00, 
1652.00, 
1653.00, 
1654.00, 
1655.00, 
1656.00, 
1657.00, 
1658.00, 
1659.00, 
1660.00, 
1661.00, 
1662.00, 
1663.00, 
1664.00, 
1665.00, 
1666.00, 
1667.00, 
1668.00, 
1669.00, 
1670.00, 
1671.00, 
1672.00, 
1673.00, 
1674.00, 
1675.00, 
1676.00, 
1677.00, 
1678.00, 
1679.00, 
1680.00, 
1681.00, 
1682.00, 
1683.00, 
1684.00, 
1685.00, 
1686.00, 
1687.00, 
1688.00, 
1689.00, 
1690.00, 
1691.00, 
1692.00, 
1693.00, 
1694.00, 
1695.00, 
1696.00, 
1697.00, 
1698.00, 
1699.00, 
1700.00, 
1701.00, 
1702.00, 
1703.00, 
1704.00, 
1705.00, 
1706.00, 
1707.00, 
1708.00, 
1709.00, 
1710.00, 
1711.00, 
1712.00, 
1713.00, 
1714.00, 
1715.00, 
1716.00, 
1717.00, 
1718.00, 
1719.00, 
1720.00, 
1721.00, 
1722.00, 
1723.00, 
1724.00, 
1725.00, 
1726.00, 
1727.00, 
1728.00, 
1729.00, 
1730.00, 
1731.00, 
1732.00, 
1733.00, 
1734.00, 
1735.00, 
1736.00, 
1737.00, 
1738.00, 
1739.00, 
1740.00, 
1741.00, 
1742.00, 
1743.00, 
1744.00, 
1745.00, 
1746.00, 
1747.00, 
1748.00, 
1749.00, 
1750.00, 
1751.00, 
1752.00, 
1753.00, 
1754.00, 
1755.00, 
1756.00, 
1757.00, 
1758.00, 
1759.00, 
1760.00, 
1761.00, 
1762.00, 
1763.00, 
1764.00, 
1765.00, 
1766.00, 
1767.00, 
1768.00, 
1769.00, 
1770.00, 
1771.00, 
1772.00, 
1773.00, 
1774.00, 
1775.00, 
1776.00, 
1777.00, 
1778.00, 
1779.00, 
1780.00, 
1781.00, 
1782.00, 
1783.00, 
1784.00, 
1785.00, 
1786.00, 
1787.00, 
1788.00, 
1789.00, 
1790.00, 
1791.00, 
1792.00, 
1793.00, 
1794.00, 
1795.00, 
1796.00, 
1797.00, 
1798.00, 
1799.00, 
1800.00, 
1801.00, 
1802.00, 
1803.00, 
1804.00, 
1805.00, 
1806.00, 
1807.00, 
1808.00, 
1809.00, 
1810.00, 
1811.00, 
1812.00, 
1813.00, 
1814.00, 
1815.00, 
1816.00, 
1817.00, 
1818.00, 
1819.00, 
1820.00, 
1821.00, 
1822.00, 
1823.00, 
1824.00, 
1825.00, 
1826.00, 
1827.00, 
1828.00, 
1829.00, 
1830.00, 
1831.00, 
1832.00, 
1833.00, 
1834.00, 
1835.00, 
1836.00, 
1837.00, 
1838.00, 
1839.00, 
1840.00, 
1841.00, 
1842.00, 
1843.00, 
1844.00, 
1845.00, 
1846.00, 
1847.00, 
1848.00, 
1849.00, 
1850.00, 
1851.00, 
1852.00, 
1853.00, 
1854.00, 
1855.00, 
1856.00, 
1857.00, 
1858.00, 
1859.00, 
1860.00, 
1861.00, 
1862.00, 
1863.00, 
1864.00, 
1865.00, 
1866.00, 
1867.00, 
1868.00, 
1869.00, 
1870.00, 
1871.00, 
1872.00, 
1873.00, 
1874.00, 
1875.00, 
1876.00, 
1877.00, 
1878.00, 
1879.00, 
1880.00, 
1881.00, 
1882.00, 
1883.00, 
1884.00, 
1885.00, 
1886.00, 
1887.00, 
1888.00, 
1889.00, 
1890.00, 
1891.00, 
1892.00, 
1893.00, 
1894.00, 
1895.00, 
1896.00, 
1897.00, 
1898.00, 
1899.00, 
1900.00, 
1901.00, 
1902.00, 
1903.00, 
1904.00, 
1905.00, 
1906.00, 
1907.00, 
1908.00, 
1909.00, 
1910.00, 
1911.00, 
1912.00, 
1913.00, 
1914.00, 
1915.00, 
1916.00, 
1917.00, 
1918.00, 
1919.00, 
1920.00, 
1921.00, 
1922.00, 
1923.00, 
1924.00, 
1925.00, 
1926.00, 
1927.00, 
1928.00, 
1929.00, 
1930.00, 
1931.00, 
1932.00, 
1933.00, 
1934.00, 
1935.00, 
1936.00, 
1937.00, 
1938.00, 
1939.00, 
1940.00, 
1941.00, 
1942.00, 
1943.00, 
1944.00, 
1945.00, 
1946.00, 
1947.00, 
1948.00, 
1949.00, 
1950.00, 
1951.00, 
1952.00, 
1953.00, 
1954.00, 
1955.00, 
1956.00, 
1957.00, 
1958.00, 
1959.00, 
1960.00, 
1961.00, 
1962.00, 
1963.00, 
1964.00, 
1965.00, 
1966.00, 
1967.00, 
1968.00, 
1969.00, 
1970.00, 
1971.00, 
1972.00, 
1973.00, 
1974.00, 
1975.00, 
1976.00, 
1977.00, 
1978.00, 
1979.00, 
1980.00, 
1981.00, 
1982.00, 
1983.00, 
1984.00, 
1985.00, 
1986.00, 
1987.00, 
1988.00, 
1989.00, 
1990.00, 
1991.00, 
1992.00, 
1993.00, 
1994.00, 
1995.00, 
1996.00, 
1997.00, 
1998.00, 
1999.00, 
2000.00, 
2001.00, 
2002.00, 
2003.00, 
2004.00, 
2005.00, 
2006.00, 
2007.00, 
2008.00, 
2009.00, 
2010.00, 
2011.00, 
2012.00, 
2013.00, 
2014.00, 
2015.00, 
2016.00, 
2017.00, 
2018.00, 
2019.00, 
2020.00, 
2021.00, 
2022.00, 
2023.00, 
2024.00, 
2025.00, 
2026.00, 
2027.00, 
2028.00, 
2029.00, 
2030.00, 
2031.00, 
2032.00, 
2033.00, 
2034.00, 
2035.00, 
2036.00, 
2037.00, 
2038.00, 
2039.00, 
2040.00, 
2041.00, 
2042.00, 
2043.00, 
2044.00, 
2045.00, 
2046.00, 
2047.00, 
2048.00, 
2049.00, 
2050.00, 
2051.00, 
2052.00, 
2053.00, 
2054.00, 
2055.00, 
2056.00, 
2057.00, 
2058.00, 
2059.00, 
2060.00, 
2061.00, 
2062.00, 
2063.00, 
2064.00, 
2065.00, 
2066.00, 
2067.00, 
2068.00, 
2069.00, 
2070.00, 
2071.00, 
2072.00, 
2073.00, 
2074.00, 
2075.00, 
2076.00, 
2077.00, 
2078.00, 
2079.00, 
2080.00, 
2081.00, 
2082.00, 
2083.00, 
2084.00, 
2085.00, 
2086.00, 
2087.00, 
2088.00, 
2089.00, 
2090.00, 
2091.00, 
2092.00, 
2093.00, 
2094.00, 
2095.00, 
2096.00, 
2097.00, 
2098.00, 
2099.00, 
2100.00, 
2101.00, 
2102.00, 
2103.00, 
2104.00, 
2105.00, 
2106.00, 
2107.00, 
2108.00, 
2109.00, 
2110.00, 
2111.00, 
2112.00, 
2113.00, 
2114.00, 
2115.00, 
2116.00, 
2117.00, 
2118.00, 
2119.00, 
2120.00, 
2121.00, 
2122.00, 
2123.00, 
2124.00, 
2125.00, 
2126.00, 
2127.00, 
2128.00, 
2129.00, 
2130.00, 
2131.00, 
2132.00, 
2133.00, 
2134.00, 
2135.00, 
2136.00, 
2137.00, 
2138.00, 
2139.00, 
2140.00, 
2141.00, 
2142.00, 
2143.00, 
2144.00, 
2145.00, 
2146.00, 
2147.00, 
2148.00, 
2149.00, 
2150.00, 
2151.00, 
2152.00, 
2153.00, 
2154.00, 
2155.00, 
2156.00, 
2157.00, 
2158.00, 
2159.00, 
2160.00, 
2161.00, 
2162.00, 
2163.00, 
2164.00, 
2165.00, 
2166.00, 
2167.00, 
2168.00, 
2169.00, 
2170.00, 
2171.00, 
2172.00, 
2173.00, 
2174.00, 
2175.00, 
2176.00, 
2177.00, 
2178.00, 
2179.00, 
2180.00, 
2181.00, 
2182.00, 
2183.00, 
2184.00, 
2185.00, 
2186.00, 
2187.00, 
2188.00, 
2189.00, 
2190.00, 
2191.00, 
2192.00, 
2193.00, 
2194.00, 
2195.00, 
2196.00, 
2197.00, 
2198.00, 
2199.00, 
2200.00, 
2201.00, 
2202.00, 
2203.00, 
2204.00, 
2205.00, 
2206.00, 
2207.00, 
2208.00, 
2209.00, 
2210.00, 
2211.00, 
2212.00, 
2213.00, 
2214.00, 
2215.00, 
2216.00, 
2217.00, 
2218.00, 
2219.00, 
2220.00, 
2221.00, 
2222.00, 
2223.00, 
2224.00, 
2225.00, 
2226.00, 
2227.00, 
2228.00, 
2229.00, 
2230.00, 
2231.00, 
2232.00, 
2233.00, 
2234.00, 
2235.00, 
2236.00, 
2237.00, 
2238.00, 
2239.00, 
2240.00, 
2241.00, 
2242.00, 
2243.00, 
2244.00, 
2245.00, 
2246.00, 
2247.00, 
2248.00, 
2249.00, 
2250.00, 
2251.00, 
2252.00, 
2253.00, 
2254.00, 
2255.00, 
2256.00, 
2257.00, 
2258.00, 
2259.00, 
2260.00, 
2261.00, 
2262.00, 
2263.00, 
2264.00, 
2265.00, 
2266.00, 
2267.00, 
2268.00, 
2269.00, 
2270.00, 
2271.00, 
2272.00, 
2273.00, 
2274.00, 
2275.00, 
2276.00, 
2277.00, 
2278.00, 
2279.00, 
2280.00, 
2281.00, 
2282.00, 
2283.00, 
2284.00, 
2285.00, 
2286.00, 
2287.00, 
2288.00, 
2289.00, 
2290.00, 
2291.00, 
2292.00, 
2293.00, 
2294.00, 
2295.00, 
2296.00, 
2297.00, 
2298.00, 
2299.00, 
2300.00, 
2301.00, 
2302.00, 
2303.00, 
2304.00, 
2305.00, 
2306.00, 
2307.00, 
2308.00, 
2309.00, 
2310.00, 
2311.00, 
2312.00, 
2313.00, 
2314.00, 
2315.00, 
2316.00, 
2317.00, 
2318.00, 
2319.00, 
2320.00, 
2321.00, 
2322.00, 
2323.00, 
2324.00, 
2325.00, 
2326.00, 
2327.00, 
2328.00, 
2329.00, 
2330.00, 
2331.00, 
2332.00, 
2333.00, 
2334.00, 
2335.00, 
2336.00, 
2337.00, 
2338.00, 
2339.00, 
2340.00, 
2341.00, 
2342.00, 
2343.00, 
2344.00, 
2345.00, 
2346.00, 
2347.00, 
2348.00, 
2349.00, 
2350.00, 
2351.00, 
2352.00, 
2353.00, 
2354.00, 
2355.00, 
2356.00, 
2357.00, 
2358.00, 
2359.00, 
2360.00, 
2361.00, 
2362.00, 
2363.00, 
2364.00, 
2365.00, 
2366.00, 
2367.00, 
2368.00, 
2369.00, 
2370.00, 
2371.00, 
2372.00, 
2373.00, 
2374.00, 
2375.00, 
2376.00, 
2377.00, 
2378.00, 
2379.00, 
2380.00, 
2381.00, 
2382.00, 
2383.00, 
2384.00, 
2385.00, 
2386.00, 
2387.00, 
2388.00, 
2389.00, 
2390.00, 
2391.00, 
2392.00, 
2393.00, 
2394.00, 
2395.00, 
2396.00, 
2397.00, 
2398.00, 
2399.00, 
2400.00, 
2401.00, 
2402.00, 
2403.00, 
2404.00, 
2405.00, 
2406.00, 
2407.00, 
2408.00, 
2409.00, 
2410.00, 
2411.00, 
2412.00, 
2413.00, 
2414.00, 
2415.00, 
2416.00, 
2417.00, 
2418.00, 
2419.00, 
2420.00, 
2421.00, 
2422.00, 
2423.00, 
2424.00, 
2425.00, 
2426.00, 
2427.00, 
2428.00, 
2429.00, 
2430.00, 
2431.00, 
2432.00, 
2433.00, 
2434.00, 
2435.00, 
2436.00, 
2437.00, 
2438.00, 
2439.00, 
2440.00, 
2441.00, 
2442.00, 
2443.00, 
2444.00, 
2445.00, 
2446.00, 
2447.00, 
2448.00, 
2449.00, 
2450.00, 
2451.00, 
2452.00, 
2453.00, 
2454.00, 
2455.00, 
2456.00, 
2457.00, 
2458.00, 
2459.00, 
2460.00, 
2461.00, 
2462.00, 
2463.00, 
2464.00, 
2465.00, 
2466.00, 
2467.00, 
2468.00, 
2469.00, 
2470.00, 
2471.00, 
2472.00, 
2473.00, 
2474.00, 
2475.00, 
2476.00, 
2477.00, 
2478.00, 
2479.00, 
2480.00, 
2481.00, 
2482.00, 
2483.00, 
2484.00, 
2485.00, 
2486.00, 
2487.00, 
2488.00, 
2489.00, 
2490.00, 
2491.00, 
2492.00, 
2493.00, 
2494.00, 
2495.00, 
2496.00, 
2497.00, 
2498.00, 
2499.00, 
2500.00, 
2501.00, 
2502.00, 
2503.00, 
2504.00, 
2505.00, 
2506.00, 
2507.00, 
2508.00, 
2509.00, 
2510.00, 
2511.00, 
2512.00, 
2513.00, 
2514.00, 
2515.00, 
2516.00, 
2517.00, 
2518.00, 
2519.00, 
2520.00, 
2521.00, 
2522.00, 
2523.00, 
2524.00, 
2525.00, 
2526.00, 
2527.00, 
2528.00, 
2529.00, 
2530.00, 
2531.00, 
2532.00, 
2533.00, 
2534.00, 
2535.00, 
2536.00, 
2537.00, 
2538.00, 
2539.00, 
2540.00, 
2541.00, 
2542.00, 
2543.00, 
2544.00, 
2545.00, 
2546.00, 
2547.00, 
2548.00, 
2549.00, 
2550.00, 
2551.00, 
2552.00, 
2553.00, 
2554.00, 
2555.00, 
2556.00, 
2557.00, 
2558.00, 
2559.00, 
2560.00, 
2561.00, 
2562.00, 
2563.00, 
2564.00, 
2565.00, 
2566.00, 
2567.00, 
2568.00, 
2569.00, 
2570.00, 
2571.00, 
2572.00, 
2573.00, 
2574.00, 
2575.00, 
2576.00, 
2577.00, 
2578.00, 
2579.00, 
2580.00, 
2581.00, 
2582.00, 
2583.00, 
2584.00, 
2585.00, 
2586.00, 
2587.00, 
2588.00, 
2589.00, 
2590.00, 
2591.00, 
2592.00, 
2593.00, 
2594.00, 
2595.00, 
2596.00, 
2597.00, 
2598.00, 
2599.00, 
2600.00, 
