"2cP5 - RawData"
"Wavelength nm.","T%"
200.00,0.001
201.00,0.001
202.00,0.000
203.00,0.000
204.00,0.002
205.00,0.002
206.00,-0.000
207.00,-0.000
208.00,0.002
209.00,-0.000
210.00,0.002
211.00,0.000
212.00,0.002
213.00,0.000
214.00,0.004
215.00,0.002
216.00,0.000
217.00,0.004
218.00,0.001
219.00,0.000
220.00,-0.000
221.00,0.003
222.00,-0.001
223.00,0.002
224.00,0.002
225.00,-0.001
226.00,0.001
227.00,0.001
228.00,0.001
229.00,0.002
230.00,0.002
231.00,0.000
232.00,0.000
233.00,0.001
234.00,0.002
235.00,0.001
236.00,0.003
237.00,0.002
238.00,-0.001
239.00,0.001
240.00,0.000
241.00,0.001
242.00,0.001
243.00,-0.001
244.00,-0.001
245.00,-0.000
246.00,-0.001
247.00,0.000
248.00,0.001
249.00,-0.001
250.00,0.000
251.00,0.000
252.00,0.001
253.00,0.001
254.00,0.001
255.00,-0.001
256.00,-0.000
257.00,0.001
258.00,0.001
259.00,0.000
260.00,-0.001
261.00,0.004
262.00,0.000
263.00,0.001
264.00,-0.001
265.00,0.002
266.00,0.001
267.00,-0.000
268.00,-0.000
269.00,0.001
270.00,0.001
271.00,-0.000
272.00,0.001
273.00,0.000
274.00,0.001
275.00,0.001
276.00,-0.001
277.00,0.001
278.00,-0.000
279.00,0.000
280.00,-0.001
281.00,-0.001
282.00,-0.001
283.00,0.001
284.00,0.001
285.00,0.001
286.00,0.000
287.00,0.001
288.00,0.000
289.00,0.000
290.00,-0.001
291.00,-0.000
292.00,0.003
293.00,-0.000
294.00,-0.000
295.00,-0.000
296.00,0.001
297.00,0.002
298.00,-0.000
299.00,0.001
300.00,0.002
301.00,0.004
302.00,0.005
303.00,0.006
304.00,0.012
305.00,0.017
306.00,0.028
307.00,0.044
308.00,0.065
309.00,0.103
310.00,0.146
311.00,0.199
312.00,0.268
313.00,0.365
314.00,0.483
315.00,0.624
316.00,0.791
317.00,1.012
318.00,1.247
319.00,1.522
320.00,1.859
321.00,2.243
322.00,2.655
323.00,3.122
324.00,3.609
325.00,4.127
326.00,4.634
327.00,5.244
328.00,5.859
329.00,6.400
330.00,7.135
331.00,7.769
332.00,8.475
333.00,9.193
334.00,9.853
335.00,10.573
336.00,11.240
337.00,11.919
338.00,12.617
339.00,13.226
340.00,13.866
341.00,14.503
342.00,15.050
343.00,15.625
344.00,16.163
345.00,16.740
346.00,17.238
347.00,17.705
348.00,18.129
349.00,18.551
350.00,18.933
351.00,19.254
352.00,19.621
353.00,19.963
354.00,20.265
355.00,20.594
356.00,20.841
357.00,21.064
358.00,21.286
359.00,21.537
360.00,21.775
361.00,21.927
362.00,22.087
363.00,22.286
364.00,22.391
365.00,22.460
366.00,22.623
367.00,22.695
368.00,22.719
369.00,22.837
370.00,22.879
371.00,22.886
372.00,22.895
373.00,22.894
374.00,22.945
375.00,22.953
376.00,22.906
377.00,22.905
378.00,22.788
379.00,22.788
380.00,22.731
381.00,22.783
382.00,22.774
383.00,22.764
384.00,22.825
385.00,22.831
386.00,22.863
387.00,22.931
388.00,22.971
389.00,23.030
390.00,23.042
391.00,23.085
392.00,23.110
393.00,23.047
394.00,23.131
395.00,23.150
396.00,23.190
397.00,23.194
398.00,23.201
399.00,23.206
400.00,23.174
401.00,23.214
402.00,23.215
403.00,23.219
404.00,23.240
405.00,23.222
406.00,23.207
407.00,23.199
408.00,23.207
409.00,23.155
410.00,23.122
411.00,23.122
412.00,23.092
413.00,23.107
414.00,23.104
415.00,23.090
416.00,23.147
417.00,23.147
418.00,23.201
419.00,23.249
420.00,23.276
421.00,23.351
422.00,23.367
423.00,23.403
424.00,23.451
425.00,23.494
426.00,23.535
427.00,23.587
428.00,23.626
429.00,23.666
430.00,23.747
431.00,23.796
432.00,23.828
433.00,23.898
434.00,23.957
435.00,24.030
436.00,24.107
437.00,24.142
438.00,24.249
439.00,24.272
440.00,24.375
441.00,24.441
442.00,24.561
443.00,24.652
444.00,24.733
445.00,24.842
446.00,24.923
447.00,25.027
448.00,25.111
449.00,25.219
450.00,25.342
451.00,25.442
452.00,25.517
453.00,25.660
454.00,25.745
455.00,25.862
456.00,25.986
457.00,26.115
458.00,26.206
459.00,26.348
460.00,26.490
461.00,26.615
462.00,26.718
463.00,26.849
464.00,27.003
465.00,27.126
466.00,27.276
467.00,27.410
468.00,27.496
469.00,27.614
470.00,27.715
471.00,27.795
472.00,27.965
473.00,28.009
474.00,28.155
475.00,28.265
476.00,28.370
477.00,28.490
478.00,28.613
479.00,28.823
480.00,28.884
481.00,29.016
482.00,29.234
483.00,29.298
484.00,29.513
485.00,29.667
486.00,29.827
487.00,29.939
488.00,30.080
489.00,30.210
490.00,30.387
491.00,30.507
492.00,30.640
493.00,30.849
494.00,30.979
495.00,31.041
496.00,31.130
497.00,31.273
498.00,31.436
499.00,31.535
500.00,31.682
501.00,31.786
502.00,31.947
503.00,32.070
504.00,32.109
505.00,32.279
506.00,32.409
507.00,32.517
508.00,32.577
509.00,32.746
510.00,32.881
511.00,32.882
512.00,33.144
513.00,33.271
514.00,33.358
515.00,33.551
516.00,33.641
517.00,33.683
518.00,33.881
519.00,33.918
520.00,33.932
521.00,34.105
522.00,34.144
523.00,34.216
524.00,34.284
525.00,34.377
526.00,34.523
527.00,34.569
528.00,34.601
529.00,34.756
530.00,34.936
531.00,35.046
532.00,35.112
533.00,35.261
534.00,35.364
535.00,35.344
536.00,35.408
537.00,35.545
538.00,35.576
539.00,35.657
540.00,35.735
541.00,35.799
542.00,35.830
543.00,35.917
544.00,36.038
545.00,36.088
546.00,36.074
547.00,36.217
548.00,36.344
549.00,36.439
550.00,36.472
551.00,36.512
552.00,36.589
553.00,36.566
554.00,36.733
555.00,36.775
556.00,36.834
557.00,36.879
558.00,36.888
559.00,36.979
560.00,37.057
561.00,37.094
562.00,37.184
563.00,37.224
564.00,37.235
565.00,37.242
566.00,37.290
567.00,37.300
568.00,37.362
569.00,37.424
570.00,37.459
571.00,37.513
572.00,37.519
573.00,37.482
574.00,37.580
575.00,37.580
576.00,37.597
577.00,37.617
578.00,37.759
579.00,37.867
580.00,37.886
581.00,37.981
582.00,38.031
583.00,38.038
584.00,38.113
585.00,38.252
586.00,38.271
587.00,38.325
588.00,38.335
589.00,38.329
590.00,38.397
591.00,38.452
592.00,38.454
593.00,38.461
594.00,38.560
595.00,38.648
596.00,38.673
597.00,38.714
598.00,38.866
599.00,38.836
600.00,38.868
601.00,38.828
602.00,38.893
603.00,38.930
604.00,39.004
605.00,39.003
606.00,39.149
607.00,39.101
608.00,39.066
609.00,39.244
610.00,39.437
611.00,39.254
612.00,39.343
613.00,39.388
614.00,39.411
615.00,39.565
616.00,39.634
617.00,39.572
618.00,39.575
619.00,39.679
620.00,39.684
621.00,39.777
622.00,39.799
623.00,39.889
624.00,39.973
625.00,40.049
626.00,40.026
627.00,40.094
628.00,40.143
629.00,40.196
630.00,40.231
631.00,40.249
632.00,40.360
633.00,40.504
634.00,40.547
635.00,40.603
636.00,40.687
637.00,40.730
638.00,40.705
639.00,40.791
640.00,40.923
641.00,40.933
642.00,41.021
643.00,41.091
644.00,41.208
645.00,41.231
646.00,41.401
647.00,41.448
648.00,41.489
649.00,41.512
650.00,41.584
651.00,41.770
652.00,41.804
653.00,41.782
654.00,41.872
655.00,42.068
656.00,42.299
657.00,42.169
658.00,42.174
659.00,42.222
660.00,42.448
661.00,42.447
662.00,42.542
663.00,42.565
664.00,42.895
665.00,42.962
666.00,42.964
667.00,42.978
668.00,43.015
669.00,43.160
670.00,43.437
671.00,43.321
672.00,43.547
673.00,43.586
674.00,43.578
675.00,43.631
676.00,43.858
677.00,44.028
678.00,43.757
679.00,44.030
680.00,44.032
681.00,44.327
682.00,44.269
683.00,44.114
684.00,44.300
685.00,44.724
686.00,44.870
687.00,44.674
688.00,44.624
689.00,44.685
690.00,44.946
691.00,45.245
692.00,45.127
693.00,45.153
694.00,45.264
695.00,45.343
696.00,45.459
697.00,45.386
698.00,45.499
699.00,45.876
700.00,45.888
701.00,45.820
702.00,45.942
703.00,46.093
704.00,46.108
705.00,46.052
706.00,46.154
707.00,46.276
708.00,46.155
709.00,46.532
710.00,46.894
711.00,46.420
712.00,46.495
713.00,46.764
714.00,46.862
715.00,46.850
716.00,46.756
717.00,47.096
718.00,47.191
719.00,47.060
720.00,47.189
721.00,51.793
722.00,51.715
723.00,51.848
724.00,51.819
725.00,51.839
726.00,51.877
727.00,51.906
728.00,51.817
729.00,51.934
730.00,51.948
731.00,51.985
732.00,51.985
733.00,52.030
734.00,52.072
735.00,52.054
736.00,52.113
737.00,52.191
738.00,52.189
739.00,52.239
740.00,52.271
741.00,52.305
742.00,52.337
743.00,52.241
744.00,52.319
745.00,52.285
746.00,52.356
747.00,52.280
748.00,52.301
749.00,52.331
750.00,52.351
751.00,52.306
752.00,52.325
753.00,52.345
754.00,52.362
755.00,52.359
756.00,52.391
757.00,52.418
758.00,52.435
759.00,52.427
760.00,52.528
761.00,52.435
762.00,52.427
763.00,52.450
764.00,52.485
765.00,52.483
766.00,52.476
767.00,52.574
768.00,52.555
769.00,52.586
770.00,52.601
771.00,52.589
772.00,52.622
773.00,52.580
774.00,52.594
775.00,52.620
776.00,52.580
777.00,52.592
778.00,52.610
779.00,52.632
780.00,52.605
781.00,52.674
782.00,52.632
783.00,52.580
784.00,52.595
785.00,52.580
786.00,52.709
787.00,52.602
788.00,52.592
789.00,52.637
790.00,52.605
791.00,52.602
792.00,52.568
793.00,52.602
794.00,52.500
795.00,52.559
796.00,52.532
797.00,52.418
798.00,52.432
799.00,52.420
800.00,52.468
801.00,52.440
802.00,52.463
803.00,52.373
804.00,52.384
805.00,52.403
806.00,52.332
807.00,52.358
808.00,52.367
809.00,52.374
810.00,52.373
811.00,52.344
812.00,52.301
813.00,52.269
814.00,52.254
815.00,52.243
816.00,52.343
817.00,52.204
818.00,52.169
819.00,52.159
820.00,52.145
821.00,52.199
822.00,52.201
823.00,52.105
824.00,52.179
825.00,52.028
826.00,52.160
827.00,52.146
828.00,52.054
829.00,52.069
830.00,52.132
831.00,54.220
832.00,54.174
833.00,54.136
834.00,54.165
835.00,54.083
836.00,54.137
837.00,54.119
838.00,54.115
839.00,54.043
840.00,54.073
841.00,54.083
842.00,53.996
843.00,53.998
844.00,54.026
845.00,53.939
846.00,53.967
847.00,53.951
848.00,53.923
849.00,53.851
850.00,53.829
851.00,53.789
852.00,53.814
853.00,53.735
854.00,53.722
855.00,53.629
856.00,53.707
857.00,53.612
858.00,53.640
859.00,53.598
860.00,53.595
861.00,53.566
862.00,53.562
863.00,53.574
864.00,53.502
865.00,53.544
866.00,53.496
867.00,53.509
868.00,53.449
869.00,53.447
870.00,53.447
871.00,53.446
872.00,53.414
873.00,53.410
874.00,53.384
875.00,53.388
876.00,53.411
877.00,53.356
878.00,53.368
879.00,53.346
880.00,53.341
881.00,53.325
882.00,53.314
883.00,53.311
884.00,53.275
885.00,53.269
886.00,53.220
887.00,53.377
888.00,53.173
889.00,53.163
890.00,53.190
891.00,53.131
892.00,53.137
893.00,53.085
894.00,53.117
895.00,53.081
896.00,53.051
897.00,53.055
898.00,53.020
899.00,52.980
900.00,52.989
901.00,52.979
902.00,52.992
903.00,52.960
904.00,52.941
905.00,52.949
906.00,52.930
907.00,52.901
908.00,52.828
909.00,52.834
910.00,52.813
911.00,52.778
912.00,52.787
913.00,52.792
914.00,52.730
915.00,52.695
916.00,52.707
917.00,52.653
918.00,52.685
919.00,52.660
920.00,52.598
921.00,52.600
922.00,52.610
923.00,52.593
924.00,52.573
925.00,52.539
926.00,52.664
927.00,52.528
928.00,52.484
929.00,52.491
930.00,52.449
931.00,52.420
932.00,52.406
933.00,52.433
934.00,52.367
935.00,52.368
936.00,52.337
937.00,52.317
938.00,52.310
939.00,52.300
940.00,52.278
941.00,52.283
942.00,52.239
943.00,52.238
944.00,52.181
945.00,52.194
946.00,52.191
947.00,52.154
948.00,52.140
949.00,52.130
950.00,52.100
951.00,52.079
952.00,52.078
953.00,52.028
954.00,52.002
955.00,51.928
956.00,51.940
957.00,51.898
958.00,51.916
959.00,51.854
960.00,51.858
961.00,51.826
962.00,51.844
963.00,51.797
964.00,51.775
965.00,51.771
966.00,51.761
967.00,51.754
968.00,51.736
969.00,51.762
970.00,51.739
971.00,51.757
972.00,51.708
973.00,51.764
974.00,51.777
975.00,51.734
976.00,51.762
977.00,51.747
978.00,51.781
979.00,51.744
980.00,51.753
981.00,51.758
982.00,51.734
983.00,51.729
984.00,51.718
985.00,51.737
986.00,51.664
987.00,51.704
988.00,51.672
989.00,51.662
990.00,51.659
991.00,51.634
992.00,51.653
993.00,51.624
994.00,51.597
995.00,51.606
996.00,51.597
997.00,51.578
998.00,51.562
999.00,51.588
1000.00,51.522
1001.00,51.521
1002.00,51.512
1003.00,51.515
1004.00,51.491
1005.00,51.455
1006.00,51.509
1007.00,51.475
1008.00,51.442
1009.00,51.436
1010.00,51.433
1011.00,51.420
1012.00,51.379
1013.00,51.373
1014.00,51.341
1015.00,51.358
1016.00,51.299
1017.00,51.335
1018.00,51.390
1019.00,51.268
1020.00,51.283
1021.00,51.263
1022.00,51.251
1023.00,51.212
1024.00,51.207
1025.00,51.200
1026.00,51.181
1027.00,51.146
1028.00,51.157
1029.00,51.141
1030.00,51.131
1031.00,51.125
1032.00,51.061
1033.00,51.081
1034.00,51.050
1035.00,51.003
1036.00,50.986
1037.00,50.974
1038.00,50.955
1039.00,50.942
1040.00,50.930
1041.00,50.884
1042.00,50.902
1043.00,50.882
1044.00,50.898
1045.00,50.897
1046.00,50.871
1047.00,50.894
1048.00,50.908
1049.00,50.911
1050.00,50.920
1051.00,50.954
1052.00,50.949
1053.00,50.959
1054.00,50.938
1055.00,50.973
1056.00,50.981
1057.00,50.975
1058.00,50.982
1059.00,50.962
1060.00,50.935
1061.00,50.932
1062.00,50.928
1063.00,50.928
1064.00,50.933
1065.00,50.916
1066.00,50.901
1067.00,50.910
1068.00,50.917
1069.00,50.887
1070.00,50.867
1071.00,50.838
1072.00,50.864
1073.00,50.838
1074.00,50.825
1075.00,50.824
1076.00,50.837
1077.00,50.826
1078.00,50.831
1079.00,50.821
1080.00,50.794
1081.00,50.775
1082.00,50.752
1083.00,50.763
1084.00,50.761
1085.00,50.757
1086.00,50.747
1087.00,50.739
1088.00,50.717
1089.00,50.720
1090.00,50.713
1091.00,50.694
1092.00,50.701
1093.00,50.684
1094.00,50.690
1095.00,50.646
1096.00,50.614
1097.00,50.628
1098.00,50.625
1099.00,50.604
1100.00,50.589
1101.00,50.583
1102.00,50.575
1103.00,50.566
1104.00,50.556
1105.00,50.573
1106.00,50.585
1107.00,50.550
1108.00,50.526
1109.00,50.532
1110.00,50.494
1111.00,50.493
1112.00,50.496
1113.00,50.486
1114.00,50.473
1115.00,50.479
1116.00,50.484
1117.00,50.461
1118.00,50.434
1119.00,50.465
1120.00,50.452
1121.00,50.415
1122.00,50.446
1123.00,50.404
1124.00,50.377
1125.00,50.393
1126.00,50.389
1127.00,50.386
1128.00,50.351
1129.00,50.350
1130.00,50.368
1131.00,50.345
1132.00,50.343
1133.00,50.409
1134.00,50.399
1135.00,50.303
1136.00,50.339
1137.00,50.320
1138.00,50.303
1139.00,50.328
1140.00,50.354
1141.00,50.293
1142.00,50.277
1143.00,50.316
1144.00,50.285
1145.00,50.258
1146.00,50.265
1147.00,50.280
1148.00,50.245
1149.00,50.269
1150.00,50.289
1151.00,50.288
1152.00,50.261
1153.00,50.262
1154.00,50.264
1155.00,50.237
1156.00,50.225
1157.00,50.220
1158.00,50.226
1159.00,50.207
1160.00,50.219
1161.00,50.231
1162.00,50.208
1163.00,50.225
1164.00,50.230
1165.00,50.214
1166.00,50.220
1167.00,50.191
1168.00,50.203
1169.00,50.199
1170.00,50.198
1171.00,50.193
1172.00,50.203
1173.00,50.178
1174.00,50.195
1175.00,50.197
1176.00,50.188
1177.00,50.186
1178.00,50.173
1179.00,50.186
1180.00,50.179
1181.00,50.187
1182.00,50.198
1183.00,50.181
1184.00,50.171
1185.00,50.198
1186.00,50.179
1187.00,50.168
1188.00,50.176
1189.00,50.164
1190.00,50.148
1191.00,50.152
1192.00,50.163
1193.00,50.164
1194.00,50.173
1195.00,50.147
1196.00,50.182
1197.00,50.172
1198.00,50.147
1199.00,50.153
1200.00,50.149
1201.00,50.148
1202.00,50.135
1203.00,50.112
1204.00,50.119
1205.00,50.141
1206.00,50.137
1207.00,50.157
1208.00,50.144
1209.00,50.140
1210.00,50.142
1211.00,50.126
1212.00,50.137
1213.00,50.128
1214.00,50.120
1215.00,50.108
1216.00,50.134
1217.00,50.113
1218.00,50.114
1219.00,50.142
1220.00,50.114
1221.00,50.139
1222.00,50.115
1223.00,50.143
1224.00,50.142
1225.00,50.106
1226.00,50.130
1227.00,50.119
1228.00,50.137
1229.00,50.142
1230.00,50.164
1231.00,50.145
1232.00,50.160
1233.00,50.165
1234.00,50.167
1235.00,50.164
1236.00,50.140
1237.00,50.157
1238.00,50.172
1239.00,50.167
1240.00,50.168
1241.00,50.170
1242.00,50.171
1243.00,50.200
1244.00,50.176
1245.00,50.203
1246.00,50.222
1247.00,50.197
1248.00,50.203
1249.00,50.223
1250.00,50.210
1251.00,50.208
1252.00,50.214
1253.00,50.192
1254.00,50.223
1255.00,50.217
1256.00,50.183
1257.00,50.192
1258.00,50.212
1259.00,50.224
1260.00,50.243
1261.00,50.228
1262.00,50.220
1263.00,50.233
1264.00,50.234
1265.00,50.233
1266.00,50.231
1267.00,50.245
1268.00,50.246
1269.00,50.229
1270.00,50.247
1271.00,50.255
1272.00,50.239
1273.00,50.258
1274.00,50.272
1275.00,50.250
1276.00,50.272
1277.00,50.292
1278.00,50.284
1279.00,50.287
1280.00,50.276
1281.00,50.305
1282.00,50.297
1283.00,50.282
1284.00,50.303
1285.00,50.289
1286.00,50.280
1287.00,50.297
1288.00,50.301
1289.00,50.290
1290.00,50.324
1291.00,50.324
1292.00,50.339
1293.00,50.352
1294.00,50.350
1295.00,50.372
1296.00,50.363
1297.00,50.370
1298.00,50.393
1299.00,50.355
1300.00,50.364
1301.00,50.371
1302.00,50.368
1303.00,50.381
1304.00,50.369
1305.00,50.370
1306.00,50.392
1307.00,50.403
1308.00,50.404
1309.00,50.416
1310.00,50.419
1311.00,50.417
1312.00,50.418
1313.00,50.415
1314.00,50.438
1315.00,50.445
1316.00,50.426
1317.00,50.467
1318.00,50.461
1319.00,50.457
1320.00,50.478
1321.00,50.667
1322.00,50.623
1323.00,50.620
1324.00,50.600
1325.00,50.602
1326.00,50.630
1327.00,50.602
1328.00,50.611
1329.00,50.608
1330.00,50.592
1331.00,50.629
1332.00,50.629
1333.00,50.619
1334.00,50.653
1335.00,50.668
1336.00,50.675
1337.00,50.709
1338.00,50.750
1339.00,50.808
1340.00,50.878
1341.00,50.923
1342.00,50.999
1343.00,51.046
1344.00,51.081
1345.00,51.172
1346.00,51.190
1347.00,51.197
1348.00,51.229
1349.00,51.247
1350.00,51.271
1351.00,51.286
1352.00,51.257
1353.00,51.314
1354.00,51.304
1355.00,51.237
1356.00,51.307
1357.00,51.299
1358.00,51.324
1359.00,51.393
1360.00,51.340
1361.00,51.293
1362.00,51.378
1363.00,51.335
1364.00,51.305
1365.00,51.372
1366.00,51.382
1367.00,51.262
1368.00,51.346
1369.00,51.306
1370.00,51.332
1371.00,51.280
1372.00,51.326
1373.00,51.322
1374.00,51.320
1375.00,51.349
1376.00,51.310
1377.00,51.278
1378.00,51.362
1379.00,51.326
1380.00,51.301
1381.00,51.213
1382.00,51.194
1383.00,51.300
1384.00,51.244
1385.00,51.264
1386.00,51.297
1387.00,51.273
1388.00,51.237
1389.00,51.279
1390.00,51.295
1391.00,51.254
1392.00,51.292
1393.00,51.262
1394.00,51.249
1395.00,51.240
1396.00,51.221
1397.00,51.291
1398.00,51.340
1399.00,51.238
1400.00,51.172
1401.00,51.290
1402.00,51.329
1403.00,51.246
1404.00,51.312
1405.00,51.318
1406.00,51.348
1407.00,51.342
1408.00,51.347
1409.00,51.330
1410.00,51.356
1411.00,51.374
1412.00,51.425
1413.00,51.323
1414.00,51.319
1415.00,51.370
1416.00,51.391
1417.00,51.449
1418.00,51.397
1419.00,51.405
1420.00,51.435
1421.00,51.472
1422.00,51.478
1423.00,51.461
1424.00,51.480
1425.00,51.503
1426.00,51.500
1427.00,51.527
1428.00,51.518
1429.00,51.525
1430.00,51.557
1431.00,51.569
1432.00,51.577
1433.00,51.591
1434.00,51.592
1435.00,51.621
1436.00,51.641
1437.00,51.619
1438.00,51.654
1439.00,51.687
1440.00,51.672
1441.00,51.703
1442.00,51.689
1443.00,51.792
1444.00,51.839
1445.00,51.727
1446.00,51.748
1447.00,51.794
1448.00,51.803
1449.00,51.811
1450.00,51.830
1451.00,51.836
1452.00,51.856
1453.00,51.868
1454.00,51.870
1455.00,51.918
1456.00,51.913
1457.00,51.924
1458.00,51.963
1459.00,51.954
1460.00,51.973
1461.00,51.981
1462.00,51.995
1463.00,52.008
1464.00,52.037
1465.00,52.028
1466.00,52.027
1467.00,52.045
1468.00,52.086
1469.00,52.089
1470.00,52.078
1471.00,52.117
1472.00,52.129
1473.00,52.134
1474.00,52.173
1475.00,52.186
1476.00,52.179
1477.00,52.170
1478.00,52.188
1479.00,52.201
1480.00,52.198
1481.00,52.197
1482.00,52.249
1483.00,52.268
1484.00,52.253
1485.00,52.276
1486.00,52.294
1487.00,52.306
1488.00,52.338
1489.00,52.329
1490.00,52.335
1491.00,52.346
1492.00,52.351
1493.00,52.358
1494.00,52.390
1495.00,52.372
1496.00,52.388
1497.00,52.412
1498.00,52.407
1499.00,52.439
1500.00,52.457
1501.00, 
1502.00, 
1503.00, 
1504.00, 
1505.00, 
1506.00, 
1507.00, 
1508.00, 
1509.00, 
1510.00, 
1511.00, 
1512.00, 
1513.00, 
1514.00, 
1515.00, 
1516.00, 
1517.00, 
1518.00, 
1519.00, 
1520.00, 
1521.00, 
1522.00, 
1523.00, 
1524.00, 
1525.00, 
1526.00, 
1527.00, 
1528.00, 
1529.00, 
1530.00, 
1531.00, 
1532.00, 
1533.00, 
1534.00, 
1535.00, 
1536.00, 
1537.00, 
1538.00, 
1539.00, 
1540.00, 
1541.00, 
1542.00, 
1543.00, 
1544.00, 
1545.00, 
1546.00, 
1547.00, 
1548.00, 
1549.00, 
1550.00, 
1551.00, 
1552.00, 
1553.00, 
1554.00, 
1555.00, 
1556.00, 
1557.00, 
1558.00, 
1559.00, 
1560.00, 
1561.00, 
1562.00, 
1563.00, 
1564.00, 
1565.00, 
1566.00, 
1567.00, 
1568.00, 
1569.00, 
1570.00, 
1571.00, 
1572.00, 
1573.00, 
1574.00, 
1575.00, 
1576.00, 
1577.00, 
1578.00, 
1579.00, 
1580.00, 
1581.00, 
1582.00, 
1583.00, 
1584.00, 
1585.00, 
1586.00, 
1587.00, 
1588.00, 
1589.00, 
1590.00, 
1591.00, 
1592.00, 
1593.00, 
1594.00, 
1595.00, 
1596.00, 
1597.00, 
1598.00, 
1599.00, 
1600.00, 
1601.00, 
1602.00, 
1603.00, 
1604.00, 
1605.00, 
1606.00, 
1607.00, 
1608.00, 
1609.00, 
1610.00, 
1611.00, 
1612.00, 
1613.00, 
1614.00, 
1615.00, 
1616.00, 
1617.00, 
1618.00, 
1619.00, 
1620.00, 
1621.00, 
1622.00, 
1623.00, 
1624.00, 
1625.00, 
1626.00, 
1627.00, 
1628.00, 
1629.00, 
1630.00, 
1631.00, 
1632.00, 
1633.00, 
1634.00, 
1635.00, 
1636.00, 
1637.00, 
1638.00, 
1639.00, 
1640.00, 
1641.00, 
1642.00, 
1643.00, 
1644.00, 
1645.00, 
1646.00, 
1647.00, 
1648.00, 
1649.00, 
1650.00, 
1651.00, 
1652.00, 
1653.00, 
1654.00, 
1655.00, 
1656.00, 
1657.00, 
1658.00, 
1659.00, 
1660.00, 
1661.00, 
1662.00, 
1663.00, 
1664.00, 
1665.00, 
1666.00, 
1667.00, 
1668.00, 
1669.00, 
1670.00, 
1671.00, 
1672.00, 
1673.00, 
1674.00, 
1675.00, 
1676.00, 
1677.00, 
1678.00, 
1679.00, 
1680.00, 
1681.00, 
1682.00, 
1683.00, 
1684.00, 
1685.00, 
1686.00, 
1687.00, 
1688.00, 
1689.00, 
1690.00, 
1691.00, 
1692.00, 
1693.00, 
1694.00, 
1695.00, 
1696.00, 
1697.00, 
1698.00, 
1699.00, 
1700.00, 
1701.00, 
1702.00, 
1703.00, 
1704.00, 
1705.00, 
1706.00, 
1707.00, 
1708.00, 
1709.00, 
1710.00, 
1711.00, 
1712.00, 
1713.00, 
1714.00, 
1715.00, 
1716.00, 
1717.00, 
1718.00, 
1719.00, 
1720.00, 
1721.00, 
1722.00, 
1723.00, 
1724.00, 
1725.00, 
1726.00, 
1727.00, 
1728.00, 
1729.00, 
1730.00, 
1731.00, 
1732.00, 
1733.00, 
1734.00, 
1735.00, 
1736.00, 
1737.00, 
1738.00, 
1739.00, 
1740.00, 
1741.00, 
1742.00, 
1743.00, 
1744.00, 
1745.00, 
1746.00, 
1747.00, 
1748.00, 
1749.00, 
1750.00, 
1751.00, 
1752.00, 
1753.00, 
1754.00, 
1755.00, 
1756.00, 
1757.00, 
1758.00, 
1759.00, 
1760.00, 
1761.00, 
1762.00, 
1763.00, 
1764.00, 
1765.00, 
1766.00, 
1767.00, 
1768.00, 
1769.00, 
1770.00, 
1771.00, 
1772.00, 
1773.00, 
1774.00, 
1775.00, 
1776.00, 
1777.00, 
1778.00, 
1779.00, 
1780.00, 
1781.00, 
1782.00, 
1783.00, 
1784.00, 
1785.00, 
1786.00, 
1787.00, 
1788.00, 
1789.00, 
1790.00, 
1791.00, 
1792.00, 
1793.00, 
1794.00, 
1795.00, 
1796.00, 
1797.00, 
1798.00, 
1799.00, 
1800.00, 
1801.00, 
1802.00, 
1803.00, 
1804.00, 
1805.00, 
1806.00, 
1807.00, 
1808.00, 
1809.00, 
1810.00, 
1811.00, 
1812.00, 
1813.00, 
1814.00, 
1815.00, 
1816.00, 
1817.00, 
1818.00, 
1819.00, 
1820.00, 
1821.00, 
1822.00, 
1823.00, 
1824.00, 
1825.00, 
1826.00, 
1827.00, 
1828.00, 
1829.00, 
1830.00, 
1831.00, 
1832.00, 
1833.00, 
1834.00, 
1835.00, 
1836.00, 
1837.00, 
1838.00, 
1839.00, 
1840.00, 
1841.00, 
1842.00, 
1843.00, 
1844.00, 
1845.00, 
1846.00, 
1847.00, 
1848.00, 
1849.00, 
1850.00, 
1851.00, 
1852.00, 
1853.00, 
1854.00, 
1855.00, 
1856.00, 
1857.00, 
1858.00, 
1859.00, 
1860.00, 
1861.00, 
1862.00, 
1863.00, 
1864.00, 
1865.00, 
1866.00, 
1867.00, 
1868.00, 
1869.00, 
1870.00, 
1871.00, 
1872.00, 
1873.00, 
1874.00, 
1875.00, 
1876.00, 
1877.00, 
1878.00, 
1879.00, 
1880.00, 
1881.00, 
1882.00, 
1883.00, 
1884.00, 
1885.00, 
1886.00, 
1887.00, 
1888.00, 
1889.00, 
1890.00, 
1891.00, 
1892.00, 
1893.00, 
1894.00, 
1895.00, 
1896.00, 
1897.00, 
1898.00, 
1899.00, 
1900.00, 
1901.00, 
1902.00, 
1903.00, 
1904.00, 
1905.00, 
1906.00, 
1907.00, 
1908.00, 
1909.00, 
1910.00, 
1911.00, 
1912.00, 
1913.00, 
1914.00, 
1915.00, 
1916.00, 
1917.00, 
1918.00, 
1919.00, 
1920.00, 
1921.00, 
1922.00, 
1923.00, 
1924.00, 
1925.00, 
1926.00, 
1927.00, 
1928.00, 
1929.00, 
1930.00, 
1931.00, 
1932.00, 
1933.00, 
1934.00, 
1935.00, 
1936.00, 
1937.00, 
1938.00, 
1939.00, 
1940.00, 
1941.00, 
1942.00, 
1943.00, 
1944.00, 
1945.00, 
1946.00, 
1947.00, 
1948.00, 
1949.00, 
1950.00, 
1951.00, 
1952.00, 
1953.00, 
1954.00, 
1955.00, 
1956.00, 
1957.00, 
1958.00, 
1959.00, 
1960.00, 
1961.00, 
1962.00, 
1963.00, 
1964.00, 
1965.00, 
1966.00, 
1967.00, 
1968.00, 
1969.00, 
1970.00, 
1971.00, 
1972.00, 
1973.00, 
1974.00, 
1975.00, 
1976.00, 
1977.00, 
1978.00, 
1979.00, 
1980.00, 
1981.00, 
1982.00, 
1983.00, 
1984.00, 
1985.00, 
1986.00, 
1987.00, 
1988.00, 
1989.00, 
1990.00, 
1991.00, 
1992.00, 
1993.00, 
1994.00, 
1995.00, 
1996.00, 
1997.00, 
1998.00, 
1999.00, 
2000.00, 
2001.00, 
2002.00, 
2003.00, 
2004.00, 
2005.00, 
2006.00, 
2007.00, 
2008.00, 
2009.00, 
2010.00, 
2011.00, 
2012.00, 
2013.00, 
2014.00, 
2015.00, 
2016.00, 
2017.00, 
2018.00, 
2019.00, 
2020.00, 
2021.00, 
2022.00, 
2023.00, 
2024.00, 
2025.00, 
2026.00, 
2027.00, 
2028.00, 
2029.00, 
2030.00, 
2031.00, 
2032.00, 
2033.00, 
2034.00, 
2035.00, 
2036.00, 
2037.00, 
2038.00, 
2039.00, 
2040.00, 
2041.00, 
2042.00, 
2043.00, 
2044.00, 
2045.00, 
2046.00, 
2047.00, 
2048.00, 
2049.00, 
2050.00, 
2051.00, 
2052.00, 
2053.00, 
2054.00, 
2055.00, 
2056.00, 
2057.00, 
2058.00, 
2059.00, 
2060.00, 
2061.00, 
2062.00, 
2063.00, 
2064.00, 
2065.00, 
2066.00, 
2067.00, 
2068.00, 
2069.00, 
2070.00, 
2071.00, 
2072.00, 
2073.00, 
2074.00, 
2075.00, 
2076.00, 
2077.00, 
2078.00, 
2079.00, 
2080.00, 
2081.00, 
2082.00, 
2083.00, 
2084.00, 
2085.00, 
2086.00, 
2087.00, 
2088.00, 
2089.00, 
2090.00, 
2091.00, 
2092.00, 
2093.00, 
2094.00, 
2095.00, 
2096.00, 
2097.00, 
2098.00, 
2099.00, 
2100.00, 
2101.00, 
2102.00, 
2103.00, 
2104.00, 
2105.00, 
2106.00, 
2107.00, 
2108.00, 
2109.00, 
2110.00, 
2111.00, 
2112.00, 
2113.00, 
2114.00, 
2115.00, 
2116.00, 
2117.00, 
2118.00, 
2119.00, 
2120.00, 
2121.00, 
2122.00, 
2123.00, 
2124.00, 
2125.00, 
2126.00, 
2127.00, 
2128.00, 
2129.00, 
2130.00, 
2131.00, 
2132.00, 
2133.00, 
2134.00, 
2135.00, 
2136.00, 
2137.00, 
2138.00, 
2139.00, 
2140.00, 
2141.00, 
2142.00, 
2143.00, 
2144.00, 
2145.00, 
2146.00, 
2147.00, 
2148.00, 
2149.00, 
2150.00, 
2151.00, 
2152.00, 
2153.00, 
2154.00, 
2155.00, 
2156.00, 
2157.00, 
2158.00, 
2159.00, 
2160.00, 
2161.00, 
2162.00, 
2163.00, 
2164.00, 
2165.00, 
2166.00, 
2167.00, 
2168.00, 
2169.00, 
2170.00, 
2171.00, 
2172.00, 
2173.00, 
2174.00, 
2175.00, 
2176.00, 
2177.00, 
2178.00, 
2179.00, 
2180.00, 
2181.00, 
2182.00, 
2183.00, 
2184.00, 
2185.00, 
2186.00, 
2187.00, 
2188.00, 
2189.00, 
2190.00, 
2191.00, 
2192.00, 
2193.00, 
2194.00, 
2195.00, 
2196.00, 
2197.00, 
2198.00, 
2199.00, 
2200.00, 
2201.00, 
2202.00, 
2203.00, 
2204.00, 
2205.00, 
2206.00, 
2207.00, 
2208.00, 
2209.00, 
2210.00, 
2211.00, 
2212.00, 
2213.00, 
2214.00, 
2215.00, 
2216.00, 
2217.00, 
2218.00, 
2219.00, 
2220.00, 
2221.00, 
2222.00, 
2223.00, 
2224.00, 
2225.00, 
2226.00, 
2227.00, 
2228.00, 
2229.00, 
2230.00, 
2231.00, 
2232.00, 
2233.00, 
2234.00, 
2235.00, 
2236.00, 
2237.00, 
2238.00, 
2239.00, 
2240.00, 
2241.00, 
2242.00, 
2243.00, 
2244.00, 
2245.00, 
2246.00, 
2247.00, 
2248.00, 
2249.00, 
2250.00, 
2251.00, 
2252.00, 
2253.00, 
2254.00, 
2255.00, 
2256.00, 
2257.00, 
2258.00, 
2259.00, 
2260.00, 
2261.00, 
2262.00, 
2263.00, 
2264.00, 
2265.00, 
2266.00, 
2267.00, 
2268.00, 
2269.00, 
2270.00, 
2271.00, 
2272.00, 
2273.00, 
2274.00, 
2275.00, 
2276.00, 
2277.00, 
2278.00, 
2279.00, 
2280.00, 
2281.00, 
2282.00, 
2283.00, 
2284.00, 
2285.00, 
2286.00, 
2287.00, 
2288.00, 
2289.00, 
2290.00, 
2291.00, 
2292.00, 
2293.00, 
2294.00, 
2295.00, 
2296.00, 
2297.00, 
2298.00, 
2299.00, 
2300.00, 
2301.00, 
2302.00, 
2303.00, 
2304.00, 
2305.00, 
2306.00, 
2307.00, 
2308.00, 
2309.00, 
2310.00, 
2311.00, 
2312.00, 
2313.00, 
2314.00, 
2315.00, 
2316.00, 
2317.00, 
2318.00, 
2319.00, 
2320.00, 
2321.00, 
2322.00, 
2323.00, 
2324.00, 
2325.00, 
2326.00, 
2327.00, 
2328.00, 
2329.00, 
2330.00, 
2331.00, 
2332.00, 
2333.00, 
2334.00, 
2335.00, 
2336.00, 
2337.00, 
2338.00, 
2339.00, 
2340.00, 
2341.00, 
2342.00, 
2343.00, 
2344.00, 
2345.00, 
2346.00, 
2347.00, 
2348.00, 
2349.00, 
2350.00, 
2351.00, 
2352.00, 
2353.00, 
2354.00, 
2355.00, 
2356.00, 
2357.00, 
2358.00, 
2359.00, 
2360.00, 
2361.00, 
2362.00, 
2363.00, 
2364.00, 
2365.00, 
2366.00, 
2367.00, 
2368.00, 
2369.00, 
2370.00, 
2371.00, 
2372.00, 
2373.00, 
2374.00, 
2375.00, 
2376.00, 
2377.00, 
2378.00, 
2379.00, 
2380.00, 
2381.00, 
2382.00, 
2383.00, 
2384.00, 
2385.00, 
2386.00, 
2387.00, 
2388.00, 
2389.00, 
2390.00, 
2391.00, 
2392.00, 
2393.00, 
2394.00, 
2395.00, 
2396.00, 
2397.00, 
2398.00, 
2399.00, 
2400.00, 
2401.00, 
2402.00, 
2403.00, 
2404.00, 
2405.00, 
2406.00, 
2407.00, 
2408.00, 
2409.00, 
2410.00, 
2411.00, 
2412.00, 
2413.00, 
2414.00, 
2415.00, 
2416.00, 
2417.00, 
2418.00, 
2419.00, 
2420.00, 
2421.00, 
2422.00, 
2423.00, 
2424.00, 
2425.00, 
2426.00, 
2427.00, 
2428.00, 
2429.00, 
2430.00, 
2431.00, 
2432.00, 
2433.00, 
2434.00, 
2435.00, 
2436.00, 
2437.00, 
2438.00, 
2439.00, 
2440.00, 
2441.00, 
2442.00, 
2443.00, 
2444.00, 
2445.00, 
2446.00, 
2447.00, 
2448.00, 
2449.00, 
2450.00, 
2451.00, 
2452.00, 
2453.00, 
2454.00, 
2455.00, 
2456.00, 
2457.00, 
2458.00, 
2459.00, 
2460.00, 
2461.00, 
2462.00, 
2463.00, 
2464.00, 
2465.00, 
2466.00, 
2467.00, 
2468.00, 
2469.00, 
2470.00, 
2471.00, 
2472.00, 
2473.00, 
2474.00, 
2475.00, 
2476.00, 
2477.00, 
2478.00, 
2479.00, 
2480.00, 
2481.00, 
2482.00, 
2483.00, 
2484.00, 
2485.00, 
2486.00, 
2487.00, 
2488.00, 
2489.00, 
2490.00, 
2491.00, 
2492.00, 
2493.00, 
2494.00, 
2495.00, 
2496.00, 
2497.00, 
2498.00, 
2499.00, 
2500.00, 
2501.00, 
2502.00, 
2503.00, 
2504.00, 
2505.00, 
2506.00, 
2507.00, 
2508.00, 
2509.00, 
2510.00, 
2511.00, 
2512.00, 
2513.00, 
2514.00, 
2515.00, 
2516.00, 
2517.00, 
2518.00, 
2519.00, 
2520.00, 
2521.00, 
2522.00, 
2523.00, 
2524.00, 
2525.00, 
2526.00, 
2527.00, 
2528.00, 
2529.00, 
2530.00, 
2531.00, 
2532.00, 
2533.00, 
2534.00, 
2535.00, 
2536.00, 
2537.00, 
2538.00, 
2539.00, 
2540.00, 
2541.00, 
2542.00, 
2543.00, 
2544.00, 
2545.00, 
2546.00, 
2547.00, 
2548.00, 
2549.00, 
2550.00, 
2551.00, 
2552.00, 
2553.00, 
2554.00, 
2555.00, 
2556.00, 
2557.00, 
2558.00, 
2559.00, 
2560.00, 
2561.00, 
2562.00, 
2563.00, 
2564.00, 
2565.00, 
2566.00, 
2567.00, 
2568.00, 
2569.00, 
2570.00, 
2571.00, 
2572.00, 
2573.00, 
2574.00, 
2575.00, 
2576.00, 
2577.00, 
2578.00, 
2579.00, 
2580.00, 
2581.00, 
2582.00, 
2583.00, 
2584.00, 
2585.00, 
2586.00, 
2587.00, 
2588.00, 
2589.00, 
2590.00, 
2591.00, 
2592.00, 
2593.00, 
2594.00, 
2595.00, 
2596.00, 
2597.00, 
2598.00, 
2599.00, 
2600.00, 
