"2bP2 - RawData"
"Wavelength nm.","T%"
200.00,-0.001
201.00,0.000
202.00,0.003
203.00,-0.000
204.00,0.000
205.00,0.003
206.00,0.001
207.00,-0.000
208.00,0.001
209.00,0.000
210.00,0.002
211.00,0.001
212.00,-0.002
213.00,-0.002
214.00,0.000
215.00,0.001
216.00,0.000
217.00,0.003
218.00,0.001
219.00,0.002
220.00,-0.001
221.00,-0.002
222.00,-0.000
223.00,-0.001
224.00,0.000
225.00,0.001
226.00,-0.001
227.00,0.001
228.00,0.003
229.00,-0.000
230.00,0.001
231.00,-0.000
232.00,0.002
233.00,0.001
234.00,0.000
235.00,-0.002
236.00,-0.000
237.00,-0.000
238.00,0.002
239.00,0.000
240.00,-0.001
241.00,0.001
242.00,0.001
243.00,-0.001
244.00,0.001
245.00,0.000
246.00,0.001
247.00,0.002
248.00,0.000
249.00,0.001
250.00,-0.000
251.00,0.000
252.00,-0.002
253.00,-0.001
254.00,0.000
255.00,0.001
256.00,-0.001
257.00,-0.000
258.00,0.002
259.00,0.001
260.00,0.001
261.00,-0.001
262.00,-0.001
263.00,-0.000
264.00,-0.001
265.00,0.000
266.00,0.003
267.00,-0.000
268.00,0.001
269.00,0.000
270.00,0.001
271.00,-0.000
272.00,0.001
273.00,0.001
274.00,-0.000
275.00,0.001
276.00,0.001
277.00,-0.001
278.00,-0.001
279.00,0.000
280.00,-0.000
281.00,-0.001
282.00,0.000
283.00,0.001
284.00,-0.001
285.00,0.000
286.00,0.000
287.00,-0.000
288.00,0.003
289.00,-0.001
290.00,-0.002
291.00,0.000
292.00,0.001
293.00,0.001
294.00,-0.002
295.00,0.000
296.00,0.001
297.00,0.001
298.00,0.001
299.00,0.002
300.00,0.002
301.00,0.005
302.00,0.007
303.00,0.008
304.00,0.013
305.00,0.020
306.00,0.034
307.00,0.050
308.00,0.074
309.00,0.114
310.00,0.157
311.00,0.210
312.00,0.283
313.00,0.376
314.00,0.495
315.00,0.639
316.00,0.804
317.00,1.028
318.00,1.256
319.00,1.532
320.00,1.834
321.00,2.175
322.00,2.569
323.00,3.033
324.00,3.489
325.00,3.959
326.00,4.457
327.00,5.010
328.00,5.573
329.00,6.123
330.00,6.705
331.00,7.287
332.00,7.907
333.00,8.583
334.00,9.188
335.00,9.825
336.00,10.436
337.00,11.078
338.00,11.670
339.00,12.185
340.00,12.769
341.00,13.377
342.00,13.896
343.00,14.300
344.00,14.818
345.00,15.260
346.00,15.719
347.00,16.118
348.00,16.492
349.00,16.826
350.00,17.180
351.00,17.542
352.00,17.803
353.00,18.046
354.00,18.326
355.00,18.600
356.00,18.797
357.00,18.989
358.00,19.185
359.00,19.385
360.00,19.591
361.00,19.687
362.00,19.800
363.00,19.958
364.00,20.026
365.00,20.089
366.00,20.175
367.00,20.260
368.00,20.265
369.00,20.307
370.00,20.380
371.00,20.399
372.00,20.386
373.00,20.367
374.00,20.374
375.00,20.355
376.00,20.293
377.00,20.235
378.00,20.190
379.00,20.086
380.00,20.128
381.00,20.062
382.00,20.051
383.00,20.071
384.00,20.055
385.00,20.087
386.00,20.085
387.00,20.104
388.00,20.141
389.00,20.137
390.00,20.129
391.00,20.144
392.00,20.159
393.00,20.166
394.00,20.155
395.00,20.168
396.00,20.168
397.00,20.191
398.00,20.185
399.00,20.165
400.00,20.172
401.00,20.135
402.00,20.123
403.00,20.136
404.00,20.188
405.00,20.077
406.00,20.087
407.00,20.073
408.00,20.053
409.00,20.001
410.00,19.971
411.00,19.982
412.00,19.938
413.00,19.952
414.00,19.959
415.00,19.936
416.00,19.986
417.00,19.930
418.00,19.994
419.00,20.043
420.00,20.105
421.00,20.110
422.00,20.125
423.00,20.152
424.00,20.210
425.00,20.223
426.00,20.258
427.00,20.313
428.00,20.355
429.00,20.382
430.00,20.444
431.00,20.472
432.00,20.538
433.00,20.580
434.00,20.655
435.00,20.715
436.00,20.754
437.00,20.814
438.00,20.900
439.00,20.953
440.00,21.036
441.00,21.121
442.00,21.193
443.00,21.289
444.00,21.396
445.00,21.462
446.00,21.549
447.00,21.661
448.00,21.754
449.00,21.849
450.00,21.932
451.00,22.032
452.00,22.136
453.00,22.258
454.00,22.358
455.00,22.459
456.00,22.578
457.00,22.688
458.00,22.818
459.00,22.932
460.00,23.063
461.00,23.179
462.00,23.329
463.00,23.450
464.00,23.595
465.00,23.704
466.00,23.834
467.00,23.963
468.00,24.087
469.00,24.186
470.00,24.312
471.00,24.415
472.00,24.548
473.00,24.646
474.00,24.790
475.00,24.904
476.00,25.011
477.00,25.148
478.00,25.271
479.00,25.468
480.00,25.613
481.00,25.761
482.00,25.846
483.00,26.001
484.00,26.194
485.00,26.243
486.00,26.485
487.00,26.593
488.00,26.772
489.00,26.964
490.00,27.097
491.00,27.244
492.00,27.455
493.00,27.628
494.00,27.624
495.00,27.781
496.00,27.896
497.00,28.021
498.00,28.167
499.00,28.301
500.00,28.477
501.00,28.576
502.00,28.747
503.00,28.864
504.00,28.912
505.00,29.109
506.00,29.192
507.00,29.281
508.00,29.420
509.00,29.598
510.00,29.766
511.00,29.791
512.00,29.998
513.00,30.147
514.00,30.284
515.00,30.481
516.00,30.561
517.00,30.596
518.00,30.738
519.00,30.816
520.00,30.833
521.00,30.991
522.00,31.099
523.00,31.142
524.00,31.271
525.00,31.356
526.00,31.483
527.00,31.548
528.00,31.633
529.00,31.828
530.00,31.964
531.00,32.064
532.00,32.108
533.00,32.249
534.00,32.333
535.00,32.437
536.00,32.506
537.00,32.586
538.00,32.688
539.00,32.697
540.00,32.818
541.00,32.900
542.00,32.944
543.00,32.995
544.00,33.066
545.00,33.151
546.00,33.230
547.00,33.359
548.00,33.463
549.00,33.440
550.00,33.541
551.00,33.656
552.00,33.688
553.00,33.767
554.00,33.840
555.00,33.788
556.00,33.829
557.00,34.010
558.00,34.096
559.00,34.189
560.00,34.248
561.00,34.292
562.00,34.340
563.00,34.370
564.00,34.431
565.00,34.444
566.00,34.543
567.00,34.637
568.00,34.608
569.00,34.702
570.00,34.659
571.00,34.720
572.00,34.805
573.00,34.668
574.00,34.839
575.00,34.843
576.00,34.873
577.00,34.937
578.00,35.031
579.00,35.121
580.00,35.147
581.00,35.323
582.00,35.360
583.00,35.365
584.00,35.463
585.00,35.557
586.00,35.621
587.00,35.700
588.00,35.686
589.00,35.694
590.00,35.752
591.00,35.823
592.00,35.821
593.00,35.855
594.00,35.939
595.00,36.047
596.00,36.122
597.00,36.125
598.00,36.206
599.00,36.224
600.00,36.229
601.00,36.311
602.00,36.332
603.00,36.377
604.00,36.416
605.00,36.450
606.00,36.499
607.00,36.526
608.00,36.685
609.00,36.820
610.00,36.696
611.00,36.785
612.00,36.735
613.00,36.751
614.00,36.859
615.00,37.047
616.00,37.110
617.00,37.084
618.00,37.112
619.00,37.211
620.00,37.261
621.00,37.307
622.00,37.442
623.00,37.458
624.00,37.522
625.00,37.625
626.00,37.664
627.00,37.771
628.00,37.769
629.00,37.846
630.00,37.872
631.00,37.943
632.00,38.029
633.00,38.145
634.00,38.239
635.00,38.331
636.00,38.423
637.00,38.418
638.00,38.517
639.00,38.652
640.00,38.626
641.00,38.716
642.00,38.855
643.00,38.874
644.00,38.993
645.00,39.071
646.00,39.179
647.00,39.234
648.00,39.354
649.00,39.418
650.00,39.430
651.00,39.626
652.00,39.756
653.00,39.752
654.00,39.789
655.00,40.036
656.00,40.262
657.00,40.120
658.00,40.219
659.00,40.364
660.00,40.366
661.00,40.425
662.00,40.606
663.00,40.671
664.00,40.980
665.00,41.141
666.00,40.876
667.00,41.099
668.00,41.450
669.00,41.470
670.00,41.666
671.00,41.688
672.00,41.649
673.00,41.826
674.00,41.947
675.00,42.018
676.00,42.231
677.00,42.402
678.00,42.277
679.00,42.398
680.00,42.523
681.00,42.716
682.00,42.770
683.00,42.742
684.00,42.901
685.00,43.177
686.00,43.059
687.00,43.111
688.00,43.249
689.00,43.322
690.00,43.546
691.00,43.817
692.00,43.663
693.00,43.678
694.00,43.859
695.00,44.068
696.00,44.043
697.00,44.093
698.00,44.253
699.00,44.537
700.00,44.595
701.00,44.584
702.00,44.699
703.00,44.931
704.00,44.952
705.00,44.885
706.00,45.019
707.00,45.013
708.00,45.224
709.00,45.763
710.00,45.437
711.00,45.381
712.00,45.495
713.00,45.703
714.00,45.745
715.00,45.866
716.00,45.814
717.00,46.031
718.00,46.227
719.00,46.206
720.00,46.274
721.00,50.747
722.00,50.675
723.00,50.761
724.00,50.777
725.00,50.825
726.00,50.845
727.00,50.904
728.00,50.961
729.00,50.928
730.00,51.030
731.00,51.082
732.00,51.101
733.00,51.161
734.00,51.242
735.00,51.368
736.00,51.290
737.00,51.415
738.00,51.357
739.00,51.442
740.00,51.502
741.00,51.576
742.00,51.587
743.00,51.631
744.00,51.586
745.00,51.623
746.00,51.686
747.00,51.664
748.00,51.657
749.00,51.838
750.00,51.743
751.00,51.707
752.00,51.743
753.00,51.814
754.00,51.744
755.00,51.785
756.00,51.850
757.00,51.894
758.00,51.855
759.00,51.912
760.00,51.956
761.00,51.939
762.00,52.009
763.00,52.037
764.00,52.018
765.00,52.027
766.00,52.081
767.00,52.117
768.00,52.137
769.00,52.100
770.00,52.221
771.00,52.160
772.00,52.273
773.00,52.212
774.00,52.270
775.00,52.352
776.00,52.232
777.00,52.304
778.00,52.182
779.00,52.371
780.00,52.328
781.00,52.338
782.00,52.354
783.00,52.383
784.00,52.413
785.00,52.306
786.00,52.342
787.00,52.393
788.00,52.328
789.00,52.364
790.00,52.316
791.00,52.363
792.00,52.380
793.00,52.340
794.00,52.347
795.00,52.325
796.00,52.347
797.00,52.270
798.00,52.324
799.00,52.291
800.00,52.318
801.00,52.369
802.00,52.309
803.00,52.239
804.00,52.206
805.00,52.319
806.00,52.165
807.00,52.336
808.00,52.266
809.00,52.255
810.00,52.216
811.00,52.246
812.00,52.246
813.00,52.143
814.00,52.283
815.00,52.248
816.00,52.218
817.00,52.167
818.00,52.173
819.00,52.163
820.00,52.108
821.00,52.206
822.00,52.146
823.00,52.166
824.00,52.123
825.00,52.107
826.00,52.114
827.00,52.135
828.00,52.102
829.00,52.132
830.00,52.126
831.00,54.454
832.00,54.504
833.00,54.415
834.00,54.434
835.00,54.414
836.00,54.434
837.00,54.401
838.00,54.378
839.00,54.391
840.00,54.316
841.00,54.341
842.00,54.307
843.00,54.334
844.00,54.355
845.00,54.281
846.00,54.298
847.00,54.302
848.00,54.242
849.00,54.188
850.00,54.217
851.00,54.119
852.00,54.196
853.00,54.088
854.00,54.128
855.00,54.076
856.00,54.094
857.00,54.042
858.00,53.994
859.00,53.952
860.00,53.946
861.00,54.087
862.00,53.918
863.00,53.933
864.00,53.898
865.00,53.897
866.00,53.978
867.00,53.930
868.00,53.870
869.00,53.882
870.00,53.844
871.00,53.841
872.00,53.860
873.00,53.861
874.00,53.828
875.00,53.798
876.00,53.851
877.00,53.781
878.00,53.789
879.00,53.754
880.00,53.818
881.00,53.661
882.00,53.764
883.00,53.726
884.00,53.688
885.00,53.717
886.00,53.693
887.00,53.665
888.00,53.661
889.00,53.669
890.00,53.602
891.00,53.688
892.00,53.565
893.00,53.530
894.00,53.564
895.00,53.515
896.00,53.506
897.00,53.474
898.00,53.473
899.00,53.441
900.00,53.446
901.00,53.461
902.00,53.461
903.00,53.337
904.00,53.371
905.00,53.382
906.00,53.366
907.00,53.346
908.00,53.302
909.00,53.282
910.00,53.278
911.00,53.272
912.00,53.252
913.00,53.209
914.00,53.217
915.00,53.195
916.00,53.176
917.00,53.184
918.00,53.168
919.00,53.105
920.00,53.074
921.00,53.090
922.00,53.095
923.00,53.043
924.00,52.982
925.00,53.075
926.00,53.004
927.00,53.001
928.00,53.004
929.00,52.962
930.00,52.882
931.00,52.985
932.00,52.889
933.00,52.905
934.00,52.863
935.00,52.836
936.00,52.821
937.00,52.815
938.00,52.795
939.00,52.782
940.00,52.756
941.00,52.751
942.00,52.725
943.00,52.720
944.00,52.699
945.00,52.675
946.00,52.747
947.00,52.638
948.00,52.600
949.00,52.582
950.00,52.586
951.00,52.571
952.00,52.559
953.00,52.509
954.00,52.501
955.00,52.464
956.00,52.466
957.00,52.420
958.00,52.435
959.00,52.361
960.00,52.368
961.00,52.406
962.00,52.344
963.00,52.306
964.00,52.307
965.00,52.311
966.00,52.265
967.00,52.275
968.00,52.256
969.00,52.303
970.00,52.273
971.00,52.275
972.00,52.250
973.00,52.275
974.00,52.306
975.00,52.273
976.00,52.274
977.00,52.271
978.00,52.298
979.00,52.255
980.00,52.287
981.00,52.264
982.00,52.248
983.00,52.262
984.00,52.238
985.00,52.272
986.00,52.235
987.00,52.250
988.00,52.212
989.00,52.218
990.00,52.192
991.00,52.164
992.00,52.206
993.00,52.134
994.00,52.125
995.00,52.120
996.00,52.116
997.00,52.102
998.00,52.071
999.00,52.103
1000.00,52.057
1001.00,52.052
1002.00,52.042
1003.00,52.025
1004.00,52.006
1005.00,51.980
1006.00,52.021
1007.00,52.017
1008.00,51.972
1009.00,51.948
1010.00,51.967
1011.00,51.936
1012.00,51.911
1013.00,51.918
1014.00,51.876
1015.00,51.895
1016.00,51.847
1017.00,51.858
1018.00,51.846
1019.00,51.809
1020.00,51.845
1021.00,51.796
1022.00,51.796
1023.00,51.734
1024.00,51.748
1025.00,51.723
1026.00,51.713
1027.00,51.699
1028.00,51.691
1029.00,51.686
1030.00,51.648
1031.00,51.666
1032.00,51.634
1033.00,51.636
1034.00,51.612
1035.00,51.572
1036.00,51.550
1037.00,51.530
1038.00,51.516
1039.00,51.477
1040.00,51.471
1041.00,51.438
1042.00,51.419
1043.00,51.427
1044.00,51.437
1045.00,51.420
1046.00,51.402
1047.00,51.417
1048.00,51.429
1049.00,51.433
1050.00,51.445
1051.00,51.482
1052.00,51.452
1053.00,51.472
1054.00,51.467
1055.00,51.484
1056.00,51.494
1057.00,51.493
1058.00,51.470
1059.00,51.485
1060.00,51.497
1061.00,51.474
1062.00,51.470
1063.00,51.475
1064.00,51.462
1065.00,51.462
1066.00,51.444
1067.00,51.442
1068.00,51.483
1069.00,51.418
1070.00,51.392
1071.00,51.382
1072.00,51.408
1073.00,51.403
1074.00,51.400
1075.00,51.358
1076.00,51.393
1077.00,51.371
1078.00,51.350
1079.00,51.355
1080.00,51.347
1081.00,51.337
1082.00,51.326
1083.00,51.318
1084.00,51.313
1085.00,51.313
1086.00,51.284
1087.00,51.289
1088.00,51.264
1089.00,51.250
1090.00,51.250
1091.00,51.247
1092.00,51.234
1093.00,51.228
1094.00,51.213
1095.00,51.211
1096.00,51.200
1097.00,51.173
1098.00,51.177
1099.00,51.196
1100.00,51.160
1101.00,51.150
1102.00,51.121
1103.00,51.130
1104.00,51.124
1105.00,51.108
1106.00,51.103
1107.00,51.095
1108.00,51.071
1109.00,51.076
1110.00,51.061
1111.00,51.055
1112.00,51.050
1113.00,51.055
1114.00,51.038
1115.00,51.035
1116.00,51.013
1117.00,51.008
1118.00,51.003
1119.00,50.993
1120.00,50.995
1121.00,50.979
1122.00,50.957
1123.00,50.965
1124.00,50.945
1125.00,50.953
1126.00,50.950
1127.00,50.951
1128.00,50.947
1129.00,50.963
1130.00,50.897
1131.00,50.898
1132.00,50.876
1133.00,50.887
1134.00,50.894
1135.00,50.883
1136.00,50.886
1137.00,50.893
1138.00,50.872
1139.00,50.896
1140.00,50.884
1141.00,50.874
1142.00,50.862
1143.00,50.874
1144.00,50.834
1145.00,50.840
1146.00,50.832
1147.00,50.827
1148.00,50.824
1149.00,50.835
1150.00,50.839
1151.00,50.835
1152.00,50.806
1153.00,50.823
1154.00,50.806
1155.00,50.802
1156.00,50.801
1157.00,50.802
1158.00,50.794
1159.00,50.799
1160.00,50.791
1161.00,50.797
1162.00,50.783
1163.00,50.764
1164.00,50.779
1165.00,50.764
1166.00,50.770
1167.00,50.762
1168.00,50.769
1169.00,50.759
1170.00,50.757
1171.00,50.727
1172.00,50.739
1173.00,50.737
1174.00,50.732
1175.00,50.737
1176.00,50.745
1177.00,50.727
1178.00,50.736
1179.00,50.744
1180.00,50.742
1181.00,50.759
1182.00,50.732
1183.00,50.734
1184.00,50.733
1185.00,50.732
1186.00,50.735
1187.00,50.736
1188.00,50.730
1189.00,50.735
1190.00,50.719
1191.00,50.719
1192.00,50.744
1193.00,50.717
1194.00,50.726
1195.00,50.708
1196.00,50.727
1197.00,50.736
1198.00,50.712
1199.00,50.710
1200.00,50.717
1201.00,50.716
1202.00,50.701
1203.00,50.708
1204.00,50.692
1205.00,50.715
1206.00,50.702
1207.00,50.689
1208.00,50.684
1209.00,50.686
1210.00,50.700
1211.00,50.694
1212.00,50.701
1213.00,50.665
1214.00,50.698
1215.00,50.662
1216.00,50.680
1217.00,50.677
1218.00,50.651
1219.00,50.684
1220.00,50.676
1221.00,50.685
1222.00,50.680
1223.00,50.704
1224.00,50.694
1225.00,50.691
1226.00,50.691
1227.00,50.687
1228.00,50.701
1229.00,50.693
1230.00,50.731
1231.00,50.710
1232.00,50.714
1233.00,50.727
1234.00,50.711
1235.00,50.712
1236.00,50.714
1237.00,50.713
1238.00,50.721
1239.00,50.729
1240.00,50.697
1241.00,50.715
1242.00,50.730
1243.00,50.741
1244.00,50.721
1245.00,50.747
1246.00,50.752
1247.00,50.741
1248.00,50.726
1249.00,50.748
1250.00,50.758
1251.00,50.740
1252.00,50.758
1253.00,50.735
1254.00,50.770
1255.00,50.762
1256.00,50.728
1257.00,50.733
1258.00,50.782
1259.00,50.754
1260.00,50.786
1261.00,50.795
1262.00,50.765
1263.00,50.790
1264.00,50.774
1265.00,50.782
1266.00,50.788
1267.00,50.780
1268.00,50.809
1269.00,50.800
1270.00,50.799
1271.00,50.808
1272.00,50.789
1273.00,50.786
1274.00,50.807
1275.00,50.812
1276.00,50.803
1277.00,50.820
1278.00,50.823
1279.00,50.828
1280.00,50.820
1281.00,50.859
1282.00,50.887
1283.00,50.865
1284.00,50.855
1285.00,50.869
1286.00,50.896
1287.00,50.878
1288.00,50.888
1289.00,50.881
1290.00,50.901
1291.00,50.893
1292.00,50.878
1293.00,50.902
1294.00,50.937
1295.00,50.917
1296.00,50.912
1297.00,50.917
1298.00,50.937
1299.00,50.925
1300.00,50.925
1301.00,50.923
1302.00,50.953
1303.00,50.943
1304.00,50.932
1305.00,50.963
1306.00,50.958
1307.00,50.988
1308.00,50.971
1309.00,50.978
1310.00,50.986
1311.00,50.976
1312.00,50.969
1313.00,50.977
1314.00,50.982
1315.00,51.002
1316.00,51.004
1317.00,51.024
1318.00,51.024
1319.00,51.018
1320.00,51.031
1321.00,51.202
1322.00,51.179
1323.00,51.153
1324.00,51.160
1325.00,51.141
1326.00,51.161
1327.00,51.157
1328.00,51.147
1329.00,51.151
1330.00,51.156
1331.00,51.144
1332.00,51.158
1333.00,51.162
1334.00,51.175
1335.00,51.209
1336.00,51.214
1337.00,51.248
1338.00,51.298
1339.00,51.368
1340.00,51.458
1341.00,51.513
1342.00,51.541
1343.00,51.605
1344.00,51.639
1345.00,51.702
1346.00,51.749
1347.00,51.756
1348.00,51.781
1349.00,51.815
1350.00,51.799
1351.00,51.817
1352.00,51.818
1353.00,51.885
1354.00,51.855
1355.00,51.711
1356.00,51.898
1357.00,51.873
1358.00,51.920
1359.00,51.952
1360.00,51.859
1361.00,51.848
1362.00,51.877
1363.00,51.919
1364.00,51.930
1365.00,51.885
1366.00,51.931
1367.00,51.845
1368.00,51.861
1369.00,51.909
1370.00,51.857
1371.00,51.872
1372.00,51.881
1373.00,51.880
1374.00,51.874
1375.00,51.845
1376.00,51.829
1377.00,51.852
1378.00,51.872
1379.00,51.900
1380.00,51.828
1381.00,51.905
1382.00,51.841
1383.00,51.854
1384.00,51.788
1385.00,51.764
1386.00,51.824
1387.00,51.865
1388.00,51.767
1389.00,51.785
1390.00,51.874
1391.00,51.862
1392.00,51.827
1393.00,51.837
1394.00,51.851
1395.00,51.786
1396.00,51.753
1397.00,51.802
1398.00,51.889
1399.00,51.836
1400.00,51.722
1401.00,51.779
1402.00,51.897
1403.00,51.845
1404.00,51.839
1405.00,51.846
1406.00,51.857
1407.00,51.888
1408.00,51.903
1409.00,51.847
1410.00,51.902
1411.00,51.865
1412.00,51.968
1413.00,51.895
1414.00,51.859
1415.00,51.909
1416.00,51.923
1417.00,51.986
1418.00,51.934
1419.00,51.915
1420.00,51.948
1421.00,51.992
1422.00,51.994
1423.00,51.991
1424.00,52.008
1425.00,52.017
1426.00,52.034
1427.00,52.047
1428.00,52.024
1429.00,52.040
1430.00,52.049
1431.00,52.092
1432.00,52.099
1433.00,52.094
1434.00,52.106
1435.00,52.157
1436.00,52.153
1437.00,52.153
1438.00,52.171
1439.00,52.202
1440.00,52.211
1441.00,52.216
1442.00,52.228
1443.00,52.244
1444.00,52.305
1445.00,52.251
1446.00,52.281
1447.00,52.308
1448.00,52.359
1449.00,52.357
1450.00,52.359
1451.00,52.371
1452.00,52.385
1453.00,52.384
1454.00,52.431
1455.00,52.445
1456.00,52.455
1457.00,52.437
1458.00,52.464
1459.00,52.490
1460.00,52.495
1461.00,52.501
1462.00,52.536
1463.00,52.513
1464.00,52.549
1465.00,52.562
1466.00,52.566
1467.00,52.589
1468.00,52.634
1469.00,52.609
1470.00,52.625
1471.00,52.650
1472.00,52.660
1473.00,52.665
1474.00,52.695
1475.00,52.697
1476.00,52.705
1477.00,52.675
1478.00,52.734
1479.00,52.739
1480.00,52.733
1481.00,52.748
1482.00,52.784
1483.00,52.797
1484.00,52.806
1485.00,52.811
1486.00,52.845
1487.00,52.843
1488.00,52.871
1489.00,52.842
1490.00,52.860
1491.00,52.858
1492.00,52.881
1493.00,52.863
1494.00,52.904
1495.00,52.897
1496.00,52.903
1497.00,52.894
1498.00,52.909
1499.00,52.930
1500.00,52.956
1501.00, 
1502.00, 
1503.00, 
1504.00, 
1505.00, 
1506.00, 
1507.00, 
1508.00, 
1509.00, 
1510.00, 
1511.00, 
1512.00, 
1513.00, 
1514.00, 
1515.00, 
1516.00, 
1517.00, 
1518.00, 
1519.00, 
1520.00, 
1521.00, 
1522.00, 
1523.00, 
1524.00, 
1525.00, 
1526.00, 
1527.00, 
1528.00, 
1529.00, 
1530.00, 
1531.00, 
1532.00, 
1533.00, 
1534.00, 
1535.00, 
1536.00, 
1537.00, 
1538.00, 
1539.00, 
1540.00, 
1541.00, 
1542.00, 
1543.00, 
1544.00, 
1545.00, 
1546.00, 
1547.00, 
1548.00, 
1549.00, 
1550.00, 
1551.00, 
1552.00, 
1553.00, 
1554.00, 
1555.00, 
1556.00, 
1557.00, 
1558.00, 
1559.00, 
1560.00, 
1561.00, 
1562.00, 
1563.00, 
1564.00, 
1565.00, 
1566.00, 
1567.00, 
1568.00, 
1569.00, 
1570.00, 
1571.00, 
1572.00, 
1573.00, 
1574.00, 
1575.00, 
1576.00, 
1577.00, 
1578.00, 
1579.00, 
1580.00, 
1581.00, 
1582.00, 
1583.00, 
1584.00, 
1585.00, 
1586.00, 
1587.00, 
1588.00, 
1589.00, 
1590.00, 
1591.00, 
1592.00, 
1593.00, 
1594.00, 
1595.00, 
1596.00, 
1597.00, 
1598.00, 
1599.00, 
1600.00, 
1601.00, 
1602.00, 
1603.00, 
1604.00, 
1605.00, 
1606.00, 
1607.00, 
1608.00, 
1609.00, 
1610.00, 
1611.00, 
1612.00, 
1613.00, 
1614.00, 
1615.00, 
1616.00, 
1617.00, 
1618.00, 
1619.00, 
1620.00, 
1621.00, 
1622.00, 
1623.00, 
1624.00, 
1625.00, 
1626.00, 
1627.00, 
1628.00, 
1629.00, 
1630.00, 
1631.00, 
1632.00, 
1633.00, 
1634.00, 
1635.00, 
1636.00, 
1637.00, 
1638.00, 
1639.00, 
1640.00, 
1641.00, 
1642.00, 
1643.00, 
1644.00, 
1645.00, 
1646.00, 
1647.00, 
1648.00, 
1649.00, 
1650.00, 
1651.00, 
1652.00, 
1653.00, 
1654.00, 
1655.00, 
1656.00, 
1657.00, 
1658.00, 
1659.00, 
1660.00, 
1661.00, 
1662.00, 
1663.00, 
1664.00, 
1665.00, 
1666.00, 
1667.00, 
1668.00, 
1669.00, 
1670.00, 
1671.00, 
1672.00, 
1673.00, 
1674.00, 
1675.00, 
1676.00, 
1677.00, 
1678.00, 
1679.00, 
1680.00, 
1681.00, 
1682.00, 
1683.00, 
1684.00, 
1685.00, 
1686.00, 
1687.00, 
1688.00, 
1689.00, 
1690.00, 
1691.00, 
1692.00, 
1693.00, 
1694.00, 
1695.00, 
1696.00, 
1697.00, 
1698.00, 
1699.00, 
1700.00, 
1701.00, 
1702.00, 
1703.00, 
1704.00, 
1705.00, 
1706.00, 
1707.00, 
1708.00, 
1709.00, 
1710.00, 
1711.00, 
1712.00, 
1713.00, 
1714.00, 
1715.00, 
1716.00, 
1717.00, 
1718.00, 
1719.00, 
1720.00, 
1721.00, 
1722.00, 
1723.00, 
1724.00, 
1725.00, 
1726.00, 
1727.00, 
1728.00, 
1729.00, 
1730.00, 
1731.00, 
1732.00, 
1733.00, 
1734.00, 
1735.00, 
1736.00, 
1737.00, 
1738.00, 
1739.00, 
1740.00, 
1741.00, 
1742.00, 
1743.00, 
1744.00, 
1745.00, 
1746.00, 
1747.00, 
1748.00, 
1749.00, 
1750.00, 
1751.00, 
1752.00, 
1753.00, 
1754.00, 
1755.00, 
1756.00, 
1757.00, 
1758.00, 
1759.00, 
1760.00, 
1761.00, 
1762.00, 
1763.00, 
1764.00, 
1765.00, 
1766.00, 
1767.00, 
1768.00, 
1769.00, 
1770.00, 
1771.00, 
1772.00, 
1773.00, 
1774.00, 
1775.00, 
1776.00, 
1777.00, 
1778.00, 
1779.00, 
1780.00, 
1781.00, 
1782.00, 
1783.00, 
1784.00, 
1785.00, 
1786.00, 
1787.00, 
1788.00, 
1789.00, 
1790.00, 
1791.00, 
1792.00, 
1793.00, 
1794.00, 
1795.00, 
1796.00, 
1797.00, 
1798.00, 
1799.00, 
1800.00, 
1801.00, 
1802.00, 
1803.00, 
1804.00, 
1805.00, 
1806.00, 
1807.00, 
1808.00, 
1809.00, 
1810.00, 
1811.00, 
1812.00, 
1813.00, 
1814.00, 
1815.00, 
1816.00, 
1817.00, 
1818.00, 
1819.00, 
1820.00, 
1821.00, 
1822.00, 
1823.00, 
1824.00, 
1825.00, 
1826.00, 
1827.00, 
1828.00, 
1829.00, 
1830.00, 
1831.00, 
1832.00, 
1833.00, 
1834.00, 
1835.00, 
1836.00, 
1837.00, 
1838.00, 
1839.00, 
1840.00, 
1841.00, 
1842.00, 
1843.00, 
1844.00, 
1845.00, 
1846.00, 
1847.00, 
1848.00, 
1849.00, 
1850.00, 
1851.00, 
1852.00, 
1853.00, 
1854.00, 
1855.00, 
1856.00, 
1857.00, 
1858.00, 
1859.00, 
1860.00, 
1861.00, 
1862.00, 
1863.00, 
1864.00, 
1865.00, 
1866.00, 
1867.00, 
1868.00, 
1869.00, 
1870.00, 
1871.00, 
1872.00, 
1873.00, 
1874.00, 
1875.00, 
1876.00, 
1877.00, 
1878.00, 
1879.00, 
1880.00, 
1881.00, 
1882.00, 
1883.00, 
1884.00, 
1885.00, 
1886.00, 
1887.00, 
1888.00, 
1889.00, 
1890.00, 
1891.00, 
1892.00, 
1893.00, 
1894.00, 
1895.00, 
1896.00, 
1897.00, 
1898.00, 
1899.00, 
1900.00, 
1901.00, 
1902.00, 
1903.00, 
1904.00, 
1905.00, 
1906.00, 
1907.00, 
1908.00, 
1909.00, 
1910.00, 
1911.00, 
1912.00, 
1913.00, 
1914.00, 
1915.00, 
1916.00, 
1917.00, 
1918.00, 
1919.00, 
1920.00, 
1921.00, 
1922.00, 
1923.00, 
1924.00, 
1925.00, 
1926.00, 
1927.00, 
1928.00, 
1929.00, 
1930.00, 
1931.00, 
1932.00, 
1933.00, 
1934.00, 
1935.00, 
1936.00, 
1937.00, 
1938.00, 
1939.00, 
1940.00, 
1941.00, 
1942.00, 
1943.00, 
1944.00, 
1945.00, 
1946.00, 
1947.00, 
1948.00, 
1949.00, 
1950.00, 
1951.00, 
1952.00, 
1953.00, 
1954.00, 
1955.00, 
1956.00, 
1957.00, 
1958.00, 
1959.00, 
1960.00, 
1961.00, 
1962.00, 
1963.00, 
1964.00, 
1965.00, 
1966.00, 
1967.00, 
1968.00, 
1969.00, 
1970.00, 
1971.00, 
1972.00, 
1973.00, 
1974.00, 
1975.00, 
1976.00, 
1977.00, 
1978.00, 
1979.00, 
1980.00, 
1981.00, 
1982.00, 
1983.00, 
1984.00, 
1985.00, 
1986.00, 
1987.00, 
1988.00, 
1989.00, 
1990.00, 
1991.00, 
1992.00, 
1993.00, 
1994.00, 
1995.00, 
1996.00, 
1997.00, 
1998.00, 
1999.00, 
2000.00, 
2001.00, 
2002.00, 
2003.00, 
2004.00, 
2005.00, 
2006.00, 
2007.00, 
2008.00, 
2009.00, 
2010.00, 
2011.00, 
2012.00, 
2013.00, 
2014.00, 
2015.00, 
2016.00, 
2017.00, 
2018.00, 
2019.00, 
2020.00, 
2021.00, 
2022.00, 
2023.00, 
2024.00, 
2025.00, 
2026.00, 
2027.00, 
2028.00, 
2029.00, 
2030.00, 
2031.00, 
2032.00, 
2033.00, 
2034.00, 
2035.00, 
2036.00, 
2037.00, 
2038.00, 
2039.00, 
2040.00, 
2041.00, 
2042.00, 
2043.00, 
2044.00, 
2045.00, 
2046.00, 
2047.00, 
2048.00, 
2049.00, 
2050.00, 
2051.00, 
2052.00, 
2053.00, 
2054.00, 
2055.00, 
2056.00, 
2057.00, 
2058.00, 
2059.00, 
2060.00, 
2061.00, 
2062.00, 
2063.00, 
2064.00, 
2065.00, 
2066.00, 
2067.00, 
2068.00, 
2069.00, 
2070.00, 
2071.00, 
2072.00, 
2073.00, 
2074.00, 
2075.00, 
2076.00, 
2077.00, 
2078.00, 
2079.00, 
2080.00, 
2081.00, 
2082.00, 
2083.00, 
2084.00, 
2085.00, 
2086.00, 
2087.00, 
2088.00, 
2089.00, 
2090.00, 
2091.00, 
2092.00, 
2093.00, 
2094.00, 
2095.00, 
2096.00, 
2097.00, 
2098.00, 
2099.00, 
2100.00, 
2101.00, 
2102.00, 
2103.00, 
2104.00, 
2105.00, 
2106.00, 
2107.00, 
2108.00, 
2109.00, 
2110.00, 
2111.00, 
2112.00, 
2113.00, 
2114.00, 
2115.00, 
2116.00, 
2117.00, 
2118.00, 
2119.00, 
2120.00, 
2121.00, 
2122.00, 
2123.00, 
2124.00, 
2125.00, 
2126.00, 
2127.00, 
2128.00, 
2129.00, 
2130.00, 
2131.00, 
2132.00, 
2133.00, 
2134.00, 
2135.00, 
2136.00, 
2137.00, 
2138.00, 
2139.00, 
2140.00, 
2141.00, 
2142.00, 
2143.00, 
2144.00, 
2145.00, 
2146.00, 
2147.00, 
2148.00, 
2149.00, 
2150.00, 
2151.00, 
2152.00, 
2153.00, 
2154.00, 
2155.00, 
2156.00, 
2157.00, 
2158.00, 
2159.00, 
2160.00, 
2161.00, 
2162.00, 
2163.00, 
2164.00, 
2165.00, 
2166.00, 
2167.00, 
2168.00, 
2169.00, 
2170.00, 
2171.00, 
2172.00, 
2173.00, 
2174.00, 
2175.00, 
2176.00, 
2177.00, 
2178.00, 
2179.00, 
2180.00, 
2181.00, 
2182.00, 
2183.00, 
2184.00, 
2185.00, 
2186.00, 
2187.00, 
2188.00, 
2189.00, 
2190.00, 
2191.00, 
2192.00, 
2193.00, 
2194.00, 
2195.00, 
2196.00, 
2197.00, 
2198.00, 
2199.00, 
2200.00, 
2201.00, 
2202.00, 
2203.00, 
2204.00, 
2205.00, 
2206.00, 
2207.00, 
2208.00, 
2209.00, 
2210.00, 
2211.00, 
2212.00, 
2213.00, 
2214.00, 
2215.00, 
2216.00, 
2217.00, 
2218.00, 
2219.00, 
2220.00, 
2221.00, 
2222.00, 
2223.00, 
2224.00, 
2225.00, 
2226.00, 
2227.00, 
2228.00, 
2229.00, 
2230.00, 
2231.00, 
2232.00, 
2233.00, 
2234.00, 
2235.00, 
2236.00, 
2237.00, 
2238.00, 
2239.00, 
2240.00, 
2241.00, 
2242.00, 
2243.00, 
2244.00, 
2245.00, 
2246.00, 
2247.00, 
2248.00, 
2249.00, 
2250.00, 
2251.00, 
2252.00, 
2253.00, 
2254.00, 
2255.00, 
2256.00, 
2257.00, 
2258.00, 
2259.00, 
2260.00, 
2261.00, 
2262.00, 
2263.00, 
2264.00, 
2265.00, 
2266.00, 
2267.00, 
2268.00, 
2269.00, 
2270.00, 
2271.00, 
2272.00, 
2273.00, 
2274.00, 
2275.00, 
2276.00, 
2277.00, 
2278.00, 
2279.00, 
2280.00, 
2281.00, 
2282.00, 
2283.00, 
2284.00, 
2285.00, 
2286.00, 
2287.00, 
2288.00, 
2289.00, 
2290.00, 
2291.00, 
2292.00, 
2293.00, 
2294.00, 
2295.00, 
2296.00, 
2297.00, 
2298.00, 
2299.00, 
2300.00, 
2301.00, 
2302.00, 
2303.00, 
2304.00, 
2305.00, 
2306.00, 
2307.00, 
2308.00, 
2309.00, 
2310.00, 
2311.00, 
2312.00, 
2313.00, 
2314.00, 
2315.00, 
2316.00, 
2317.00, 
2318.00, 
2319.00, 
2320.00, 
2321.00, 
2322.00, 
2323.00, 
2324.00, 
2325.00, 
2326.00, 
2327.00, 
2328.00, 
2329.00, 
2330.00, 
2331.00, 
2332.00, 
2333.00, 
2334.00, 
2335.00, 
2336.00, 
2337.00, 
2338.00, 
2339.00, 
2340.00, 
2341.00, 
2342.00, 
2343.00, 
2344.00, 
2345.00, 
2346.00, 
2347.00, 
2348.00, 
2349.00, 
2350.00, 
2351.00, 
2352.00, 
2353.00, 
2354.00, 
2355.00, 
2356.00, 
2357.00, 
2358.00, 
2359.00, 
2360.00, 
2361.00, 
2362.00, 
2363.00, 
2364.00, 
2365.00, 
2366.00, 
2367.00, 
2368.00, 
2369.00, 
2370.00, 
2371.00, 
2372.00, 
2373.00, 
2374.00, 
2375.00, 
2376.00, 
2377.00, 
2378.00, 
2379.00, 
2380.00, 
2381.00, 
2382.00, 
2383.00, 
2384.00, 
2385.00, 
2386.00, 
2387.00, 
2388.00, 
2389.00, 
2390.00, 
2391.00, 
2392.00, 
2393.00, 
2394.00, 
2395.00, 
2396.00, 
2397.00, 
2398.00, 
2399.00, 
2400.00, 
2401.00, 
2402.00, 
2403.00, 
2404.00, 
2405.00, 
2406.00, 
2407.00, 
2408.00, 
2409.00, 
2410.00, 
2411.00, 
2412.00, 
2413.00, 
2414.00, 
2415.00, 
2416.00, 
2417.00, 
2418.00, 
2419.00, 
2420.00, 
2421.00, 
2422.00, 
2423.00, 
2424.00, 
2425.00, 
2426.00, 
2427.00, 
2428.00, 
2429.00, 
2430.00, 
2431.00, 
2432.00, 
2433.00, 
2434.00, 
2435.00, 
2436.00, 
2437.00, 
2438.00, 
2439.00, 
2440.00, 
2441.00, 
2442.00, 
2443.00, 
2444.00, 
2445.00, 
2446.00, 
2447.00, 
2448.00, 
2449.00, 
2450.00, 
2451.00, 
2452.00, 
2453.00, 
2454.00, 
2455.00, 
2456.00, 
2457.00, 
2458.00, 
2459.00, 
2460.00, 
2461.00, 
2462.00, 
2463.00, 
2464.00, 
2465.00, 
2466.00, 
2467.00, 
2468.00, 
2469.00, 
2470.00, 
2471.00, 
2472.00, 
2473.00, 
2474.00, 
2475.00, 
2476.00, 
2477.00, 
2478.00, 
2479.00, 
2480.00, 
2481.00, 
2482.00, 
2483.00, 
2484.00, 
2485.00, 
2486.00, 
2487.00, 
2488.00, 
2489.00, 
2490.00, 
2491.00, 
2492.00, 
2493.00, 
2494.00, 
2495.00, 
2496.00, 
2497.00, 
2498.00, 
2499.00, 
2500.00, 
2501.00, 
2502.00, 
2503.00, 
2504.00, 
2505.00, 
2506.00, 
2507.00, 
2508.00, 
2509.00, 
2510.00, 
2511.00, 
2512.00, 
2513.00, 
2514.00, 
2515.00, 
2516.00, 
2517.00, 
2518.00, 
2519.00, 
2520.00, 
2521.00, 
2522.00, 
2523.00, 
2524.00, 
2525.00, 
2526.00, 
2527.00, 
2528.00, 
2529.00, 
2530.00, 
2531.00, 
2532.00, 
2533.00, 
2534.00, 
2535.00, 
2536.00, 
2537.00, 
2538.00, 
2539.00, 
2540.00, 
2541.00, 
2542.00, 
2543.00, 
2544.00, 
2545.00, 
2546.00, 
2547.00, 
2548.00, 
2549.00, 
2550.00, 
2551.00, 
2552.00, 
2553.00, 
2554.00, 
2555.00, 
2556.00, 
2557.00, 
2558.00, 
2559.00, 
2560.00, 
2561.00, 
2562.00, 
2563.00, 
2564.00, 
2565.00, 
2566.00, 
2567.00, 
2568.00, 
2569.00, 
2570.00, 
2571.00, 
2572.00, 
2573.00, 
2574.00, 
2575.00, 
2576.00, 
2577.00, 
2578.00, 
2579.00, 
2580.00, 
2581.00, 
2582.00, 
2583.00, 
2584.00, 
2585.00, 
2586.00, 
2587.00, 
2588.00, 
2589.00, 
2590.00, 
2591.00, 
2592.00, 
2593.00, 
2594.00, 
2595.00, 
2596.00, 
2597.00, 
2598.00, 
2599.00, 
2600.00, 
