"2cP4 - RawData"
"Wavelength nm.","T%"
200.00,0.000
201.00,0.001
202.00,0.002
203.00,-0.001
204.00,0.002
205.00,0.003
206.00,0.001
207.00,-0.000
208.00,0.002
209.00,0.001
210.00,0.003
211.00,0.001
212.00,0.001
213.00,0.001
214.00,0.002
215.00,0.001
216.00,0.001
217.00,-0.001
218.00,0.001
219.00,0.001
220.00,0.001
221.00,-0.001
222.00,-0.001
223.00,0.002
224.00,0.000
225.00,0.001
226.00,0.001
227.00,0.001
228.00,0.000
229.00,-0.001
230.00,0.000
231.00,-0.000
232.00,0.000
233.00,-0.001
234.00,0.000
235.00,0.001
236.00,-0.000
237.00,0.002
238.00,0.001
239.00,0.000
240.00,0.001
241.00,0.001
242.00,0.000
243.00,-0.001
244.00,0.001
245.00,0.001
246.00,-0.002
247.00,-0.000
248.00,-0.001
249.00,-0.001
250.00,0.001
251.00,-0.000
252.00,0.000
253.00,0.002
254.00,0.000
255.00,0.002
256.00,0.001
257.00,0.001
258.00,0.001
259.00,-0.000
260.00,0.001
261.00,0.002
262.00,-0.002
263.00,-0.001
264.00,-0.001
265.00,-0.000
266.00,-0.001
267.00,0.001
268.00,0.000
269.00,-0.000
270.00,0.001
271.00,0.000
272.00,-0.000
273.00,-0.000
274.00,-0.000
275.00,0.000
276.00,-0.000
277.00,-0.000
278.00,0.001
279.00,-0.000
280.00,0.001
281.00,0.000
282.00,-0.001
283.00,0.001
284.00,0.001
285.00,-0.000
286.00,-0.001
287.00,0.001
288.00,0.001
289.00,-0.000
290.00,-0.001
291.00,-0.001
292.00,-0.000
293.00,0.000
294.00,-0.000
295.00,0.001
296.00,-0.000
297.00,0.000
298.00,0.001
299.00,0.001
300.00,0.003
301.00,0.004
302.00,0.004
303.00,0.006
304.00,0.008
305.00,0.014
306.00,0.024
307.00,0.037
308.00,0.060
309.00,0.091
310.00,0.127
311.00,0.170
312.00,0.232
313.00,0.312
314.00,0.412
315.00,0.524
316.00,0.690
317.00,0.872
318.00,1.077
319.00,1.314
320.00,1.600
321.00,1.915
322.00,2.259
323.00,2.661
324.00,3.088
325.00,3.518
326.00,3.980
327.00,4.482
328.00,5.001
329.00,5.532
330.00,6.090
331.00,6.621
332.00,7.194
333.00,7.807
334.00,8.383
335.00,8.983
336.00,9.563
337.00,10.165
338.00,10.736
339.00,11.233
340.00,11.769
341.00,12.297
342.00,12.845
343.00,13.282
344.00,13.742
345.00,14.222
346.00,14.628
347.00,15.008
348.00,15.308
349.00,15.704
350.00,16.056
351.00,16.344
352.00,16.608
353.00,16.853
354.00,17.109
355.00,17.400
356.00,17.617
357.00,17.816
358.00,17.995
359.00,18.165
360.00,18.375
361.00,18.446
362.00,18.642
363.00,18.760
364.00,18.822
365.00,18.855
366.00,18.971
367.00,19.001
368.00,19.118
369.00,19.147
370.00,19.230
371.00,19.231
372.00,19.208
373.00,19.183
374.00,19.207
375.00,19.220
376.00,19.131
377.00,19.115
378.00,19.031
379.00,19.015
380.00,18.986
381.00,18.976
382.00,18.963
383.00,18.943
384.00,18.985
385.00,19.009
386.00,19.013
387.00,19.043
388.00,19.098
389.00,19.097
390.00,19.119
391.00,19.148
392.00,19.132
393.00,19.148
394.00,19.136
395.00,19.166
396.00,19.165
397.00,19.179
398.00,19.215
399.00,19.174
400.00,19.199
401.00,19.157
402.00,19.159
403.00,19.169
404.00,19.208
405.00,19.162
406.00,19.122
407.00,19.116
408.00,19.147
409.00,19.082
410.00,19.051
411.00,19.032
412.00,19.027
413.00,19.047
414.00,19.062
415.00,19.041
416.00,19.072
417.00,19.024
418.00,19.111
419.00,19.146
420.00,19.209
421.00,19.229
422.00,19.247
423.00,19.292
424.00,19.360
425.00,19.374
426.00,19.406
427.00,19.444
428.00,19.518
429.00,19.550
430.00,19.577
431.00,19.650
432.00,19.703
433.00,19.760
434.00,19.825
435.00,19.901
436.00,19.943
437.00,20.002
438.00,20.092
439.00,20.183
440.00,20.218
441.00,20.316
442.00,20.396
443.00,20.482
444.00,20.575
445.00,20.657
446.00,20.775
447.00,20.862
448.00,20.981
449.00,21.072
450.00,21.170
451.00,21.254
452.00,21.368
453.00,21.485
454.00,21.591
455.00,21.701
456.00,21.808
457.00,21.927
458.00,22.035
459.00,22.167
460.00,22.299
461.00,22.448
462.00,22.560
463.00,22.705
464.00,22.844
465.00,22.966
466.00,23.098
467.00,23.220
468.00,23.357
469.00,23.457
470.00,23.568
471.00,23.673
472.00,23.802
473.00,23.904
474.00,24.035
475.00,24.192
476.00,24.296
477.00,24.427
478.00,24.543
479.00,24.741
480.00,24.876
481.00,25.026
482.00,25.168
483.00,25.281
484.00,25.456
485.00,25.580
486.00,25.743
487.00,25.913
488.00,26.069
489.00,26.229
490.00,26.378
491.00,26.507
492.00,26.743
493.00,26.874
494.00,26.886
495.00,27.045
496.00,27.163
497.00,27.270
498.00,27.469
499.00,27.575
500.00,27.777
501.00,27.831
502.00,28.015
503.00,28.152
504.00,28.177
505.00,28.396
506.00,28.495
507.00,28.607
508.00,28.715
509.00,28.848
510.00,29.032
511.00,29.115
512.00,29.280
513.00,29.422
514.00,29.564
515.00,29.754
516.00,29.890
517.00,29.862
518.00,30.014
519.00,30.095
520.00,30.107
521.00,30.270
522.00,30.366
523.00,30.428
524.00,30.526
525.00,30.613
526.00,30.741
527.00,30.816
528.00,30.872
529.00,31.043
530.00,31.193
531.00,31.311
532.00,31.358
533.00,31.486
534.00,31.607
535.00,31.671
536.00,31.759
537.00,31.821
538.00,31.956
539.00,31.946
540.00,32.057
541.00,32.150
542.00,32.198
543.00,32.259
544.00,32.309
545.00,32.407
546.00,32.485
547.00,32.547
548.00,32.664
549.00,32.740
550.00,32.790
551.00,32.904
552.00,32.955
553.00,32.974
554.00,33.133
555.00,33.129
556.00,33.234
557.00,33.261
558.00,33.331
559.00,33.417
560.00,33.524
561.00,33.557
562.00,33.591
563.00,33.631
564.00,33.752
565.00,33.725
566.00,33.786
567.00,33.933
568.00,33.865
569.00,33.916
570.00,33.970
571.00,34.073
572.00,34.046
573.00,34.043
574.00,34.135
575.00,34.126
576.00,34.202
577.00,34.249
578.00,34.333
579.00,34.412
580.00,34.438
581.00,34.627
582.00,34.676
583.00,34.689
584.00,34.781
585.00,34.872
586.00,34.889
587.00,34.940
588.00,35.012
589.00,34.963
590.00,34.988
591.00,35.078
592.00,35.084
593.00,35.075
594.00,35.186
595.00,35.360
596.00,35.362
597.00,35.360
598.00,35.469
599.00,35.474
600.00,35.515
601.00,35.597
602.00,35.591
603.00,35.677
604.00,35.705
605.00,35.759
606.00,35.832
607.00,35.850
608.00,35.946
609.00,36.105
610.00,35.976
611.00,36.096
612.00,36.131
613.00,36.229
614.00,36.270
615.00,36.341
616.00,36.429
617.00,36.435
618.00,36.470
619.00,36.531
620.00,36.611
621.00,36.693
622.00,36.785
623.00,36.819
624.00,36.889
625.00,36.972
626.00,37.046
627.00,37.085
628.00,37.138
629.00,37.181
630.00,37.283
631.00,37.333
632.00,37.395
633.00,37.536
634.00,37.574
635.00,37.721
636.00,37.773
637.00,37.823
638.00,37.829
639.00,38.041
640.00,38.125
641.00,38.095
642.00,38.272
643.00,38.360
644.00,38.415
645.00,38.507
646.00,38.629
647.00,38.658
648.00,38.802
649.00,38.834
650.00,38.814
651.00,39.033
652.00,39.122
653.00,39.150
654.00,39.270
655.00,39.453
656.00,39.691
657.00,39.628
658.00,39.790
659.00,39.961
660.00,39.894
661.00,40.050
662.00,40.223
663.00,40.176
664.00,40.488
665.00,40.575
666.00,40.583
667.00,40.673
668.00,40.702
669.00,40.946
670.00,41.133
671.00,41.181
672.00,41.279
673.00,41.304
674.00,41.471
675.00,41.500
676.00,41.704
677.00,41.868
678.00,41.907
679.00,41.918
680.00,41.974
681.00,42.256
682.00,42.254
683.00,42.237
684.00,42.541
685.00,42.751
686.00,42.621
687.00,42.677
688.00,42.933
689.00,42.928
690.00,43.151
691.00,43.365
692.00,43.224
693.00,43.237
694.00,43.398
695.00,43.385
696.00,43.622
697.00,43.923
698.00,43.886
699.00,44.127
700.00,44.262
701.00,44.197
702.00,44.360
703.00,44.518
704.00,44.610
705.00,44.573
706.00,44.740
707.00,44.702
708.00,44.847
709.00,45.307
710.00,45.126
711.00,45.039
712.00,45.247
713.00,45.353
714.00,45.397
715.00,45.621
716.00,45.490
717.00,45.678
718.00,45.749
719.00,45.851
720.00,46.024
721.00,50.283
722.00,50.259
723.00,50.341
724.00,50.365
725.00,50.413
726.00,50.431
727.00,50.491
728.00,50.513
729.00,50.512
730.00,50.591
731.00,50.703
732.00,50.693
733.00,50.735
734.00,50.750
735.00,50.895
736.00,50.903
737.00,51.016
738.00,51.010
739.00,51.058
740.00,51.059
741.00,51.174
742.00,51.220
743.00,51.248
744.00,51.231
745.00,51.245
746.00,51.255
747.00,51.245
748.00,51.244
749.00,51.392
750.00,51.269
751.00,51.344
752.00,51.301
753.00,51.381
754.00,51.381
755.00,51.436
756.00,51.440
757.00,51.466
758.00,51.505
759.00,51.533
760.00,51.495
761.00,51.547
762.00,51.619
763.00,51.627
764.00,51.595
765.00,51.673
766.00,51.728
767.00,51.724
768.00,51.767
769.00,51.768
770.00,51.854
771.00,51.835
772.00,51.926
773.00,51.882
774.00,51.919
775.00,51.931
776.00,51.817
777.00,51.933
778.00,51.878
779.00,51.909
780.00,51.945
781.00,51.973
782.00,52.020
783.00,51.907
784.00,51.972
785.00,52.032
786.00,51.965
787.00,51.987
788.00,52.006
789.00,51.980
790.00,52.014
791.00,51.988
792.00,51.955
793.00,51.945
794.00,51.917
795.00,51.928
796.00,51.930
797.00,51.838
798.00,52.023
799.00,51.896
800.00,51.912
801.00,51.961
802.00,51.886
803.00,51.886
804.00,51.788
805.00,51.979
806.00,51.869
807.00,51.929
808.00,51.872
809.00,51.835
810.00,51.835
811.00,51.853
812.00,51.840
813.00,51.824
814.00,51.830
815.00,51.875
816.00,51.826
817.00,51.714
818.00,51.788
819.00,51.722
820.00,51.717
821.00,51.765
822.00,51.730
823.00,51.765
824.00,51.805
825.00,51.592
826.00,51.678
827.00,51.717
828.00,51.669
829.00,51.694
830.00,51.649
831.00,53.870
832.00,53.835
833.00,53.800
834.00,53.789
835.00,53.766
836.00,53.797
837.00,53.770
838.00,53.738
839.00,53.743
840.00,53.670
841.00,53.696
842.00,53.682
843.00,53.667
844.00,53.677
845.00,53.603
846.00,53.669
847.00,53.639
848.00,53.551
849.00,53.539
850.00,53.520
851.00,53.467
852.00,53.479
853.00,53.410
854.00,53.425
855.00,53.385
856.00,53.384
857.00,53.333
858.00,53.354
859.00,53.301
860.00,53.300
861.00,53.280
862.00,53.239
863.00,53.243
864.00,53.218
865.00,53.212
866.00,53.376
867.00,53.234
868.00,53.177
869.00,53.181
870.00,53.178
871.00,53.170
872.00,53.181
873.00,53.168
874.00,53.138
875.00,53.117
876.00,53.145
877.00,53.122
878.00,53.115
879.00,53.079
880.00,53.096
881.00,53.082
882.00,53.070
883.00,53.061
884.00,52.997
885.00,52.984
886.00,52.971
887.00,52.943
888.00,52.934
889.00,52.944
890.00,52.915
891.00,52.877
892.00,52.870
893.00,52.854
894.00,52.872
895.00,52.806
896.00,52.806
897.00,52.773
898.00,52.765
899.00,52.755
900.00,52.755
901.00,52.746
902.00,52.749
903.00,52.704
904.00,52.708
905.00,52.694
906.00,52.677
907.00,52.665
908.00,52.644
909.00,52.566
910.00,52.693
911.00,52.590
912.00,52.580
913.00,52.517
914.00,52.483
915.00,52.514
916.00,52.470
917.00,52.473
918.00,52.463
919.00,52.418
920.00,52.354
921.00,52.435
922.00,52.401
923.00,52.346
924.00,52.355
925.00,52.318
926.00,52.290
927.00,52.270
928.00,52.246
929.00,52.231
930.00,52.213
931.00,52.212
932.00,52.183
933.00,52.189
934.00,52.165
935.00,52.118
936.00,52.168
937.00,52.088
938.00,52.090
939.00,52.061
940.00,52.047
941.00,52.036
942.00,52.010
943.00,51.988
944.00,51.975
945.00,51.963
946.00,51.950
947.00,51.917
948.00,51.888
949.00,51.875
950.00,51.862
951.00,51.842
952.00,51.812
953.00,51.790
954.00,51.764
955.00,51.736
956.00,51.740
957.00,51.693
958.00,51.705
959.00,51.640
960.00,51.638
961.00,51.633
962.00,51.634
963.00,51.583
964.00,51.579
965.00,51.570
966.00,51.541
967.00,51.566
968.00,51.526
969.00,51.577
970.00,51.540
971.00,51.561
972.00,51.542
973.00,51.544
974.00,51.568
975.00,51.552
976.00,51.567
977.00,51.560
978.00,51.573
979.00,51.528
980.00,51.564
981.00,51.565
982.00,51.550
983.00,51.563
984.00,51.540
985.00,51.550
986.00,51.510
987.00,51.517
988.00,51.500
989.00,51.472
990.00,51.458
991.00,51.450
992.00,51.470
993.00,51.431
994.00,51.410
995.00,51.418
996.00,51.410
997.00,51.404
998.00,51.366
999.00,51.386
1000.00,51.338
1001.00,51.333
1002.00,51.327
1003.00,51.305
1004.00,51.295
1005.00,51.256
1006.00,51.276
1007.00,51.257
1008.00,51.241
1009.00,51.221
1010.00,51.232
1011.00,51.202
1012.00,51.189
1013.00,51.181
1014.00,51.145
1015.00,51.166
1016.00,51.123
1017.00,51.121
1018.00,51.107
1019.00,51.078
1020.00,51.057
1021.00,51.051
1022.00,51.046
1023.00,50.991
1024.00,51.018
1025.00,50.990
1026.00,50.981
1027.00,50.953
1028.00,50.947
1029.00,50.942
1030.00,50.912
1031.00,50.903
1032.00,50.872
1033.00,50.879
1034.00,50.835
1035.00,50.809
1036.00,50.780
1037.00,50.762
1038.00,50.757
1039.00,50.720
1040.00,50.729
1041.00,50.689
1042.00,50.676
1043.00,50.670
1044.00,50.691
1045.00,50.663
1046.00,50.668
1047.00,50.671
1048.00,50.688
1049.00,50.703
1050.00,50.688
1051.00,50.731
1052.00,50.735
1053.00,50.730
1054.00,50.742
1055.00,50.756
1056.00,50.766
1057.00,50.775
1058.00,50.752
1059.00,50.755
1060.00,50.758
1061.00,50.744
1062.00,50.732
1063.00,50.749
1064.00,50.722
1065.00,50.721
1066.00,50.708
1067.00,50.690
1068.00,50.709
1069.00,50.662
1070.00,50.647
1071.00,50.652
1072.00,50.646
1073.00,50.649
1074.00,50.637
1075.00,50.611
1076.00,50.621
1077.00,50.597
1078.00,50.573
1079.00,50.567
1080.00,50.565
1081.00,50.547
1082.00,50.545
1083.00,50.537
1084.00,50.544
1085.00,50.541
1086.00,50.524
1087.00,50.533
1088.00,50.500
1089.00,50.490
1090.00,50.501
1091.00,50.485
1092.00,50.473
1093.00,50.455
1094.00,50.448
1095.00,50.429
1096.00,50.426
1097.00,50.407
1098.00,50.410
1099.00,50.402
1100.00,50.388
1101.00,50.374
1102.00,50.348
1103.00,50.360
1104.00,50.356
1105.00,50.337
1106.00,50.348
1107.00,50.340
1108.00,50.331
1109.00,50.319
1110.00,50.313
1111.00,50.292
1112.00,50.275
1113.00,50.263
1114.00,50.261
1115.00,50.276
1116.00,50.253
1117.00,50.251
1118.00,50.259
1119.00,50.239
1120.00,50.243
1121.00,50.223
1122.00,50.194
1123.00,50.196
1124.00,50.177
1125.00,50.173
1126.00,50.181
1127.00,50.182
1128.00,50.167
1129.00,50.161
1130.00,50.136
1131.00,50.128
1132.00,50.121
1133.00,50.126
1134.00,50.167
1135.00,50.191
1136.00,50.114
1137.00,50.105
1138.00,50.100
1139.00,50.114
1140.00,50.095
1141.00,50.087
1142.00,50.073
1143.00,50.080
1144.00,50.039
1145.00,50.047
1146.00,50.050
1147.00,50.031
1148.00,50.034
1149.00,50.048
1150.00,50.067
1151.00,50.058
1152.00,50.034
1153.00,50.048
1154.00,50.039
1155.00,50.027
1156.00,50.016
1157.00,50.015
1158.00,50.010
1159.00,50.007
1160.00,49.994
1161.00,50.015
1162.00,50.016
1163.00,50.000
1164.00,50.016
1165.00,50.004
1166.00,50.004
1167.00,50.003
1168.00,49.998
1169.00,49.991
1170.00,49.984
1171.00,49.969
1172.00,49.989
1173.00,49.985
1174.00,49.984
1175.00,49.984
1176.00,49.983
1177.00,49.970
1178.00,49.973
1179.00,49.970
1180.00,49.960
1181.00,49.983
1182.00,49.965
1183.00,49.969
1184.00,49.952
1185.00,49.963
1186.00,49.952
1187.00,49.943
1188.00,49.920
1189.00,49.926
1190.00,49.921
1191.00,49.912
1192.00,49.937
1193.00,49.926
1194.00,49.926
1195.00,49.929
1196.00,49.942
1197.00,49.926
1198.00,49.924
1199.00,49.910
1200.00,49.933
1201.00,49.922
1202.00,49.907
1203.00,49.918
1204.00,49.897
1205.00,49.920
1206.00,49.906
1207.00,49.906
1208.00,49.906
1209.00,49.908
1210.00,49.916
1211.00,49.914
1212.00,49.910
1213.00,49.870
1214.00,49.896
1215.00,49.875
1216.00,49.902
1217.00,49.907
1218.00,49.883
1219.00,49.902
1220.00,49.893
1221.00,49.887
1222.00,49.881
1223.00,49.898
1224.00,49.891
1225.00,49.880
1226.00,49.877
1227.00,49.872
1228.00,49.898
1229.00,49.885
1230.00,49.937
1231.00,49.917
1232.00,49.925
1233.00,49.940
1234.00,49.930
1235.00,49.927
1236.00,49.932
1237.00,49.927
1238.00,49.939
1239.00,49.949
1240.00,49.926
1241.00,49.951
1242.00,49.950
1243.00,49.950
1244.00,49.947
1245.00,49.961
1246.00,49.955
1247.00,49.955
1248.00,49.941
1249.00,49.963
1250.00,49.960
1251.00,49.950
1252.00,49.962
1253.00,49.946
1254.00,49.958
1255.00,49.963
1256.00,49.988
1257.00,49.991
1258.00,49.976
1259.00,49.963
1260.00,49.995
1261.00,49.990
1262.00,49.977
1263.00,49.987
1264.00,49.975
1265.00,49.986
1266.00,49.987
1267.00,49.991
1268.00,50.018
1269.00,50.014
1270.00,50.025
1271.00,50.044
1272.00,50.056
1273.00,50.032
1274.00,50.037
1275.00,50.038
1276.00,50.039
1277.00,50.053
1278.00,50.044
1279.00,50.033
1280.00,50.047
1281.00,50.060
1282.00,50.089
1283.00,50.068
1284.00,50.063
1285.00,50.058
1286.00,50.075
1287.00,50.052
1288.00,50.069
1289.00,50.066
1290.00,50.089
1291.00,50.098
1292.00,50.082
1293.00,50.092
1294.00,50.118
1295.00,50.109
1296.00,50.112
1297.00,50.115
1298.00,50.123
1299.00,50.124
1300.00,50.104
1301.00,50.111
1302.00,50.151
1303.00,50.144
1304.00,50.134
1305.00,50.154
1306.00,50.152
1307.00,50.167
1308.00,50.164
1309.00,50.175
1310.00,50.199
1311.00,50.174
1312.00,50.173
1313.00,50.187
1314.00,50.199
1315.00,50.194
1316.00,50.211
1317.00,50.250
1318.00,50.251
1319.00,50.236
1320.00,50.244
1321.00,50.402
1322.00,50.407
1323.00,50.369
1324.00,50.396
1325.00,50.359
1326.00,50.391
1327.00,50.384
1328.00,50.373
1329.00,50.378
1330.00,50.385
1331.00,50.371
1332.00,50.368
1333.00,50.370
1334.00,50.395
1335.00,50.411
1336.00,50.427
1337.00,50.443
1338.00,50.530
1339.00,50.565
1340.00,50.636
1341.00,50.689
1342.00,50.747
1343.00,50.814
1344.00,50.853
1345.00,50.912
1346.00,50.959
1347.00,50.969
1348.00,50.984
1349.00,51.016
1350.00,51.013
1351.00,51.036
1352.00,51.026
1353.00,51.047
1354.00,51.051
1355.00,50.958
1356.00,51.073
1357.00,51.085
1358.00,51.100
1359.00,51.096
1360.00,51.151
1361.00,50.915
1362.00,50.967
1363.00,51.108
1364.00,51.118
1365.00,51.071
1366.00,51.153
1367.00,51.069
1368.00,51.052
1369.00,51.105
1370.00,51.040
1371.00,51.084
1372.00,51.062
1373.00,51.080
1374.00,51.065
1375.00,51.058
1376.00,51.076
1377.00,50.923
1378.00,51.093
1379.00,51.067
1380.00,51.023
1381.00,51.120
1382.00,50.991
1383.00,51.047
1384.00,51.002
1385.00,50.964
1386.00,51.037
1387.00,51.034
1388.00,50.969
1389.00,51.006
1390.00,51.095
1391.00,51.029
1392.00,51.001
1393.00,51.072
1394.00,51.040
1395.00,51.000
1396.00,50.970
1397.00,50.988
1398.00,51.074
1399.00,51.047
1400.00,50.935
1401.00,51.029
1402.00,51.140
1403.00,51.037
1404.00,51.038
1405.00,51.098
1406.00,51.059
1407.00,51.117
1408.00,51.085
1409.00,51.074
1410.00,51.107
1411.00,51.096
1412.00,51.191
1413.00,51.149
1414.00,51.100
1415.00,51.128
1416.00,51.157
1417.00,51.189
1418.00,51.156
1419.00,51.114
1420.00,51.180
1421.00,51.231
1422.00,51.235
1423.00,51.237
1424.00,51.231
1425.00,51.249
1426.00,51.262
1427.00,51.284
1428.00,51.273
1429.00,51.295
1430.00,51.289
1431.00,51.321
1432.00,51.326
1433.00,51.336
1434.00,51.326
1435.00,51.379
1436.00,51.368
1437.00,51.386
1438.00,51.395
1439.00,51.433
1440.00,51.425
1441.00,51.435
1442.00,51.445
1443.00,51.461
1444.00,51.511
1445.00,51.491
1446.00,51.478
1447.00,51.520
1448.00,51.567
1449.00,51.564
1450.00,51.562
1451.00,51.596
1452.00,51.611
1453.00,51.638
1454.00,51.657
1455.00,51.652
1456.00,51.670
1457.00,51.670
1458.00,51.680
1459.00,51.728
1460.00,51.718
1461.00,51.737
1462.00,51.749
1463.00,51.752
1464.00,51.798
1465.00,51.785
1466.00,51.780
1467.00,51.817
1468.00,51.883
1469.00,51.846
1470.00,51.854
1471.00,51.861
1472.00,51.878
1473.00,51.888
1474.00,51.921
1475.00,51.928
1476.00,51.946
1477.00,51.920
1478.00,51.948
1479.00,51.966
1480.00,51.962
1481.00,51.977
1482.00,51.994
1483.00,52.020
1484.00,52.029
1485.00,52.034
1486.00,52.056
1487.00,52.067
1488.00,52.090
1489.00,52.092
1490.00,52.100
1491.00,52.112
1492.00,52.130
1493.00,52.121
1494.00,52.161
1495.00,52.166
1496.00,52.169
1497.00,52.182
1498.00,52.187
1499.00,52.201
1500.00,52.220
1501.00, 
1502.00, 
1503.00, 
1504.00, 
1505.00, 
1506.00, 
1507.00, 
1508.00, 
1509.00, 
1510.00, 
1511.00, 
1512.00, 
1513.00, 
1514.00, 
1515.00, 
1516.00, 
1517.00, 
1518.00, 
1519.00, 
1520.00, 
1521.00, 
1522.00, 
1523.00, 
1524.00, 
1525.00, 
1526.00, 
1527.00, 
1528.00, 
1529.00, 
1530.00, 
1531.00, 
1532.00, 
1533.00, 
1534.00, 
1535.00, 
1536.00, 
1537.00, 
1538.00, 
1539.00, 
1540.00, 
1541.00, 
1542.00, 
1543.00, 
1544.00, 
1545.00, 
1546.00, 
1547.00, 
1548.00, 
1549.00, 
1550.00, 
1551.00, 
1552.00, 
1553.00, 
1554.00, 
1555.00, 
1556.00, 
1557.00, 
1558.00, 
1559.00, 
1560.00, 
1561.00, 
1562.00, 
1563.00, 
1564.00, 
1565.00, 
1566.00, 
1567.00, 
1568.00, 
1569.00, 
1570.00, 
1571.00, 
1572.00, 
1573.00, 
1574.00, 
1575.00, 
1576.00, 
1577.00, 
1578.00, 
1579.00, 
1580.00, 
1581.00, 
1582.00, 
1583.00, 
1584.00, 
1585.00, 
1586.00, 
1587.00, 
1588.00, 
1589.00, 
1590.00, 
1591.00, 
1592.00, 
1593.00, 
1594.00, 
1595.00, 
1596.00, 
1597.00, 
1598.00, 
1599.00, 
1600.00, 
1601.00, 
1602.00, 
1603.00, 
1604.00, 
1605.00, 
1606.00, 
1607.00, 
1608.00, 
1609.00, 
1610.00, 
1611.00, 
1612.00, 
1613.00, 
1614.00, 
1615.00, 
1616.00, 
1617.00, 
1618.00, 
1619.00, 
1620.00, 
1621.00, 
1622.00, 
1623.00, 
1624.00, 
1625.00, 
1626.00, 
1627.00, 
1628.00, 
1629.00, 
1630.00, 
1631.00, 
1632.00, 
1633.00, 
1634.00, 
1635.00, 
1636.00, 
1637.00, 
1638.00, 
1639.00, 
1640.00, 
1641.00, 
1642.00, 
1643.00, 
1644.00, 
1645.00, 
1646.00, 
1647.00, 
1648.00, 
1649.00, 
1650.00, 
1651.00, 
1652.00, 
1653.00, 
1654.00, 
1655.00, 
1656.00, 
1657.00, 
1658.00, 
1659.00, 
1660.00, 
1661.00, 
1662.00, 
1663.00, 
1664.00, 
1665.00, 
1666.00, 
1667.00, 
1668.00, 
1669.00, 
1670.00, 
1671.00, 
1672.00, 
1673.00, 
1674.00, 
1675.00, 
1676.00, 
1677.00, 
1678.00, 
1679.00, 
1680.00, 
1681.00, 
1682.00, 
1683.00, 
1684.00, 
1685.00, 
1686.00, 
1687.00, 
1688.00, 
1689.00, 
1690.00, 
1691.00, 
1692.00, 
1693.00, 
1694.00, 
1695.00, 
1696.00, 
1697.00, 
1698.00, 
1699.00, 
1700.00, 
1701.00, 
1702.00, 
1703.00, 
1704.00, 
1705.00, 
1706.00, 
1707.00, 
1708.00, 
1709.00, 
1710.00, 
1711.00, 
1712.00, 
1713.00, 
1714.00, 
1715.00, 
1716.00, 
1717.00, 
1718.00, 
1719.00, 
1720.00, 
1721.00, 
1722.00, 
1723.00, 
1724.00, 
1725.00, 
1726.00, 
1727.00, 
1728.00, 
1729.00, 
1730.00, 
1731.00, 
1732.00, 
1733.00, 
1734.00, 
1735.00, 
1736.00, 
1737.00, 
1738.00, 
1739.00, 
1740.00, 
1741.00, 
1742.00, 
1743.00, 
1744.00, 
1745.00, 
1746.00, 
1747.00, 
1748.00, 
1749.00, 
1750.00, 
1751.00, 
1752.00, 
1753.00, 
1754.00, 
1755.00, 
1756.00, 
1757.00, 
1758.00, 
1759.00, 
1760.00, 
1761.00, 
1762.00, 
1763.00, 
1764.00, 
1765.00, 
1766.00, 
1767.00, 
1768.00, 
1769.00, 
1770.00, 
1771.00, 
1772.00, 
1773.00, 
1774.00, 
1775.00, 
1776.00, 
1777.00, 
1778.00, 
1779.00, 
1780.00, 
1781.00, 
1782.00, 
1783.00, 
1784.00, 
1785.00, 
1786.00, 
1787.00, 
1788.00, 
1789.00, 
1790.00, 
1791.00, 
1792.00, 
1793.00, 
1794.00, 
1795.00, 
1796.00, 
1797.00, 
1798.00, 
1799.00, 
1800.00, 
1801.00, 
1802.00, 
1803.00, 
1804.00, 
1805.00, 
1806.00, 
1807.00, 
1808.00, 
1809.00, 
1810.00, 
1811.00, 
1812.00, 
1813.00, 
1814.00, 
1815.00, 
1816.00, 
1817.00, 
1818.00, 
1819.00, 
1820.00, 
1821.00, 
1822.00, 
1823.00, 
1824.00, 
1825.00, 
1826.00, 
1827.00, 
1828.00, 
1829.00, 
1830.00, 
1831.00, 
1832.00, 
1833.00, 
1834.00, 
1835.00, 
1836.00, 
1837.00, 
1838.00, 
1839.00, 
1840.00, 
1841.00, 
1842.00, 
1843.00, 
1844.00, 
1845.00, 
1846.00, 
1847.00, 
1848.00, 
1849.00, 
1850.00, 
1851.00, 
1852.00, 
1853.00, 
1854.00, 
1855.00, 
1856.00, 
1857.00, 
1858.00, 
1859.00, 
1860.00, 
1861.00, 
1862.00, 
1863.00, 
1864.00, 
1865.00, 
1866.00, 
1867.00, 
1868.00, 
1869.00, 
1870.00, 
1871.00, 
1872.00, 
1873.00, 
1874.00, 
1875.00, 
1876.00, 
1877.00, 
1878.00, 
1879.00, 
1880.00, 
1881.00, 
1882.00, 
1883.00, 
1884.00, 
1885.00, 
1886.00, 
1887.00, 
1888.00, 
1889.00, 
1890.00, 
1891.00, 
1892.00, 
1893.00, 
1894.00, 
1895.00, 
1896.00, 
1897.00, 
1898.00, 
1899.00, 
1900.00, 
1901.00, 
1902.00, 
1903.00, 
1904.00, 
1905.00, 
1906.00, 
1907.00, 
1908.00, 
1909.00, 
1910.00, 
1911.00, 
1912.00, 
1913.00, 
1914.00, 
1915.00, 
1916.00, 
1917.00, 
1918.00, 
1919.00, 
1920.00, 
1921.00, 
1922.00, 
1923.00, 
1924.00, 
1925.00, 
1926.00, 
1927.00, 
1928.00, 
1929.00, 
1930.00, 
1931.00, 
1932.00, 
1933.00, 
1934.00, 
1935.00, 
1936.00, 
1937.00, 
1938.00, 
1939.00, 
1940.00, 
1941.00, 
1942.00, 
1943.00, 
1944.00, 
1945.00, 
1946.00, 
1947.00, 
1948.00, 
1949.00, 
1950.00, 
1951.00, 
1952.00, 
1953.00, 
1954.00, 
1955.00, 
1956.00, 
1957.00, 
1958.00, 
1959.00, 
1960.00, 
1961.00, 
1962.00, 
1963.00, 
1964.00, 
1965.00, 
1966.00, 
1967.00, 
1968.00, 
1969.00, 
1970.00, 
1971.00, 
1972.00, 
1973.00, 
1974.00, 
1975.00, 
1976.00, 
1977.00, 
1978.00, 
1979.00, 
1980.00, 
1981.00, 
1982.00, 
1983.00, 
1984.00, 
1985.00, 
1986.00, 
1987.00, 
1988.00, 
1989.00, 
1990.00, 
1991.00, 
1992.00, 
1993.00, 
1994.00, 
1995.00, 
1996.00, 
1997.00, 
1998.00, 
1999.00, 
2000.00, 
2001.00, 
2002.00, 
2003.00, 
2004.00, 
2005.00, 
2006.00, 
2007.00, 
2008.00, 
2009.00, 
2010.00, 
2011.00, 
2012.00, 
2013.00, 
2014.00, 
2015.00, 
2016.00, 
2017.00, 
2018.00, 
2019.00, 
2020.00, 
2021.00, 
2022.00, 
2023.00, 
2024.00, 
2025.00, 
2026.00, 
2027.00, 
2028.00, 
2029.00, 
2030.00, 
2031.00, 
2032.00, 
2033.00, 
2034.00, 
2035.00, 
2036.00, 
2037.00, 
2038.00, 
2039.00, 
2040.00, 
2041.00, 
2042.00, 
2043.00, 
2044.00, 
2045.00, 
2046.00, 
2047.00, 
2048.00, 
2049.00, 
2050.00, 
2051.00, 
2052.00, 
2053.00, 
2054.00, 
2055.00, 
2056.00, 
2057.00, 
2058.00, 
2059.00, 
2060.00, 
2061.00, 
2062.00, 
2063.00, 
2064.00, 
2065.00, 
2066.00, 
2067.00, 
2068.00, 
2069.00, 
2070.00, 
2071.00, 
2072.00, 
2073.00, 
2074.00, 
2075.00, 
2076.00, 
2077.00, 
2078.00, 
2079.00, 
2080.00, 
2081.00, 
2082.00, 
2083.00, 
2084.00, 
2085.00, 
2086.00, 
2087.00, 
2088.00, 
2089.00, 
2090.00, 
2091.00, 
2092.00, 
2093.00, 
2094.00, 
2095.00, 
2096.00, 
2097.00, 
2098.00, 
2099.00, 
2100.00, 
2101.00, 
2102.00, 
2103.00, 
2104.00, 
2105.00, 
2106.00, 
2107.00, 
2108.00, 
2109.00, 
2110.00, 
2111.00, 
2112.00, 
2113.00, 
2114.00, 
2115.00, 
2116.00, 
2117.00, 
2118.00, 
2119.00, 
2120.00, 
2121.00, 
2122.00, 
2123.00, 
2124.00, 
2125.00, 
2126.00, 
2127.00, 
2128.00, 
2129.00, 
2130.00, 
2131.00, 
2132.00, 
2133.00, 
2134.00, 
2135.00, 
2136.00, 
2137.00, 
2138.00, 
2139.00, 
2140.00, 
2141.00, 
2142.00, 
2143.00, 
2144.00, 
2145.00, 
2146.00, 
2147.00, 
2148.00, 
2149.00, 
2150.00, 
2151.00, 
2152.00, 
2153.00, 
2154.00, 
2155.00, 
2156.00, 
2157.00, 
2158.00, 
2159.00, 
2160.00, 
2161.00, 
2162.00, 
2163.00, 
2164.00, 
2165.00, 
2166.00, 
2167.00, 
2168.00, 
2169.00, 
2170.00, 
2171.00, 
2172.00, 
2173.00, 
2174.00, 
2175.00, 
2176.00, 
2177.00, 
2178.00, 
2179.00, 
2180.00, 
2181.00, 
2182.00, 
2183.00, 
2184.00, 
2185.00, 
2186.00, 
2187.00, 
2188.00, 
2189.00, 
2190.00, 
2191.00, 
2192.00, 
2193.00, 
2194.00, 
2195.00, 
2196.00, 
2197.00, 
2198.00, 
2199.00, 
2200.00, 
2201.00, 
2202.00, 
2203.00, 
2204.00, 
2205.00, 
2206.00, 
2207.00, 
2208.00, 
2209.00, 
2210.00, 
2211.00, 
2212.00, 
2213.00, 
2214.00, 
2215.00, 
2216.00, 
2217.00, 
2218.00, 
2219.00, 
2220.00, 
2221.00, 
2222.00, 
2223.00, 
2224.00, 
2225.00, 
2226.00, 
2227.00, 
2228.00, 
2229.00, 
2230.00, 
2231.00, 
2232.00, 
2233.00, 
2234.00, 
2235.00, 
2236.00, 
2237.00, 
2238.00, 
2239.00, 
2240.00, 
2241.00, 
2242.00, 
2243.00, 
2244.00, 
2245.00, 
2246.00, 
2247.00, 
2248.00, 
2249.00, 
2250.00, 
2251.00, 
2252.00, 
2253.00, 
2254.00, 
2255.00, 
2256.00, 
2257.00, 
2258.00, 
2259.00, 
2260.00, 
2261.00, 
2262.00, 
2263.00, 
2264.00, 
2265.00, 
2266.00, 
2267.00, 
2268.00, 
2269.00, 
2270.00, 
2271.00, 
2272.00, 
2273.00, 
2274.00, 
2275.00, 
2276.00, 
2277.00, 
2278.00, 
2279.00, 
2280.00, 
2281.00, 
2282.00, 
2283.00, 
2284.00, 
2285.00, 
2286.00, 
2287.00, 
2288.00, 
2289.00, 
2290.00, 
2291.00, 
2292.00, 
2293.00, 
2294.00, 
2295.00, 
2296.00, 
2297.00, 
2298.00, 
2299.00, 
2300.00, 
2301.00, 
2302.00, 
2303.00, 
2304.00, 
2305.00, 
2306.00, 
2307.00, 
2308.00, 
2309.00, 
2310.00, 
2311.00, 
2312.00, 
2313.00, 
2314.00, 
2315.00, 
2316.00, 
2317.00, 
2318.00, 
2319.00, 
2320.00, 
2321.00, 
2322.00, 
2323.00, 
2324.00, 
2325.00, 
2326.00, 
2327.00, 
2328.00, 
2329.00, 
2330.00, 
2331.00, 
2332.00, 
2333.00, 
2334.00, 
2335.00, 
2336.00, 
2337.00, 
2338.00, 
2339.00, 
2340.00, 
2341.00, 
2342.00, 
2343.00, 
2344.00, 
2345.00, 
2346.00, 
2347.00, 
2348.00, 
2349.00, 
2350.00, 
2351.00, 
2352.00, 
2353.00, 
2354.00, 
2355.00, 
2356.00, 
2357.00, 
2358.00, 
2359.00, 
2360.00, 
2361.00, 
2362.00, 
2363.00, 
2364.00, 
2365.00, 
2366.00, 
2367.00, 
2368.00, 
2369.00, 
2370.00, 
2371.00, 
2372.00, 
2373.00, 
2374.00, 
2375.00, 
2376.00, 
2377.00, 
2378.00, 
2379.00, 
2380.00, 
2381.00, 
2382.00, 
2383.00, 
2384.00, 
2385.00, 
2386.00, 
2387.00, 
2388.00, 
2389.00, 
2390.00, 
2391.00, 
2392.00, 
2393.00, 
2394.00, 
2395.00, 
2396.00, 
2397.00, 
2398.00, 
2399.00, 
2400.00, 
2401.00, 
2402.00, 
2403.00, 
2404.00, 
2405.00, 
2406.00, 
2407.00, 
2408.00, 
2409.00, 
2410.00, 
2411.00, 
2412.00, 
2413.00, 
2414.00, 
2415.00, 
2416.00, 
2417.00, 
2418.00, 
2419.00, 
2420.00, 
2421.00, 
2422.00, 
2423.00, 
2424.00, 
2425.00, 
2426.00, 
2427.00, 
2428.00, 
2429.00, 
2430.00, 
2431.00, 
2432.00, 
2433.00, 
2434.00, 
2435.00, 
2436.00, 
2437.00, 
2438.00, 
2439.00, 
2440.00, 
2441.00, 
2442.00, 
2443.00, 
2444.00, 
2445.00, 
2446.00, 
2447.00, 
2448.00, 
2449.00, 
2450.00, 
2451.00, 
2452.00, 
2453.00, 
2454.00, 
2455.00, 
2456.00, 
2457.00, 
2458.00, 
2459.00, 
2460.00, 
2461.00, 
2462.00, 
2463.00, 
2464.00, 
2465.00, 
2466.00, 
2467.00, 
2468.00, 
2469.00, 
2470.00, 
2471.00, 
2472.00, 
2473.00, 
2474.00, 
2475.00, 
2476.00, 
2477.00, 
2478.00, 
2479.00, 
2480.00, 
2481.00, 
2482.00, 
2483.00, 
2484.00, 
2485.00, 
2486.00, 
2487.00, 
2488.00, 
2489.00, 
2490.00, 
2491.00, 
2492.00, 
2493.00, 
2494.00, 
2495.00, 
2496.00, 
2497.00, 
2498.00, 
2499.00, 
2500.00, 
2501.00, 
2502.00, 
2503.00, 
2504.00, 
2505.00, 
2506.00, 
2507.00, 
2508.00, 
2509.00, 
2510.00, 
2511.00, 
2512.00, 
2513.00, 
2514.00, 
2515.00, 
2516.00, 
2517.00, 
2518.00, 
2519.00, 
2520.00, 
2521.00, 
2522.00, 
2523.00, 
2524.00, 
2525.00, 
2526.00, 
2527.00, 
2528.00, 
2529.00, 
2530.00, 
2531.00, 
2532.00, 
2533.00, 
2534.00, 
2535.00, 
2536.00, 
2537.00, 
2538.00, 
2539.00, 
2540.00, 
2541.00, 
2542.00, 
2543.00, 
2544.00, 
2545.00, 
2546.00, 
2547.00, 
2548.00, 
2549.00, 
2550.00, 
2551.00, 
2552.00, 
2553.00, 
2554.00, 
2555.00, 
2556.00, 
2557.00, 
2558.00, 
2559.00, 
2560.00, 
2561.00, 
2562.00, 
2563.00, 
2564.00, 
2565.00, 
2566.00, 
2567.00, 
2568.00, 
2569.00, 
2570.00, 
2571.00, 
2572.00, 
2573.00, 
2574.00, 
2575.00, 
2576.00, 
2577.00, 
2578.00, 
2579.00, 
2580.00, 
2581.00, 
2582.00, 
2583.00, 
2584.00, 
2585.00, 
2586.00, 
2587.00, 
2588.00, 
2589.00, 
2590.00, 
2591.00, 
2592.00, 
2593.00, 
2594.00, 
2595.00, 
2596.00, 
2597.00, 
2598.00, 
2599.00, 
2600.00, 
