"1aP2 - RawData"
"Wavelength nm.","T%"
200.00,0.002
201.00,0.004
202.00,0.001
203.00,0.003
204.00,0.001
205.00,0.001
206.00,0.003
207.00,0.000
208.00,0.001
209.00,-0.000
210.00,0.003
211.00,0.001
212.00,-0.000
213.00,-0.001
214.00,0.000
215.00,-0.000
216.00,-0.001
217.00,-0.002
218.00,0.001
219.00,0.002
220.00,-0.000
221.00,-0.003
222.00,0.001
223.00,0.001
224.00,0.003
225.00,0.003
226.00,0.003
227.00,-0.001
228.00,0.001
229.00,0.001
230.00,-0.002
231.00,0.002
232.00,0.000
233.00,-0.000
234.00,0.000
235.00,0.000
236.00,0.001
237.00,0.001
238.00,0.001
239.00,0.001
240.00,0.001
241.00,0.002
242.00,0.001
243.00,0.002
244.00,0.000
245.00,0.001
246.00,0.000
247.00,-0.000
248.00,0.002
249.00,0.002
250.00,0.003
251.00,0.000
252.00,0.000
253.00,0.001
254.00,-0.001
255.00,-0.001
256.00,-0.000
257.00,-0.000
258.00,-0.001
259.00,0.001
260.00,0.002
261.00,0.001
262.00,-0.001
263.00,-0.000
264.00,0.000
265.00,-0.000
266.00,-0.000
267.00,0.001
268.00,-0.001
269.00,-0.002
270.00,-0.001
271.00,0.001
272.00,0.002
273.00,-0.000
274.00,-0.000
275.00,0.000
276.00,-0.001
277.00,0.000
278.00,0.001
279.00,0.001
280.00,0.000
281.00,-0.000
282.00,0.000
283.00,-0.000
284.00,0.001
285.00,0.000
286.00,0.000
287.00,0.001
288.00,0.001
289.00,-0.000
290.00,-0.001
291.00,0.001
292.00,0.002
293.00,-0.000
294.00,0.001
295.00,0.001
296.00,-0.001
297.00,-0.001
298.00,0.001
299.00,0.002
300.00,0.004
301.00,0.005
302.00,0.008
303.00,0.013
304.00,0.021
305.00,0.029
306.00,0.045
307.00,0.068
308.00,0.107
309.00,0.161
310.00,0.225
311.00,0.308
312.00,0.415
313.00,0.537
314.00,0.729
315.00,0.948
316.00,1.187
317.00,1.494
318.00,1.821
319.00,2.222
320.00,2.686
321.00,3.199
322.00,3.766
323.00,4.402
324.00,5.071
325.00,5.719
326.00,6.400
327.00,7.191
328.00,7.948
329.00,8.729
330.00,9.568
331.00,10.390
332.00,11.218
333.00,12.064
334.00,12.876
335.00,13.724
336.00,14.540
337.00,15.338
338.00,16.143
339.00,16.868
340.00,17.665
341.00,18.373
342.00,19.036
343.00,19.696
344.00,20.253
345.00,20.897
346.00,21.413
347.00,21.925
348.00,22.386
349.00,22.808
350.00,23.306
351.00,23.706
352.00,24.039
353.00,24.367
354.00,24.730
355.00,25.018
356.00,25.311
357.00,25.565
358.00,25.781
359.00,26.023
360.00,26.243
361.00,26.364
362.00,26.544
363.00,26.742
364.00,26.832
365.00,26.995
366.00,27.036
367.00,27.158
368.00,27.216
369.00,27.247
370.00,27.301
371.00,27.286
372.00,27.321
373.00,27.312
374.00,27.283
375.00,27.254
376.00,27.217
377.00,27.185
378.00,27.096
379.00,27.000
380.00,26.972
381.00,26.969
382.00,26.946
383.00,26.973
384.00,26.960
385.00,27.025
386.00,27.010
387.00,27.092
388.00,27.132
389.00,27.170
390.00,27.245
391.00,27.207
392.00,27.301
393.00,27.260
394.00,27.283
395.00,27.310
396.00,27.318
397.00,27.376
398.00,27.312
399.00,27.341
400.00,27.337
401.00,27.321
402.00,27.331
403.00,27.328
404.00,27.340
405.00,27.325
406.00,27.305
407.00,27.215
408.00,27.244
409.00,27.175
410.00,27.137
411.00,27.167
412.00,27.087
413.00,27.119
414.00,27.110
415.00,27.163
416.00,27.187
417.00,27.187
418.00,27.196
419.00,27.288
420.00,27.309
421.00,27.375
422.00,27.352
423.00,27.415
424.00,27.488
425.00,27.554
426.00,27.471
427.00,27.578
428.00,27.595
429.00,27.618
430.00,27.697
431.00,27.734
432.00,27.773
433.00,27.841
434.00,27.824
435.00,27.973
436.00,28.056
437.00,28.094
438.00,28.181
439.00,28.246
440.00,28.312
441.00,28.398
442.00,28.483
443.00,28.532
444.00,28.640
445.00,28.714
446.00,28.840
447.00,28.906
448.00,28.987
449.00,29.125
450.00,29.206
451.00,29.308
452.00,29.412
453.00,29.549
454.00,29.628
455.00,29.732
456.00,29.861
457.00,29.976
458.00,30.092
459.00,30.207
460.00,30.326
461.00,30.491
462.00,30.556
463.00,30.725
464.00,30.851
465.00,30.906
466.00,31.092
467.00,31.247
468.00,31.349
469.00,31.484
470.00,31.554
471.00,31.609
472.00,31.751
473.00,31.814
474.00,31.955
475.00,32.067
476.00,32.119
477.00,32.196
478.00,32.333
479.00,32.550
480.00,32.671
481.00,32.804
482.00,32.957
483.00,33.054
484.00,33.205
485.00,33.444
486.00,33.561
487.00,33.703
488.00,33.816
489.00,34.016
490.00,34.138
491.00,34.246
492.00,34.487
493.00,34.575
494.00,34.569
495.00,34.735
496.00,34.887
497.00,34.950
498.00,35.091
499.00,35.285
500.00,35.306
501.00,35.409
502.00,35.604
503.00,35.729
504.00,35.764
505.00,35.873
506.00,36.005
507.00,36.085
508.00,36.193
509.00,36.378
510.00,36.448
511.00,36.589
512.00,36.694
513.00,36.842
514.00,36.965
515.00,37.078
516.00,37.167
517.00,37.281
518.00,37.419
519.00,37.457
520.00,37.566
521.00,37.625
522.00,37.739
523.00,37.785
524.00,37.841
525.00,37.863
526.00,38.052
527.00,38.110
528.00,38.160
529.00,38.272
530.00,38.385
531.00,38.554
532.00,38.618
533.00,38.701
534.00,38.787
535.00,38.850
536.00,38.956
537.00,39.020
538.00,39.102
539.00,39.242
540.00,39.152
541.00,39.191
542.00,39.274
543.00,39.272
544.00,39.343
545.00,39.404
546.00,39.445
547.00,39.559
548.00,39.612
549.00,39.666
550.00,39.778
551.00,39.872
552.00,39.914
553.00,40.009
554.00,40.048
555.00,40.107
556.00,40.166
557.00,40.179
558.00,40.204
559.00,40.236
560.00,40.363
561.00,40.406
562.00,40.383
563.00,40.492
564.00,40.504
565.00,40.501
566.00,40.540
567.00,40.616
568.00,40.650
569.00,40.658
570.00,40.664
571.00,40.769
572.00,40.750
573.00,40.756
574.00,40.818
575.00,40.830
576.00,40.794
577.00,40.869
578.00,40.937
579.00,40.974
580.00,41.070
581.00,41.186
582.00,41.213
583.00,41.306
584.00,41.371
585.00,41.409
586.00,41.510
587.00,41.618
588.00,41.486
589.00,41.486
590.00,41.477
591.00,41.503
592.00,41.518
593.00,41.618
594.00,41.545
595.00,41.582
596.00,41.652
597.00,41.821
598.00,41.871
599.00,41.874
600.00,42.033
601.00,41.979
602.00,41.937
603.00,42.032
604.00,42.014
605.00,42.072
606.00,42.154
607.00,42.176
608.00,42.261
609.00,42.276
610.00,42.214
611.00,42.266
612.00,42.355
613.00,42.371
614.00,42.402
615.00,42.430
616.00,42.599
617.00,42.580
618.00,42.682
619.00,42.697
620.00,42.652
621.00,42.715
622.00,42.818
623.00,42.905
624.00,42.936
625.00,42.967
626.00,43.018
627.00,43.067
628.00,43.085
629.00,43.098
630.00,43.118
631.00,43.221
632.00,43.263
633.00,43.344
634.00,43.421
635.00,43.487
636.00,43.590
637.00,43.684
638.00,43.732
639.00,43.712
640.00,43.777
641.00,43.789
642.00,43.910
643.00,43.939
644.00,44.024
645.00,44.082
646.00,44.211
647.00,44.307
648.00,44.331
649.00,44.355
650.00,44.401
651.00,44.466
652.00,44.489
653.00,44.627
654.00,44.713
655.00,44.741
656.00,44.923
657.00,45.107
658.00,45.015
659.00,45.161
660.00,45.012
661.00,44.948
662.00,45.274
663.00,45.270
664.00,45.643
665.00,45.669
666.00,45.620
667.00,45.866
668.00,45.828
669.00,45.976
670.00,46.059
671.00,45.942
672.00,46.150
673.00,46.203
674.00,46.252
675.00,46.357
676.00,46.471
677.00,46.483
678.00,46.491
679.00,46.618
680.00,46.691
681.00,46.798
682.00,46.916
683.00,46.908
684.00,47.006
685.00,47.148
686.00,47.124
687.00,47.137
688.00,47.361
689.00,47.242
690.00,47.348
691.00,47.599
692.00,47.504
693.00,47.408
694.00,47.584
695.00,47.765
696.00,47.715
697.00,47.913
698.00,47.891
699.00,48.083
700.00,48.118
701.00,48.201
702.00,48.452
703.00,48.485
704.00,48.511
705.00,48.474
706.00,48.549
707.00,48.664
708.00,48.539
709.00,48.705
710.00,49.035
711.00,48.727
712.00,48.871
713.00,48.919
714.00,48.931
715.00,48.954
716.00,48.935
717.00,49.057
718.00,49.229
719.00,49.285
720.00,49.435
721.00,53.572
722.00,53.609
723.00,53.673
724.00,53.647
725.00,53.620
726.00,53.622
727.00,53.745
728.00,53.678
729.00,53.706
730.00,53.777
731.00,53.677
732.00,53.704
733.00,53.830
734.00,53.813
735.00,53.830
736.00,53.815
737.00,53.927
738.00,53.899
739.00,53.876
740.00,53.932
741.00,53.985
742.00,54.030
743.00,53.976
744.00,54.006
745.00,54.051
746.00,53.910
747.00,54.038
748.00,53.994
749.00,53.866
750.00,53.955
751.00,53.888
752.00,53.933
753.00,53.887
754.00,53.941
755.00,53.957
756.00,53.970
757.00,54.004
758.00,53.970
759.00,53.978
760.00,53.946
761.00,53.924
762.00,53.970
763.00,53.952
764.00,53.939
765.00,53.994
766.00,53.989
767.00,54.027
768.00,54.057
769.00,53.972
770.00,54.091
771.00,53.960
772.00,54.039
773.00,53.989
774.00,54.080
775.00,54.079
776.00,54.019
777.00,54.092
778.00,53.976
779.00,54.117
780.00,54.048
781.00,54.048
782.00,54.033
783.00,53.899
784.00,54.032
785.00,53.913
786.00,54.039
787.00,53.984
788.00,54.007
789.00,53.968
790.00,53.865
791.00,54.012
792.00,53.942
793.00,54.029
794.00,53.929
795.00,53.908
796.00,53.925
797.00,53.788
798.00,53.862
799.00,53.796
800.00,53.773
801.00,53.847
802.00,53.797
803.00,53.843
804.00,53.736
805.00,53.759
806.00,53.737
807.00,53.708
808.00,53.675
809.00,53.708
810.00,53.650
811.00,53.676
812.00,53.662
813.00,53.580
814.00,53.652
815.00,53.564
816.00,53.574
817.00,53.566
818.00,53.470
819.00,53.527
820.00,53.479
821.00,53.504
822.00,53.511
823.00,53.484
824.00,53.480
825.00,53.383
826.00,53.520
827.00,53.501
828.00,53.370
829.00,53.316
830.00,53.301
831.00,55.973
832.00,55.962
833.00,55.892
834.00,55.912
835.00,55.837
836.00,55.859
837.00,55.786
838.00,55.768
839.00,55.805
840.00,55.740
841.00,55.725
842.00,55.725
843.00,55.773
844.00,55.712
845.00,55.652
846.00,55.761
847.00,55.641
848.00,55.679
849.00,55.601
850.00,55.569
851.00,55.479
852.00,55.530
853.00,55.473
854.00,55.448
855.00,55.388
856.00,55.419
857.00,55.470
858.00,55.368
859.00,55.329
860.00,55.338
861.00,55.366
862.00,55.282
863.00,55.339
864.00,55.241
865.00,55.292
866.00,55.302
867.00,55.295
868.00,55.273
869.00,55.230
870.00,55.261
871.00,55.208
872.00,55.173
873.00,55.283
874.00,55.233
875.00,55.149
876.00,55.247
877.00,55.164
878.00,55.202
879.00,55.155
880.00,55.154
881.00,55.100
882.00,55.157
883.00,55.091
884.00,55.058
885.00,55.068
886.00,55.042
887.00,54.943
888.00,54.996
889.00,54.992
890.00,54.986
891.00,54.927
892.00,54.935
893.00,54.910
894.00,54.913
895.00,54.898
896.00,54.889
897.00,54.849
898.00,54.820
899.00,54.862
900.00,54.822
901.00,54.771
902.00,54.824
903.00,54.764
904.00,54.737
905.00,54.727
906.00,54.743
907.00,54.715
908.00,54.652
909.00,54.661
910.00,54.646
911.00,54.641
912.00,54.612
913.00,54.576
914.00,54.558
915.00,54.552
916.00,54.544
917.00,54.515
918.00,54.520
919.00,54.498
920.00,54.439
921.00,54.464
922.00,54.430
923.00,54.387
924.00,54.348
925.00,54.386
926.00,54.363
927.00,54.323
928.00,54.314
929.00,54.330
930.00,54.273
931.00,54.283
932.00,54.234
933.00,54.261
934.00,54.227
935.00,54.198
936.00,54.160
937.00,54.177
938.00,54.139
939.00,54.167
940.00,54.142
941.00,54.090
942.00,54.029
943.00,54.093
944.00,54.028
945.00,54.049
946.00,54.048
947.00,54.001
948.00,53.992
949.00,53.966
950.00,53.949
951.00,53.923
952.00,53.900
953.00,53.857
954.00,53.856
955.00,53.801
956.00,53.796
957.00,53.751
958.00,53.796
959.00,53.686
960.00,53.731
961.00,53.723
962.00,53.729
963.00,53.690
964.00,53.679
965.00,53.679
966.00,53.658
967.00,53.665
968.00,53.621
969.00,53.651
970.00,53.635
971.00,53.641
972.00,53.592
973.00,53.641
974.00,53.667
975.00,53.622
976.00,53.641
977.00,53.613
978.00,53.673
979.00,53.631
980.00,53.648
981.00,53.667
982.00,53.609
983.00,53.641
984.00,53.624
985.00,53.634
986.00,53.614
987.00,53.615
988.00,53.572
989.00,53.623
990.00,53.582
991.00,53.563
992.00,53.602
993.00,53.536
994.00,53.534
995.00,53.525
996.00,53.511
997.00,53.491
998.00,53.475
999.00,53.491
1000.00,53.450
1001.00,53.436
1002.00,53.425
1003.00,53.439
1004.00,53.395
1005.00,53.399
1006.00,53.425
1007.00,53.388
1008.00,53.386
1009.00,53.375
1010.00,53.368
1011.00,53.355
1012.00,53.321
1013.00,53.323
1014.00,53.300
1015.00,53.291
1016.00,53.275
1017.00,53.258
1018.00,53.238
1019.00,53.215
1020.00,53.235
1021.00,53.211
1022.00,53.216
1023.00,53.180
1024.00,53.177
1025.00,53.169
1026.00,53.146
1027.00,53.116
1028.00,53.114
1029.00,53.093
1030.00,53.057
1031.00,53.065
1032.00,53.017
1033.00,53.046
1034.00,53.027
1035.00,52.983
1036.00,52.959
1037.00,52.945
1038.00,52.935
1039.00,52.912
1040.00,52.899
1041.00,52.860
1042.00,52.867
1043.00,52.828
1044.00,52.873
1045.00,52.841
1046.00,52.829
1047.00,52.862
1048.00,52.852
1049.00,52.879
1050.00,52.905
1051.00,52.918
1052.00,52.920
1053.00,52.945
1054.00,52.926
1055.00,52.949
1056.00,52.952
1057.00,52.962
1058.00,52.953
1059.00,52.944
1060.00,52.954
1061.00,52.941
1062.00,52.909
1063.00,52.926
1064.00,52.939
1065.00,52.923
1066.00,52.917
1067.00,52.922
1068.00,52.937
1069.00,52.899
1070.00,52.879
1071.00,52.870
1072.00,52.895
1073.00,52.865
1074.00,52.851
1075.00,52.851
1076.00,52.841
1077.00,52.816
1078.00,52.795
1079.00,52.812
1080.00,52.838
1081.00,52.799
1082.00,52.813
1083.00,52.810
1084.00,52.789
1085.00,52.810
1086.00,52.798
1087.00,52.783
1088.00,52.775
1089.00,52.771
1090.00,52.770
1091.00,52.776
1092.00,52.749
1093.00,52.724
1094.00,52.725
1095.00,52.727
1096.00,52.706
1097.00,52.720
1098.00,52.704
1099.00,52.704
1100.00,52.687
1101.00,52.673
1102.00,52.657
1103.00,52.654
1104.00,52.649
1105.00,52.642
1106.00,52.616
1107.00,52.615
1108.00,52.609
1109.00,52.592
1110.00,52.601
1111.00,52.593
1112.00,52.580
1113.00,52.587
1114.00,52.572
1115.00,52.577
1116.00,52.575
1117.00,52.540
1118.00,52.549
1119.00,52.555
1120.00,52.523
1121.00,52.523
1122.00,52.501
1123.00,52.486
1124.00,52.500
1125.00,52.487
1126.00,52.482
1127.00,52.488
1128.00,52.463
1129.00,52.454
1130.00,52.464
1131.00,52.459
1132.00,52.458
1133.00,52.442
1134.00,52.422
1135.00,52.432
1136.00,52.425
1137.00,52.431
1138.00,52.433
1139.00,52.424
1140.00,52.408
1141.00,52.415
1142.00,52.394
1143.00,52.419
1144.00,52.395
1145.00,52.392
1146.00,52.403
1147.00,52.375
1148.00,52.371
1149.00,52.405
1150.00,52.397
1151.00,52.408
1152.00,52.398
1153.00,52.387
1154.00,52.387
1155.00,52.397
1156.00,52.395
1157.00,52.403
1158.00,52.379
1159.00,52.406
1160.00,52.404
1161.00,52.379
1162.00,52.382
1163.00,52.389
1164.00,52.370
1165.00,52.382
1166.00,52.383
1167.00,52.370
1168.00,52.397
1169.00,52.367
1170.00,52.367
1171.00,52.369
1172.00,52.362
1173.00,52.357
1174.00,52.377
1175.00,52.358
1176.00,52.377
1177.00,52.361
1178.00,52.369
1179.00,52.384
1180.00,52.357
1181.00,52.382
1182.00,52.371
1183.00,52.364
1184.00,52.343
1185.00,52.377
1186.00,52.357
1187.00,52.363
1188.00,52.357
1189.00,52.353
1190.00,52.357
1191.00,52.354
1192.00,52.379
1193.00,52.372
1194.00,52.360
1195.00,52.349
1196.00,52.390
1197.00,52.380
1198.00,52.361
1199.00,52.359
1200.00,52.362
1201.00,52.379
1202.00,52.351
1203.00,52.348
1204.00,52.358
1205.00,52.372
1206.00,52.379
1207.00,52.385
1208.00,52.352
1209.00,52.396
1210.00,52.366
1211.00,52.387
1212.00,52.437
1213.00,52.344
1214.00,52.387
1215.00,52.369
1216.00,52.369
1217.00,52.383
1218.00,52.378
1219.00,52.381
1220.00,52.350
1221.00,52.393
1222.00,52.374
1223.00,52.408
1224.00,52.369
1225.00,52.353
1226.00,52.373
1227.00,52.355
1228.00,52.383
1229.00,52.392
1230.00,52.415
1231.00,52.399
1232.00,52.421
1233.00,52.424
1234.00,52.428
1235.00,52.418
1236.00,52.429
1237.00,52.431
1238.00,52.408
1239.00,52.424
1240.00,52.411
1241.00,52.417
1242.00,52.416
1243.00,52.429
1244.00,52.409
1245.00,52.449
1246.00,52.439
1247.00,52.440
1248.00,52.445
1249.00,52.446
1250.00,52.461
1251.00,52.455
1252.00,52.464
1253.00,52.442
1254.00,52.466
1255.00,52.435
1256.00,52.437
1257.00,52.447
1258.00,52.494
1259.00,52.489
1260.00,52.506
1261.00,52.506
1262.00,52.515
1263.00,52.497
1264.00,52.498
1265.00,52.516
1266.00,52.524
1267.00,52.526
1268.00,52.514
1269.00,52.509
1270.00,52.572
1271.00,52.546
1272.00,52.548
1273.00,52.577
1274.00,52.547
1275.00,52.570
1276.00,52.563
1277.00,52.570
1278.00,52.601
1279.00,52.581
1280.00,52.585
1281.00,52.606
1282.00,52.609
1283.00,52.595
1284.00,52.614
1285.00,52.592
1286.00,52.608
1287.00,52.597
1288.00,52.598
1289.00,52.610
1290.00,52.626
1291.00,52.624
1292.00,52.626
1293.00,52.633
1294.00,52.650
1295.00,52.664
1296.00,52.657
1297.00,52.674
1298.00,52.696
1299.00,52.661
1300.00,52.688
1301.00,52.676
1302.00,52.708
1303.00,52.719
1304.00,52.686
1305.00,52.714
1306.00,52.722
1307.00,52.690
1308.00,52.714
1309.00,52.756
1310.00,52.690
1311.00,52.712
1312.00,52.732
1313.00,52.748
1314.00,52.769
1315.00,52.776
1316.00,52.782
1317.00,52.811
1318.00,52.804
1319.00,52.815
1320.00,52.802
1321.00,52.962
1322.00,52.955
1323.00,52.938
1324.00,52.942
1325.00,52.928
1326.00,52.951
1327.00,52.929
1328.00,52.948
1329.00,52.910
1330.00,52.935
1331.00,52.944
1332.00,52.911
1333.00,53.043
1334.00,52.971
1335.00,52.991
1336.00,52.997
1337.00,53.048
1338.00,53.105
1339.00,53.148
1340.00,53.192
1341.00,53.259
1342.00,53.335
1343.00,53.377
1344.00,53.423
1345.00,53.474
1346.00,53.501
1347.00,53.536
1348.00,53.530
1349.00,53.550
1350.00,53.559
1351.00,53.614
1352.00,53.586
1353.00,53.745
1354.00,53.629
1355.00,53.569
1356.00,53.629
1357.00,53.615
1358.00,53.666
1359.00,53.649
1360.00,53.663
1361.00,53.732
1362.00,53.703
1363.00,53.712
1364.00,53.695
1365.00,53.626
1366.00,53.750
1367.00,53.669
1368.00,53.537
1369.00,53.662
1370.00,53.649
1371.00,53.599
1372.00,53.637
1373.00,53.644
1374.00,53.663
1375.00,53.661
1376.00,53.639
1377.00,53.613
1378.00,53.711
1379.00,53.647
1380.00,53.709
1381.00,53.662
1382.00,53.642
1383.00,53.700
1384.00,53.625
1385.00,53.649
1386.00,53.673
1387.00,53.675
1388.00,53.639
1389.00,53.671
1390.00,53.538
1391.00,53.696
1392.00,53.615
1393.00,53.528
1394.00,53.660
1395.00,53.669
1396.00,53.610
1397.00,53.612
1398.00,53.678
1399.00,53.570
1400.00,53.686
1401.00,53.647
1402.00,53.631
1403.00,53.628
1404.00,53.663
1405.00,53.692
1406.00,53.707
1407.00,53.680
1408.00,53.767
1409.00,53.680
1410.00,53.730
1411.00,53.637
1412.00,53.728
1413.00,53.633
1414.00,53.656
1415.00,53.657
1416.00,53.787
1417.00,53.793
1418.00,53.753
1419.00,53.794
1420.00,53.783
1421.00,53.801
1422.00,53.823
1423.00,53.824
1424.00,53.837
1425.00,53.855
1426.00,53.862
1427.00,53.908
1428.00,53.888
1429.00,53.920
1430.00,53.927
1431.00,53.940
1432.00,53.950
1433.00,53.975
1434.00,53.957
1435.00,54.015
1436.00,54.022
1437.00,53.992
1438.00,54.026
1439.00,54.043
1440.00,54.057
1441.00,54.081
1442.00,54.055
1443.00,54.061
1444.00,54.150
1445.00,54.057
1446.00,54.102
1447.00,54.126
1448.00,54.182
1449.00,54.201
1450.00,54.205
1451.00,54.191
1452.00,54.218
1453.00,54.223
1454.00,54.230
1455.00,54.275
1456.00,54.263
1457.00,54.273
1458.00,54.267
1459.00,54.290
1460.00,54.329
1461.00,54.327
1462.00,54.371
1463.00,54.370
1464.00,54.397
1465.00,54.421
1466.00,54.417
1467.00,54.429
1468.00,54.499
1469.00,54.469
1470.00,54.492
1471.00,54.518
1472.00,54.497
1473.00,54.505
1474.00,54.550
1475.00,54.565
1476.00,54.575
1477.00,54.550
1478.00,54.580
1479.00,54.602
1480.00,54.587
1481.00,54.603
1482.00,54.642
1483.00,54.637
1484.00,54.663
1485.00,54.664
1486.00,54.664
1487.00,54.685
1488.00,54.703
1489.00,54.690
1490.00,54.719
1491.00,54.710
1492.00,54.722
1493.00,54.720
1494.00,54.745
1495.00,54.728
1496.00,54.753
1497.00,54.758
1498.00,54.767
1499.00,54.793
1500.00,54.796
1501.00, 
1502.00, 
1503.00, 
1504.00, 
1505.00, 
1506.00, 
1507.00, 
1508.00, 
1509.00, 
1510.00, 
1511.00, 
1512.00, 
1513.00, 
1514.00, 
1515.00, 
1516.00, 
1517.00, 
1518.00, 
1519.00, 
1520.00, 
1521.00, 
1522.00, 
1523.00, 
1524.00, 
1525.00, 
1526.00, 
1527.00, 
1528.00, 
1529.00, 
1530.00, 
1531.00, 
1532.00, 
1533.00, 
1534.00, 
1535.00, 
1536.00, 
1537.00, 
1538.00, 
1539.00, 
1540.00, 
1541.00, 
1542.00, 
1543.00, 
1544.00, 
1545.00, 
1546.00, 
1547.00, 
1548.00, 
1549.00, 
1550.00, 
1551.00, 
1552.00, 
1553.00, 
1554.00, 
1555.00, 
1556.00, 
1557.00, 
1558.00, 
1559.00, 
1560.00, 
1561.00, 
1562.00, 
1563.00, 
1564.00, 
1565.00, 
1566.00, 
1567.00, 
1568.00, 
1569.00, 
1570.00, 
1571.00, 
1572.00, 
1573.00, 
1574.00, 
1575.00, 
1576.00, 
1577.00, 
1578.00, 
1579.00, 
1580.00, 
1581.00, 
1582.00, 
1583.00, 
1584.00, 
1585.00, 
1586.00, 
1587.00, 
1588.00, 
1589.00, 
1590.00, 
1591.00, 
1592.00, 
1593.00, 
1594.00, 
1595.00, 
1596.00, 
1597.00, 
1598.00, 
1599.00, 
1600.00, 
1601.00, 
1602.00, 
1603.00, 
1604.00, 
1605.00, 
1606.00, 
1607.00, 
1608.00, 
1609.00, 
1610.00, 
1611.00, 
1612.00, 
1613.00, 
1614.00, 
1615.00, 
1616.00, 
1617.00, 
1618.00, 
1619.00, 
1620.00, 
1621.00, 
1622.00, 
1623.00, 
1624.00, 
1625.00, 
1626.00, 
1627.00, 
1628.00, 
1629.00, 
1630.00, 
1631.00, 
1632.00, 
1633.00, 
1634.00, 
1635.00, 
1636.00, 
1637.00, 
1638.00, 
1639.00, 
1640.00, 
1641.00, 
1642.00, 
1643.00, 
1644.00, 
1645.00, 
1646.00, 
1647.00, 
1648.00, 
1649.00, 
1650.00, 
1651.00, 
1652.00, 
1653.00, 
1654.00, 
1655.00, 
1656.00, 
1657.00, 
1658.00, 
1659.00, 
1660.00, 
1661.00, 
1662.00, 
1663.00, 
1664.00, 
1665.00, 
1666.00, 
1667.00, 
1668.00, 
1669.00, 
1670.00, 
1671.00, 
1672.00, 
1673.00, 
1674.00, 
1675.00, 
1676.00, 
1677.00, 
1678.00, 
1679.00, 
1680.00, 
1681.00, 
1682.00, 
1683.00, 
1684.00, 
1685.00, 
1686.00, 
1687.00, 
1688.00, 
1689.00, 
1690.00, 
1691.00, 
1692.00, 
1693.00, 
1694.00, 
1695.00, 
1696.00, 
1697.00, 
1698.00, 
1699.00, 
1700.00, 
1701.00, 
1702.00, 
1703.00, 
1704.00, 
1705.00, 
1706.00, 
1707.00, 
1708.00, 
1709.00, 
1710.00, 
1711.00, 
1712.00, 
1713.00, 
1714.00, 
1715.00, 
1716.00, 
1717.00, 
1718.00, 
1719.00, 
1720.00, 
1721.00, 
1722.00, 
1723.00, 
1724.00, 
1725.00, 
1726.00, 
1727.00, 
1728.00, 
1729.00, 
1730.00, 
1731.00, 
1732.00, 
1733.00, 
1734.00, 
1735.00, 
1736.00, 
1737.00, 
1738.00, 
1739.00, 
1740.00, 
1741.00, 
1742.00, 
1743.00, 
1744.00, 
1745.00, 
1746.00, 
1747.00, 
1748.00, 
1749.00, 
1750.00, 
1751.00, 
1752.00, 
1753.00, 
1754.00, 
1755.00, 
1756.00, 
1757.00, 
1758.00, 
1759.00, 
1760.00, 
1761.00, 
1762.00, 
1763.00, 
1764.00, 
1765.00, 
1766.00, 
1767.00, 
1768.00, 
1769.00, 
1770.00, 
1771.00, 
1772.00, 
1773.00, 
1774.00, 
1775.00, 
1776.00, 
1777.00, 
1778.00, 
1779.00, 
1780.00, 
1781.00, 
1782.00, 
1783.00, 
1784.00, 
1785.00, 
1786.00, 
1787.00, 
1788.00, 
1789.00, 
1790.00, 
1791.00, 
1792.00, 
1793.00, 
1794.00, 
1795.00, 
1796.00, 
1797.00, 
1798.00, 
1799.00, 
1800.00, 
1801.00, 
1802.00, 
1803.00, 
1804.00, 
1805.00, 
1806.00, 
1807.00, 
1808.00, 
1809.00, 
1810.00, 
1811.00, 
1812.00, 
1813.00, 
1814.00, 
1815.00, 
1816.00, 
1817.00, 
1818.00, 
1819.00, 
1820.00, 
1821.00, 
1822.00, 
1823.00, 
1824.00, 
1825.00, 
1826.00, 
1827.00, 
1828.00, 
1829.00, 
1830.00, 
1831.00, 
1832.00, 
1833.00, 
1834.00, 
1835.00, 
1836.00, 
1837.00, 
1838.00, 
1839.00, 
1840.00, 
1841.00, 
1842.00, 
1843.00, 
1844.00, 
1845.00, 
1846.00, 
1847.00, 
1848.00, 
1849.00, 
1850.00, 
1851.00, 
1852.00, 
1853.00, 
1854.00, 
1855.00, 
1856.00, 
1857.00, 
1858.00, 
1859.00, 
1860.00, 
1861.00, 
1862.00, 
1863.00, 
1864.00, 
1865.00, 
1866.00, 
1867.00, 
1868.00, 
1869.00, 
1870.00, 
1871.00, 
1872.00, 
1873.00, 
1874.00, 
1875.00, 
1876.00, 
1877.00, 
1878.00, 
1879.00, 
1880.00, 
1881.00, 
1882.00, 
1883.00, 
1884.00, 
1885.00, 
1886.00, 
1887.00, 
1888.00, 
1889.00, 
1890.00, 
1891.00, 
1892.00, 
1893.00, 
1894.00, 
1895.00, 
1896.00, 
1897.00, 
1898.00, 
1899.00, 
1900.00, 
1901.00, 
1902.00, 
1903.00, 
1904.00, 
1905.00, 
1906.00, 
1907.00, 
1908.00, 
1909.00, 
1910.00, 
1911.00, 
1912.00, 
1913.00, 
1914.00, 
1915.00, 
1916.00, 
1917.00, 
1918.00, 
1919.00, 
1920.00, 
1921.00, 
1922.00, 
1923.00, 
1924.00, 
1925.00, 
1926.00, 
1927.00, 
1928.00, 
1929.00, 
1930.00, 
1931.00, 
1932.00, 
1933.00, 
1934.00, 
1935.00, 
1936.00, 
1937.00, 
1938.00, 
1939.00, 
1940.00, 
1941.00, 
1942.00, 
1943.00, 
1944.00, 
1945.00, 
1946.00, 
1947.00, 
1948.00, 
1949.00, 
1950.00, 
1951.00, 
1952.00, 
1953.00, 
1954.00, 
1955.00, 
1956.00, 
1957.00, 
1958.00, 
1959.00, 
1960.00, 
1961.00, 
1962.00, 
1963.00, 
1964.00, 
1965.00, 
1966.00, 
1967.00, 
1968.00, 
1969.00, 
1970.00, 
1971.00, 
1972.00, 
1973.00, 
1974.00, 
1975.00, 
1976.00, 
1977.00, 
1978.00, 
1979.00, 
1980.00, 
1981.00, 
1982.00, 
1983.00, 
1984.00, 
1985.00, 
1986.00, 
1987.00, 
1988.00, 
1989.00, 
1990.00, 
1991.00, 
1992.00, 
1993.00, 
1994.00, 
1995.00, 
1996.00, 
1997.00, 
1998.00, 
1999.00, 
2000.00, 
2001.00, 
2002.00, 
2003.00, 
2004.00, 
2005.00, 
2006.00, 
2007.00, 
2008.00, 
2009.00, 
2010.00, 
2011.00, 
2012.00, 
2013.00, 
2014.00, 
2015.00, 
2016.00, 
2017.00, 
2018.00, 
2019.00, 
2020.00, 
2021.00, 
2022.00, 
2023.00, 
2024.00, 
2025.00, 
2026.00, 
2027.00, 
2028.00, 
2029.00, 
2030.00, 
2031.00, 
2032.00, 
2033.00, 
2034.00, 
2035.00, 
2036.00, 
2037.00, 
2038.00, 
2039.00, 
2040.00, 
2041.00, 
2042.00, 
2043.00, 
2044.00, 
2045.00, 
2046.00, 
2047.00, 
2048.00, 
2049.00, 
2050.00, 
2051.00, 
2052.00, 
2053.00, 
2054.00, 
2055.00, 
2056.00, 
2057.00, 
2058.00, 
2059.00, 
2060.00, 
2061.00, 
2062.00, 
2063.00, 
2064.00, 
2065.00, 
2066.00, 
2067.00, 
2068.00, 
2069.00, 
2070.00, 
2071.00, 
2072.00, 
2073.00, 
2074.00, 
2075.00, 
2076.00, 
2077.00, 
2078.00, 
2079.00, 
2080.00, 
2081.00, 
2082.00, 
2083.00, 
2084.00, 
2085.00, 
2086.00, 
2087.00, 
2088.00, 
2089.00, 
2090.00, 
2091.00, 
2092.00, 
2093.00, 
2094.00, 
2095.00, 
2096.00, 
2097.00, 
2098.00, 
2099.00, 
2100.00, 
2101.00, 
2102.00, 
2103.00, 
2104.00, 
2105.00, 
2106.00, 
2107.00, 
2108.00, 
2109.00, 
2110.00, 
2111.00, 
2112.00, 
2113.00, 
2114.00, 
2115.00, 
2116.00, 
2117.00, 
2118.00, 
2119.00, 
2120.00, 
2121.00, 
2122.00, 
2123.00, 
2124.00, 
2125.00, 
2126.00, 
2127.00, 
2128.00, 
2129.00, 
2130.00, 
2131.00, 
2132.00, 
2133.00, 
2134.00, 
2135.00, 
2136.00, 
2137.00, 
2138.00, 
2139.00, 
2140.00, 
2141.00, 
2142.00, 
2143.00, 
2144.00, 
2145.00, 
2146.00, 
2147.00, 
2148.00, 
2149.00, 
2150.00, 
2151.00, 
2152.00, 
2153.00, 
2154.00, 
2155.00, 
2156.00, 
2157.00, 
2158.00, 
2159.00, 
2160.00, 
2161.00, 
2162.00, 
2163.00, 
2164.00, 
2165.00, 
2166.00, 
2167.00, 
2168.00, 
2169.00, 
2170.00, 
2171.00, 
2172.00, 
2173.00, 
2174.00, 
2175.00, 
2176.00, 
2177.00, 
2178.00, 
2179.00, 
2180.00, 
2181.00, 
2182.00, 
2183.00, 
2184.00, 
2185.00, 
2186.00, 
2187.00, 
2188.00, 
2189.00, 
2190.00, 
2191.00, 
2192.00, 
2193.00, 
2194.00, 
2195.00, 
2196.00, 
2197.00, 
2198.00, 
2199.00, 
2200.00, 
2201.00, 
2202.00, 
2203.00, 
2204.00, 
2205.00, 
2206.00, 
2207.00, 
2208.00, 
2209.00, 
2210.00, 
2211.00, 
2212.00, 
2213.00, 
2214.00, 
2215.00, 
2216.00, 
2217.00, 
2218.00, 
2219.00, 
2220.00, 
2221.00, 
2222.00, 
2223.00, 
2224.00, 
2225.00, 
2226.00, 
2227.00, 
2228.00, 
2229.00, 
2230.00, 
2231.00, 
2232.00, 
2233.00, 
2234.00, 
2235.00, 
2236.00, 
2237.00, 
2238.00, 
2239.00, 
2240.00, 
2241.00, 
2242.00, 
2243.00, 
2244.00, 
2245.00, 
2246.00, 
2247.00, 
2248.00, 
2249.00, 
2250.00, 
2251.00, 
2252.00, 
2253.00, 
2254.00, 
2255.00, 
2256.00, 
2257.00, 
2258.00, 
2259.00, 
2260.00, 
2261.00, 
2262.00, 
2263.00, 
2264.00, 
2265.00, 
2266.00, 
2267.00, 
2268.00, 
2269.00, 
2270.00, 
2271.00, 
2272.00, 
2273.00, 
2274.00, 
2275.00, 
2276.00, 
2277.00, 
2278.00, 
2279.00, 
2280.00, 
2281.00, 
2282.00, 
2283.00, 
2284.00, 
2285.00, 
2286.00, 
2287.00, 
2288.00, 
2289.00, 
2290.00, 
2291.00, 
2292.00, 
2293.00, 
2294.00, 
2295.00, 
2296.00, 
2297.00, 
2298.00, 
2299.00, 
2300.00, 
2301.00, 
2302.00, 
2303.00, 
2304.00, 
2305.00, 
2306.00, 
2307.00, 
2308.00, 
2309.00, 
2310.00, 
2311.00, 
2312.00, 
2313.00, 
2314.00, 
2315.00, 
2316.00, 
2317.00, 
2318.00, 
2319.00, 
2320.00, 
2321.00, 
2322.00, 
2323.00, 
2324.00, 
2325.00, 
2326.00, 
2327.00, 
2328.00, 
2329.00, 
2330.00, 
2331.00, 
2332.00, 
2333.00, 
2334.00, 
2335.00, 
2336.00, 
2337.00, 
2338.00, 
2339.00, 
2340.00, 
2341.00, 
2342.00, 
2343.00, 
2344.00, 
2345.00, 
2346.00, 
2347.00, 
2348.00, 
2349.00, 
2350.00, 
2351.00, 
2352.00, 
2353.00, 
2354.00, 
2355.00, 
2356.00, 
2357.00, 
2358.00, 
2359.00, 
2360.00, 
2361.00, 
2362.00, 
2363.00, 
2364.00, 
2365.00, 
2366.00, 
2367.00, 
2368.00, 
2369.00, 
2370.00, 
2371.00, 
2372.00, 
2373.00, 
2374.00, 
2375.00, 
2376.00, 
2377.00, 
2378.00, 
2379.00, 
2380.00, 
2381.00, 
2382.00, 
2383.00, 
2384.00, 
2385.00, 
2386.00, 
2387.00, 
2388.00, 
2389.00, 
2390.00, 
2391.00, 
2392.00, 
2393.00, 
2394.00, 
2395.00, 
2396.00, 
2397.00, 
2398.00, 
2399.00, 
2400.00, 
2401.00, 
2402.00, 
2403.00, 
2404.00, 
2405.00, 
2406.00, 
2407.00, 
2408.00, 
2409.00, 
2410.00, 
2411.00, 
2412.00, 
2413.00, 
2414.00, 
2415.00, 
2416.00, 
2417.00, 
2418.00, 
2419.00, 
2420.00, 
2421.00, 
2422.00, 
2423.00, 
2424.00, 
2425.00, 
2426.00, 
2427.00, 
2428.00, 
2429.00, 
2430.00, 
2431.00, 
2432.00, 
2433.00, 
2434.00, 
2435.00, 
2436.00, 
2437.00, 
2438.00, 
2439.00, 
2440.00, 
2441.00, 
2442.00, 
2443.00, 
2444.00, 
2445.00, 
2446.00, 
2447.00, 
2448.00, 
2449.00, 
2450.00, 
2451.00, 
2452.00, 
2453.00, 
2454.00, 
2455.00, 
2456.00, 
2457.00, 
2458.00, 
2459.00, 
2460.00, 
2461.00, 
2462.00, 
2463.00, 
2464.00, 
2465.00, 
2466.00, 
2467.00, 
2468.00, 
2469.00, 
2470.00, 
2471.00, 
2472.00, 
2473.00, 
2474.00, 
2475.00, 
2476.00, 
2477.00, 
2478.00, 
2479.00, 
2480.00, 
2481.00, 
2482.00, 
2483.00, 
2484.00, 
2485.00, 
2486.00, 
2487.00, 
2488.00, 
2489.00, 
2490.00, 
2491.00, 
2492.00, 
2493.00, 
2494.00, 
2495.00, 
2496.00, 
2497.00, 
2498.00, 
2499.00, 
2500.00, 
2501.00, 
2502.00, 
2503.00, 
2504.00, 
2505.00, 
2506.00, 
2507.00, 
2508.00, 
2509.00, 
2510.00, 
2511.00, 
2512.00, 
2513.00, 
2514.00, 
2515.00, 
2516.00, 
2517.00, 
2518.00, 
2519.00, 
2520.00, 
2521.00, 
2522.00, 
2523.00, 
2524.00, 
2525.00, 
2526.00, 
2527.00, 
2528.00, 
2529.00, 
2530.00, 
2531.00, 
2532.00, 
2533.00, 
2534.00, 
2535.00, 
2536.00, 
2537.00, 
2538.00, 
2539.00, 
2540.00, 
2541.00, 
2542.00, 
2543.00, 
2544.00, 
2545.00, 
2546.00, 
2547.00, 
2548.00, 
2549.00, 
2550.00, 
2551.00, 
2552.00, 
2553.00, 
2554.00, 
2555.00, 
2556.00, 
2557.00, 
2558.00, 
2559.00, 
2560.00, 
2561.00, 
2562.00, 
2563.00, 
2564.00, 
2565.00, 
2566.00, 
2567.00, 
2568.00, 
2569.00, 
2570.00, 
2571.00, 
2572.00, 
2573.00, 
2574.00, 
2575.00, 
2576.00, 
2577.00, 
2578.00, 
2579.00, 
2580.00, 
2581.00, 
2582.00, 
2583.00, 
2584.00, 
2585.00, 
2586.00, 
2587.00, 
2588.00, 
2589.00, 
2590.00, 
2591.00, 
2592.00, 
2593.00, 
2594.00, 
2595.00, 
2596.00, 
2597.00, 
2598.00, 
2599.00, 
2600.00, 
