"1bP2 - RawData"
"Wavelength nm.","T%"
200.00,0.000
201.00,-0.000
202.00,0.001
203.00,0.003
204.00,0.002
205.00,0.002
206.00,0.000
207.00,0.005
208.00,-0.000
209.00,-0.003
210.00,0.002
211.00,0.004
212.00,0.002
213.00,-0.000
214.00,0.000
215.00,0.001
216.00,0.003
217.00,0.000
218.00,-0.000
219.00,-0.001
220.00,0.003
221.00,-0.000
222.00,0.002
223.00,-0.000
224.00,0.001
225.00,0.001
226.00,0.002
227.00,-0.000
228.00,0.001
229.00,0.001
230.00,0.001
231.00,0.000
232.00,0.002
233.00,0.001
234.00,0.000
235.00,0.001
236.00,0.001
237.00,0.002
238.00,0.001
239.00,0.002
240.00,0.001
241.00,-0.002
242.00,-0.000
243.00,0.001
244.00,0.001
245.00,-0.001
246.00,0.002
247.00,-0.002
248.00,0.001
249.00,0.002
250.00,-0.000
251.00,0.001
252.00,0.001
253.00,0.000
254.00,-0.000
255.00,-0.000
256.00,0.000
257.00,0.001
258.00,-0.001
259.00,-0.001
260.00,0.001
261.00,0.001
262.00,0.000
263.00,0.000
264.00,-0.000
265.00,0.001
266.00,0.001
267.00,-0.001
268.00,0.001
269.00,-0.000
270.00,0.001
271.00,-0.001
272.00,-0.001
273.00,0.000
274.00,0.000
275.00,0.000
276.00,-0.001
277.00,0.001
278.00,-0.000
279.00,0.002
280.00,0.000
281.00,-0.000
282.00,0.000
283.00,-0.001
284.00,0.001
285.00,-0.001
286.00,0.000
287.00,-0.000
288.00,-0.000
289.00,0.003
290.00,-0.000
291.00,0.000
292.00,0.000
293.00,0.000
294.00,0.000
295.00,-0.001
296.00,0.001
297.00,0.001
298.00,0.001
299.00,0.004
300.00,0.005
301.00,0.005
302.00,0.009
303.00,0.016
304.00,0.020
305.00,0.031
306.00,0.050
307.00,0.074
308.00,0.118
309.00,0.182
310.00,0.252
311.00,0.335
312.00,0.453
313.00,0.606
314.00,0.790
315.00,1.029
316.00,1.295
317.00,1.637
318.00,1.989
319.00,2.422
320.00,2.916
321.00,3.453
322.00,4.052
323.00,4.728
324.00,5.446
325.00,6.145
326.00,6.905
327.00,7.748
328.00,8.564
329.00,9.381
330.00,10.295
331.00,11.143
332.00,12.040
333.00,12.953
334.00,13.817
335.00,14.747
336.00,15.544
337.00,16.493
338.00,17.315
339.00,18.100
340.00,18.901
341.00,19.622
342.00,20.365
343.00,20.986
344.00,21.633
345.00,22.323
346.00,22.872
347.00,23.402
348.00,23.987
349.00,24.360
350.00,24.907
351.00,25.319
352.00,25.659
353.00,26.039
354.00,26.366
355.00,26.665
356.00,27.014
357.00,27.279
358.00,27.527
359.00,27.801
360.00,28.016
361.00,28.114
362.00,28.356
363.00,28.603
364.00,28.663
365.00,28.749
366.00,28.827
367.00,28.979
368.00,29.066
369.00,29.081
370.00,29.164
371.00,29.155
372.00,29.146
373.00,29.149
374.00,29.111
375.00,29.127
376.00,29.068
377.00,29.023
378.00,28.916
379.00,28.838
380.00,28.783
381.00,28.817
382.00,28.778
383.00,28.830
384.00,28.826
385.00,28.887
386.00,28.903
387.00,28.952
388.00,29.050
389.00,29.018
390.00,29.110
391.00,29.092
392.00,29.157
393.00,29.143
394.00,29.169
395.00,29.252
396.00,29.232
397.00,29.245
398.00,29.220
399.00,29.214
400.00,29.264
401.00,29.203
402.00,29.236
403.00,29.205
404.00,29.208
405.00,29.193
406.00,29.167
407.00,29.123
408.00,29.143
409.00,29.054
410.00,29.003
411.00,29.031
412.00,28.965
413.00,28.985
414.00,28.924
415.00,28.904
416.00,29.008
417.00,28.989
418.00,28.962
419.00,29.101
420.00,29.093
421.00,29.167
422.00,29.127
423.00,29.214
424.00,29.301
425.00,29.289
426.00,29.221
427.00,29.263
428.00,29.337
429.00,29.391
430.00,29.413
431.00,29.480
432.00,29.508
433.00,29.568
434.00,29.607
435.00,29.649
436.00,29.706
437.00,29.791
438.00,29.873
439.00,29.927
440.00,29.986
441.00,30.038
442.00,30.065
443.00,30.193
444.00,30.270
445.00,30.338
446.00,30.472
447.00,30.522
448.00,30.608
449.00,30.719
450.00,30.817
451.00,30.901
452.00,30.975
453.00,31.128
454.00,31.205
455.00,31.275
456.00,31.390
457.00,31.505
458.00,31.571
459.00,31.701
460.00,31.821
461.00,31.975
462.00,32.048
463.00,32.179
464.00,32.321
465.00,32.432
466.00,32.517
467.00,32.674
468.00,32.753
469.00,32.875
470.00,32.923
471.00,32.973
472.00,33.108
473.00,33.167
474.00,33.278
475.00,33.389
476.00,33.482
477.00,33.561
478.00,33.695
479.00,33.875
480.00,33.908
481.00,34.049
482.00,34.166
483.00,34.288
484.00,34.525
485.00,34.698
486.00,34.677
487.00,34.894
488.00,34.920
489.00,35.209
490.00,35.338
491.00,35.435
492.00,35.690
493.00,35.735
494.00,35.683
495.00,35.892
496.00,35.951
497.00,36.039
498.00,36.167
499.00,36.248
500.00,36.443
501.00,36.484
502.00,36.644
503.00,36.765
504.00,36.781
505.00,36.924
506.00,37.012
507.00,37.093
508.00,37.156
509.00,37.368
510.00,37.397
511.00,37.399
512.00,37.592
513.00,37.866
514.00,37.856
515.00,37.983
516.00,38.124
517.00,38.180
518.00,38.319
519.00,38.376
520.00,38.402
521.00,38.505
522.00,38.648
523.00,38.615
524.00,38.685
525.00,38.792
526.00,38.884
527.00,38.924
528.00,39.033
529.00,39.117
530.00,39.266
531.00,39.421
532.00,39.418
533.00,39.551
534.00,39.551
535.00,39.684
536.00,39.759
537.00,39.803
538.00,39.918
539.00,39.997
540.00,39.947
541.00,39.966
542.00,39.987
543.00,40.045
544.00,40.127
545.00,40.182
546.00,40.166
547.00,40.317
548.00,40.368
549.00,40.412
550.00,40.507
551.00,40.594
552.00,40.568
553.00,40.646
554.00,40.746
555.00,40.758
556.00,40.792
557.00,40.820
558.00,40.869
559.00,40.939
560.00,41.033
561.00,41.059
562.00,41.134
563.00,41.122
564.00,41.184
565.00,41.190
566.00,41.219
567.00,41.248
568.00,41.282
569.00,41.301
570.00,41.359
571.00,41.382
572.00,41.368
573.00,41.366
574.00,41.366
575.00,41.398
576.00,41.385
577.00,41.425
578.00,41.543
579.00,41.633
580.00,41.668
581.00,41.776
582.00,41.852
583.00,41.895
584.00,41.983
585.00,41.969
586.00,42.069
587.00,42.229
588.00,42.140
589.00,42.004
590.00,42.078
591.00,42.179
592.00,42.103
593.00,42.142
594.00,42.225
595.00,42.259
596.00,42.302
597.00,42.420
598.00,42.439
599.00,42.403
600.00,42.434
601.00,42.490
602.00,42.319
603.00,42.526
604.00,42.688
605.00,42.667
606.00,42.676
607.00,42.655
608.00,42.772
609.00,42.852
610.00,42.713
611.00,42.838
612.00,42.855
613.00,42.907
614.00,42.939
615.00,42.919
616.00,43.126
617.00,43.026
618.00,43.112
619.00,43.166
620.00,43.061
621.00,43.110
622.00,43.259
623.00,43.335
624.00,43.268
625.00,43.363
626.00,43.416
627.00,43.475
628.00,43.490
629.00,43.484
630.00,43.512
631.00,43.602
632.00,43.681
633.00,43.710
634.00,43.741
635.00,43.888
636.00,43.905
637.00,43.914
638.00,43.943
639.00,44.040
640.00,44.008
641.00,44.033
642.00,44.166
643.00,44.189
644.00,44.157
645.00,44.342
646.00,44.562
647.00,44.519
648.00,44.543
649.00,44.571
650.00,44.588
651.00,44.675
652.00,44.674
653.00,44.750
654.00,44.772
655.00,44.853
656.00,45.028
657.00,44.370
658.00,45.040
659.00,45.182
660.00,45.143
661.00,45.224
662.00,45.312
663.00,45.354
664.00,45.572
665.00,45.733
666.00,45.716
667.00,45.814
668.00,45.668
669.00,45.965
670.00,46.123
671.00,45.980
672.00,46.120
673.00,46.136
674.00,46.182
675.00,46.202
676.00,46.440
677.00,46.442
678.00,46.380
679.00,46.477
680.00,46.534
681.00,46.550
682.00,46.726
683.00,46.622
684.00,46.755
685.00,46.857
686.00,46.756
687.00,46.919
688.00,46.986
689.00,46.808
690.00,47.175
691.00,47.342
692.00,47.253
693.00,47.039
694.00,47.124
695.00,47.319
696.00,47.379
697.00,47.131
698.00,47.444
699.00,48.037
700.00,47.781
701.00,47.728
702.00,47.909
703.00,47.891
704.00,47.971
705.00,47.889
706.00,48.049
707.00,48.104
708.00,47.899
709.00,48.267
710.00,48.572
711.00,48.114
712.00,48.227
713.00,48.346
714.00,48.317
715.00,48.271
716.00,48.254
717.00,48.309
718.00,48.421
719.00,48.428
720.00,48.524
721.00,53.250
722.00,53.176
723.00,53.184
724.00,53.249
725.00,53.145
726.00,53.147
727.00,53.218
728.00,53.212
729.00,53.222
730.00,53.226
731.00,53.167
732.00,53.166
733.00,53.289
734.00,53.220
735.00,53.260
736.00,53.295
737.00,53.418
738.00,53.271
739.00,53.289
740.00,53.360
741.00,53.388
742.00,53.394
743.00,53.357
744.00,53.355
745.00,53.375
746.00,53.325
747.00,53.381
748.00,53.242
749.00,53.251
750.00,53.270
751.00,53.268
752.00,53.168
753.00,53.209
754.00,53.187
755.00,53.164
756.00,53.188
757.00,53.153
758.00,53.193
759.00,53.176
760.00,53.145
761.00,53.158
762.00,53.194
763.00,53.215
764.00,53.165
765.00,53.250
766.00,53.184
767.00,53.132
768.00,53.181
769.00,53.152
770.00,53.214
771.00,53.080
772.00,53.231
773.00,53.162
774.00,53.159
775.00,53.216
776.00,53.171
777.00,53.183
778.00,53.072
779.00,53.194
780.00,53.077
781.00,53.107
782.00,53.152
783.00,53.035
784.00,53.100
785.00,52.965
786.00,53.106
787.00,53.069
788.00,53.103
789.00,53.068
790.00,52.952
791.00,53.033
792.00,52.990
793.00,52.952
794.00,52.962
795.00,52.965
796.00,52.898
797.00,52.828
798.00,52.920
799.00,52.874
800.00,52.795
801.00,52.786
802.00,52.828
803.00,52.851
804.00,52.684
805.00,52.751
806.00,52.728
807.00,52.775
808.00,52.726
809.00,52.677
810.00,52.595
811.00,52.658
812.00,52.717
813.00,52.537
814.00,52.595
815.00,52.573
816.00,52.551
817.00,52.578
818.00,52.429
819.00,52.545
820.00,52.394
821.00,52.407
822.00,52.501
823.00,52.442
824.00,52.426
825.00,52.353
826.00,52.408
827.00,52.388
828.00,52.377
829.00,52.235
830.00,52.306
831.00,54.969
832.00,54.980
833.00,54.895
834.00,54.925
835.00,54.882
836.00,54.878
837.00,54.846
838.00,54.794
839.00,54.809
840.00,54.749
841.00,54.768
842.00,54.719
843.00,54.736
844.00,54.738
845.00,54.696
846.00,54.689
847.00,54.605
848.00,54.674
849.00,54.570
850.00,54.526
851.00,54.553
852.00,54.536
853.00,54.471
854.00,54.432
855.00,54.358
856.00,54.372
857.00,54.361
858.00,54.316
859.00,54.313
860.00,54.322
861.00,54.356
862.00,54.268
863.00,54.332
864.00,54.228
865.00,54.263
866.00,54.251
867.00,54.234
868.00,54.263
869.00,54.186
870.00,54.249
871.00,54.165
872.00,54.187
873.00,54.178
874.00,54.188
875.00,54.102
876.00,54.182
877.00,54.139
878.00,54.130
879.00,54.111
880.00,54.089
881.00,54.060
882.00,54.099
883.00,54.014
884.00,53.986
885.00,53.973
886.00,53.970
887.00,53.964
888.00,53.941
889.00,53.923
890.00,53.907
891.00,53.862
892.00,53.874
893.00,53.855
894.00,53.843
895.00,53.841
896.00,53.815
897.00,53.791
898.00,53.753
899.00,53.811
900.00,53.743
901.00,53.751
902.00,53.777
903.00,53.717
904.00,53.683
905.00,53.659
906.00,53.670
907.00,53.640
908.00,53.576
909.00,53.603
910.00,53.576
911.00,53.553
912.00,53.532
913.00,53.520
914.00,53.469
915.00,53.507
916.00,53.478
917.00,53.432
918.00,53.392
919.00,53.536
920.00,53.366
921.00,53.381
922.00,53.377
923.00,53.318
924.00,53.261
925.00,53.315
926.00,53.277
927.00,53.278
928.00,53.229
929.00,53.272
930.00,53.206
931.00,53.214
932.00,53.169
933.00,53.187
934.00,53.157
935.00,53.149
936.00,53.106
937.00,53.105
938.00,53.090
939.00,53.064
940.00,53.029
941.00,53.014
942.00,53.007
943.00,52.993
944.00,52.948
945.00,52.949
946.00,52.949
947.00,52.895
948.00,52.901
949.00,52.880
950.00,52.874
951.00,52.855
952.00,52.830
953.00,52.789
954.00,52.780
955.00,52.725
956.00,52.719
957.00,52.681
958.00,52.707
959.00,52.580
960.00,52.643
961.00,52.620
962.00,52.638
963.00,52.586
964.00,52.586
965.00,52.580
966.00,52.555
967.00,52.563
968.00,52.533
969.00,52.573
970.00,52.555
971.00,52.578
972.00,52.523
973.00,52.553
974.00,52.587
975.00,52.552
976.00,52.578
977.00,52.577
978.00,52.608
979.00,52.608
980.00,52.568
981.00,52.575
982.00,52.520
983.00,52.548
984.00,52.531
985.00,52.551
986.00,52.515
987.00,52.532
988.00,52.517
989.00,52.536
990.00,52.511
991.00,52.482
992.00,52.508
993.00,52.465
994.00,52.452
995.00,52.449
996.00,52.430
997.00,52.416
998.00,52.383
999.00,52.412
1000.00,52.360
1001.00,52.351
1002.00,52.331
1003.00,52.342
1004.00,52.334
1005.00,52.308
1006.00,52.327
1007.00,52.306
1008.00,52.308
1009.00,52.277
1010.00,52.271
1011.00,52.310
1012.00,52.238
1013.00,52.238
1014.00,52.201
1015.00,52.208
1016.00,52.174
1017.00,52.160
1018.00,52.160
1019.00,52.124
1020.00,52.141
1021.00,52.126
1022.00,52.114
1023.00,52.089
1024.00,52.061
1025.00,52.041
1026.00,52.070
1027.00,52.011
1028.00,52.016
1029.00,52.009
1030.00,51.962
1031.00,51.973
1032.00,51.933
1033.00,51.939
1034.00,51.924
1035.00,51.876
1036.00,51.856
1037.00,51.856
1038.00,51.833
1039.00,51.801
1040.00,51.795
1041.00,51.765
1042.00,51.774
1043.00,51.739
1044.00,51.763
1045.00,51.743
1046.00,51.725
1047.00,51.763
1048.00,51.767
1049.00,51.775
1050.00,51.775
1051.00,51.818
1052.00,51.823
1053.00,51.829
1054.00,51.839
1055.00,51.852
1056.00,51.879
1057.00,51.874
1058.00,51.861
1059.00,51.859
1060.00,51.866
1061.00,51.853
1062.00,51.834
1063.00,51.837
1064.00,51.841
1065.00,51.820
1066.00,51.817
1067.00,51.807
1068.00,51.831
1069.00,51.792
1070.00,51.798
1071.00,51.770
1072.00,51.789
1073.00,51.760
1074.00,51.756
1075.00,51.745
1076.00,51.752
1077.00,51.735
1078.00,51.714
1079.00,51.712
1080.00,51.719
1081.00,51.711
1082.00,51.712
1083.00,51.713
1084.00,51.711
1085.00,51.725
1086.00,51.699
1087.00,51.703
1088.00,51.673
1089.00,51.674
1090.00,51.667
1091.00,51.673
1092.00,51.650
1093.00,51.637
1094.00,51.632
1095.00,51.618
1096.00,51.606
1097.00,51.620
1098.00,51.612
1099.00,51.605
1100.00,51.586
1101.00,51.582
1102.00,51.553
1103.00,51.562
1104.00,51.539
1105.00,51.528
1106.00,51.513
1107.00,51.520
1108.00,51.503
1109.00,51.504
1110.00,51.489
1111.00,51.482
1112.00,51.458
1113.00,51.457
1114.00,51.470
1115.00,51.469
1116.00,51.464
1117.00,51.459
1118.00,51.436
1119.00,51.444
1120.00,51.427
1121.00,51.427
1122.00,51.416
1123.00,51.414
1124.00,51.403
1125.00,51.416
1126.00,51.404
1127.00,51.401
1128.00,51.380
1129.00,51.373
1130.00,51.363
1131.00,51.371
1132.00,51.376
1133.00,51.359
1134.00,51.339
1135.00,51.322
1136.00,51.329
1137.00,51.338
1138.00,51.339
1139.00,51.340
1140.00,51.323
1141.00,51.334
1142.00,51.314
1143.00,51.341
1144.00,51.315
1145.00,51.310
1146.00,51.319
1147.00,51.309
1148.00,51.301
1149.00,51.320
1150.00,51.316
1151.00,51.309
1152.00,51.282
1153.00,51.290
1154.00,51.272
1155.00,51.295
1156.00,51.279
1157.00,51.290
1158.00,51.281
1159.00,51.273
1160.00,51.296
1161.00,51.288
1162.00,51.302
1163.00,51.302
1164.00,51.290
1165.00,51.288
1166.00,51.288
1167.00,51.261
1168.00,51.281
1169.00,51.274
1170.00,51.269
1171.00,51.258
1172.00,51.251
1173.00,51.243
1174.00,51.247
1175.00,51.246
1176.00,51.268
1177.00,51.255
1178.00,51.261
1179.00,51.268
1180.00,51.260
1181.00,51.274
1182.00,51.263
1183.00,51.269
1184.00,51.265
1185.00,51.273
1186.00,51.265
1187.00,51.258
1188.00,51.260
1189.00,51.243
1190.00,51.254
1191.00,51.252
1192.00,51.268
1193.00,51.257
1194.00,51.270
1195.00,51.258
1196.00,51.284
1197.00,51.285
1198.00,51.269
1199.00,51.264
1200.00,51.270
1201.00,51.286
1202.00,51.257
1203.00,51.250
1204.00,51.251
1205.00,51.256
1206.00,51.250
1207.00,51.258
1208.00,51.248
1209.00,51.267
1210.00,51.266
1211.00,51.261
1212.00,51.283
1213.00,51.238
1214.00,51.268
1215.00,51.241
1216.00,51.246
1217.00,51.252
1218.00,51.249
1219.00,51.253
1220.00,51.227
1221.00,51.283
1222.00,51.241
1223.00,51.294
1224.00,51.293
1225.00,51.251
1226.00,51.272
1227.00,51.266
1228.00,51.291
1229.00,51.278
1230.00,51.312
1231.00,51.284
1232.00,51.307
1233.00,51.302
1234.00,51.303
1235.00,51.310
1236.00,51.309
1237.00,51.309
1238.00,51.303
1239.00,51.338
1240.00,51.301
1241.00,51.311
1242.00,51.323
1243.00,51.314
1244.00,51.301
1245.00,51.319
1246.00,51.346
1247.00,51.329
1248.00,51.330
1249.00,51.349
1250.00,51.336
1251.00,51.345
1252.00,51.367
1253.00,51.355
1254.00,51.376
1255.00,51.334
1256.00,51.350
1257.00,51.339
1258.00,51.360
1259.00,51.355
1260.00,51.387
1261.00,51.396
1262.00,51.389
1263.00,51.388
1264.00,51.398
1265.00,51.411
1266.00,51.398
1267.00,51.411
1268.00,51.424
1269.00,51.413
1270.00,51.436
1271.00,51.428
1272.00,51.430
1273.00,51.438
1274.00,51.420
1275.00,51.446
1276.00,51.430
1277.00,51.435
1278.00,51.445
1279.00,51.466
1280.00,51.445
1281.00,51.470
1282.00,51.472
1283.00,51.456
1284.00,51.513
1285.00,51.473
1286.00,51.483
1287.00,51.481
1288.00,51.491
1289.00,51.486
1290.00,51.521
1291.00,51.509
1292.00,51.499
1293.00,51.510
1294.00,51.531
1295.00,51.547
1296.00,51.537
1297.00,51.561
1298.00,51.569
1299.00,51.552
1300.00,51.598
1301.00,51.566
1302.00,51.590
1303.00,51.599
1304.00,51.563
1305.00,51.587
1306.00,51.590
1307.00,51.604
1308.00,51.604
1309.00,51.611
1310.00,51.599
1311.00,51.577
1312.00,51.606
1313.00,51.617
1314.00,51.631
1315.00,51.642
1316.00,51.624
1317.00,51.660
1318.00,51.653
1319.00,51.670
1320.00,51.671
1321.00,51.843
1322.00,51.835
1323.00,51.826
1324.00,51.820
1325.00,51.793
1326.00,51.828
1327.00,51.792
1328.00,51.788
1329.00,51.781
1330.00,51.800
1331.00,51.793
1332.00,51.763
1333.00,51.880
1334.00,51.826
1335.00,51.846
1336.00,51.864
1337.00,51.900
1338.00,51.964
1339.00,52.013
1340.00,52.071
1341.00,52.139
1342.00,52.207
1343.00,52.254
1344.00,52.290
1345.00,52.354
1346.00,52.357
1347.00,52.417
1348.00,52.422
1349.00,52.431
1350.00,52.462
1351.00,52.482
1352.00,52.494
1353.00,52.518
1354.00,52.502
1355.00,52.440
1356.00,52.557
1357.00,52.530
1358.00,52.489
1359.00,52.589
1360.00,52.871
1361.00,52.588
1362.00,52.535
1363.00,52.580
1364.00,52.617
1365.00,52.522
1366.00,52.562
1367.00,52.518
1368.00,52.540
1369.00,52.536
1370.00,52.521
1371.00,52.451
1372.00,52.491
1373.00,52.499
1374.00,52.532
1375.00,52.509
1376.00,52.510
1377.00,52.473
1378.00,52.507
1379.00,52.477
1380.00,52.530
1381.00,52.489
1382.00,52.546
1383.00,52.544
1384.00,52.459
1385.00,52.588
1386.00,52.525
1387.00,52.474
1388.00,52.444
1389.00,52.515
1390.00,52.576
1391.00,52.458
1392.00,52.459
1393.00,52.371
1394.00,52.497
1395.00,52.532
1396.00,52.437
1397.00,52.426
1398.00,52.449
1399.00,52.417
1400.00,52.507
1401.00,52.468
1402.00,52.471
1403.00,52.478
1404.00,52.494
1405.00,52.536
1406.00,52.561
1407.00,52.299
1408.00,52.587
1409.00,52.503
1410.00,52.549
1411.00,52.501
1412.00,52.597
1413.00,52.499
1414.00,52.518
1415.00,52.550
1416.00,52.582
1417.00,52.604
1418.00,52.565
1419.00,52.616
1420.00,52.630
1421.00,52.639
1422.00,52.637
1423.00,52.686
1424.00,52.664
1425.00,52.693
1426.00,52.678
1427.00,52.731
1428.00,52.706
1429.00,52.711
1430.00,52.737
1431.00,52.769
1432.00,52.757
1433.00,52.791
1434.00,52.767
1435.00,52.823
1436.00,52.849
1437.00,52.809
1438.00,52.826
1439.00,52.851
1440.00,52.857
1441.00,52.878
1442.00,52.880
1443.00,52.895
1444.00,52.965
1445.00,52.904
1446.00,52.951
1447.00,52.958
1448.00,53.014
1449.00,52.988
1450.00,53.009
1451.00,53.003
1452.00,53.022
1453.00,53.031
1454.00,53.052
1455.00,53.068
1456.00,53.085
1457.00,53.073
1458.00,53.103
1459.00,53.118
1460.00,53.140
1461.00,53.163
1462.00,53.187
1463.00,53.167
1464.00,53.227
1465.00,53.201
1466.00,53.205
1467.00,53.227
1468.00,53.293
1469.00,53.256
1470.00,53.265
1471.00,53.282
1472.00,53.269
1473.00,53.280
1474.00,53.321
1475.00,53.348
1476.00,53.349
1477.00,53.329
1478.00,53.356
1479.00,53.373
1480.00,53.371
1481.00,53.359
1482.00,53.401
1483.00,53.404
1484.00,53.428
1485.00,53.418
1486.00,53.437
1487.00,53.452
1488.00,53.474
1489.00,53.449
1490.00,53.467
1491.00,53.474
1492.00,53.490
1493.00,53.471
1494.00,53.532
1495.00,53.508
1496.00,53.551
1497.00,53.546
1498.00,53.555
1499.00,53.569
1500.00,53.578
1501.00, 
1502.00, 
1503.00, 
1504.00, 
1505.00, 
1506.00, 
1507.00, 
1508.00, 
1509.00, 
1510.00, 
1511.00, 
1512.00, 
1513.00, 
1514.00, 
1515.00, 
1516.00, 
1517.00, 
1518.00, 
1519.00, 
1520.00, 
1521.00, 
1522.00, 
1523.00, 
1524.00, 
1525.00, 
1526.00, 
1527.00, 
1528.00, 
1529.00, 
1530.00, 
1531.00, 
1532.00, 
1533.00, 
1534.00, 
1535.00, 
1536.00, 
1537.00, 
1538.00, 
1539.00, 
1540.00, 
1541.00, 
1542.00, 
1543.00, 
1544.00, 
1545.00, 
1546.00, 
1547.00, 
1548.00, 
1549.00, 
1550.00, 
1551.00, 
1552.00, 
1553.00, 
1554.00, 
1555.00, 
1556.00, 
1557.00, 
1558.00, 
1559.00, 
1560.00, 
1561.00, 
1562.00, 
1563.00, 
1564.00, 
1565.00, 
1566.00, 
1567.00, 
1568.00, 
1569.00, 
1570.00, 
1571.00, 
1572.00, 
1573.00, 
1574.00, 
1575.00, 
1576.00, 
1577.00, 
1578.00, 
1579.00, 
1580.00, 
1581.00, 
1582.00, 
1583.00, 
1584.00, 
1585.00, 
1586.00, 
1587.00, 
1588.00, 
1589.00, 
1590.00, 
1591.00, 
1592.00, 
1593.00, 
1594.00, 
1595.00, 
1596.00, 
1597.00, 
1598.00, 
1599.00, 
1600.00, 
1601.00, 
1602.00, 
1603.00, 
1604.00, 
1605.00, 
1606.00, 
1607.00, 
1608.00, 
1609.00, 
1610.00, 
1611.00, 
1612.00, 
1613.00, 
1614.00, 
1615.00, 
1616.00, 
1617.00, 
1618.00, 
1619.00, 
1620.00, 
1621.00, 
1622.00, 
1623.00, 
1624.00, 
1625.00, 
1626.00, 
1627.00, 
1628.00, 
1629.00, 
1630.00, 
1631.00, 
1632.00, 
1633.00, 
1634.00, 
1635.00, 
1636.00, 
1637.00, 
1638.00, 
1639.00, 
1640.00, 
1641.00, 
1642.00, 
1643.00, 
1644.00, 
1645.00, 
1646.00, 
1647.00, 
1648.00, 
1649.00, 
1650.00, 
1651.00, 
1652.00, 
1653.00, 
1654.00, 
1655.00, 
1656.00, 
1657.00, 
1658.00, 
1659.00, 
1660.00, 
1661.00, 
1662.00, 
1663.00, 
1664.00, 
1665.00, 
1666.00, 
1667.00, 
1668.00, 
1669.00, 
1670.00, 
1671.00, 
1672.00, 
1673.00, 
1674.00, 
1675.00, 
1676.00, 
1677.00, 
1678.00, 
1679.00, 
1680.00, 
1681.00, 
1682.00, 
1683.00, 
1684.00, 
1685.00, 
1686.00, 
1687.00, 
1688.00, 
1689.00, 
1690.00, 
1691.00, 
1692.00, 
1693.00, 
1694.00, 
1695.00, 
1696.00, 
1697.00, 
1698.00, 
1699.00, 
1700.00, 
1701.00, 
1702.00, 
1703.00, 
1704.00, 
1705.00, 
1706.00, 
1707.00, 
1708.00, 
1709.00, 
1710.00, 
1711.00, 
1712.00, 
1713.00, 
1714.00, 
1715.00, 
1716.00, 
1717.00, 
1718.00, 
1719.00, 
1720.00, 
1721.00, 
1722.00, 
1723.00, 
1724.00, 
1725.00, 
1726.00, 
1727.00, 
1728.00, 
1729.00, 
1730.00, 
1731.00, 
1732.00, 
1733.00, 
1734.00, 
1735.00, 
1736.00, 
1737.00, 
1738.00, 
1739.00, 
1740.00, 
1741.00, 
1742.00, 
1743.00, 
1744.00, 
1745.00, 
1746.00, 
1747.00, 
1748.00, 
1749.00, 
1750.00, 
1751.00, 
1752.00, 
1753.00, 
1754.00, 
1755.00, 
1756.00, 
1757.00, 
1758.00, 
1759.00, 
1760.00, 
1761.00, 
1762.00, 
1763.00, 
1764.00, 
1765.00, 
1766.00, 
1767.00, 
1768.00, 
1769.00, 
1770.00, 
1771.00, 
1772.00, 
1773.00, 
1774.00, 
1775.00, 
1776.00, 
1777.00, 
1778.00, 
1779.00, 
1780.00, 
1781.00, 
1782.00, 
1783.00, 
1784.00, 
1785.00, 
1786.00, 
1787.00, 
1788.00, 
1789.00, 
1790.00, 
1791.00, 
1792.00, 
1793.00, 
1794.00, 
1795.00, 
1796.00, 
1797.00, 
1798.00, 
1799.00, 
1800.00, 
1801.00, 
1802.00, 
1803.00, 
1804.00, 
1805.00, 
1806.00, 
1807.00, 
1808.00, 
1809.00, 
1810.00, 
1811.00, 
1812.00, 
1813.00, 
1814.00, 
1815.00, 
1816.00, 
1817.00, 
1818.00, 
1819.00, 
1820.00, 
1821.00, 
1822.00, 
1823.00, 
1824.00, 
1825.00, 
1826.00, 
1827.00, 
1828.00, 
1829.00, 
1830.00, 
1831.00, 
1832.00, 
1833.00, 
1834.00, 
1835.00, 
1836.00, 
1837.00, 
1838.00, 
1839.00, 
1840.00, 
1841.00, 
1842.00, 
1843.00, 
1844.00, 
1845.00, 
1846.00, 
1847.00, 
1848.00, 
1849.00, 
1850.00, 
1851.00, 
1852.00, 
1853.00, 
1854.00, 
1855.00, 
1856.00, 
1857.00, 
1858.00, 
1859.00, 
1860.00, 
1861.00, 
1862.00, 
1863.00, 
1864.00, 
1865.00, 
1866.00, 
1867.00, 
1868.00, 
1869.00, 
1870.00, 
1871.00, 
1872.00, 
1873.00, 
1874.00, 
1875.00, 
1876.00, 
1877.00, 
1878.00, 
1879.00, 
1880.00, 
1881.00, 
1882.00, 
1883.00, 
1884.00, 
1885.00, 
1886.00, 
1887.00, 
1888.00, 
1889.00, 
1890.00, 
1891.00, 
1892.00, 
1893.00, 
1894.00, 
1895.00, 
1896.00, 
1897.00, 
1898.00, 
1899.00, 
1900.00, 
1901.00, 
1902.00, 
1903.00, 
1904.00, 
1905.00, 
1906.00, 
1907.00, 
1908.00, 
1909.00, 
1910.00, 
1911.00, 
1912.00, 
1913.00, 
1914.00, 
1915.00, 
1916.00, 
1917.00, 
1918.00, 
1919.00, 
1920.00, 
1921.00, 
1922.00, 
1923.00, 
1924.00, 
1925.00, 
1926.00, 
1927.00, 
1928.00, 
1929.00, 
1930.00, 
1931.00, 
1932.00, 
1933.00, 
1934.00, 
1935.00, 
1936.00, 
1937.00, 
1938.00, 
1939.00, 
1940.00, 
1941.00, 
1942.00, 
1943.00, 
1944.00, 
1945.00, 
1946.00, 
1947.00, 
1948.00, 
1949.00, 
1950.00, 
1951.00, 
1952.00, 
1953.00, 
1954.00, 
1955.00, 
1956.00, 
1957.00, 
1958.00, 
1959.00, 
1960.00, 
1961.00, 
1962.00, 
1963.00, 
1964.00, 
1965.00, 
1966.00, 
1967.00, 
1968.00, 
1969.00, 
1970.00, 
1971.00, 
1972.00, 
1973.00, 
1974.00, 
1975.00, 
1976.00, 
1977.00, 
1978.00, 
1979.00, 
1980.00, 
1981.00, 
1982.00, 
1983.00, 
1984.00, 
1985.00, 
1986.00, 
1987.00, 
1988.00, 
1989.00, 
1990.00, 
1991.00, 
1992.00, 
1993.00, 
1994.00, 
1995.00, 
1996.00, 
1997.00, 
1998.00, 
1999.00, 
2000.00, 
2001.00, 
2002.00, 
2003.00, 
2004.00, 
2005.00, 
2006.00, 
2007.00, 
2008.00, 
2009.00, 
2010.00, 
2011.00, 
2012.00, 
2013.00, 
2014.00, 
2015.00, 
2016.00, 
2017.00, 
2018.00, 
2019.00, 
2020.00, 
2021.00, 
2022.00, 
2023.00, 
2024.00, 
2025.00, 
2026.00, 
2027.00, 
2028.00, 
2029.00, 
2030.00, 
2031.00, 
2032.00, 
2033.00, 
2034.00, 
2035.00, 
2036.00, 
2037.00, 
2038.00, 
2039.00, 
2040.00, 
2041.00, 
2042.00, 
2043.00, 
2044.00, 
2045.00, 
2046.00, 
2047.00, 
2048.00, 
2049.00, 
2050.00, 
2051.00, 
2052.00, 
2053.00, 
2054.00, 
2055.00, 
2056.00, 
2057.00, 
2058.00, 
2059.00, 
2060.00, 
2061.00, 
2062.00, 
2063.00, 
2064.00, 
2065.00, 
2066.00, 
2067.00, 
2068.00, 
2069.00, 
2070.00, 
2071.00, 
2072.00, 
2073.00, 
2074.00, 
2075.00, 
2076.00, 
2077.00, 
2078.00, 
2079.00, 
2080.00, 
2081.00, 
2082.00, 
2083.00, 
2084.00, 
2085.00, 
2086.00, 
2087.00, 
2088.00, 
2089.00, 
2090.00, 
2091.00, 
2092.00, 
2093.00, 
2094.00, 
2095.00, 
2096.00, 
2097.00, 
2098.00, 
2099.00, 
2100.00, 
2101.00, 
2102.00, 
2103.00, 
2104.00, 
2105.00, 
2106.00, 
2107.00, 
2108.00, 
2109.00, 
2110.00, 
2111.00, 
2112.00, 
2113.00, 
2114.00, 
2115.00, 
2116.00, 
2117.00, 
2118.00, 
2119.00, 
2120.00, 
2121.00, 
2122.00, 
2123.00, 
2124.00, 
2125.00, 
2126.00, 
2127.00, 
2128.00, 
2129.00, 
2130.00, 
2131.00, 
2132.00, 
2133.00, 
2134.00, 
2135.00, 
2136.00, 
2137.00, 
2138.00, 
2139.00, 
2140.00, 
2141.00, 
2142.00, 
2143.00, 
2144.00, 
2145.00, 
2146.00, 
2147.00, 
2148.00, 
2149.00, 
2150.00, 
2151.00, 
2152.00, 
2153.00, 
2154.00, 
2155.00, 
2156.00, 
2157.00, 
2158.00, 
2159.00, 
2160.00, 
2161.00, 
2162.00, 
2163.00, 
2164.00, 
2165.00, 
2166.00, 
2167.00, 
2168.00, 
2169.00, 
2170.00, 
2171.00, 
2172.00, 
2173.00, 
2174.00, 
2175.00, 
2176.00, 
2177.00, 
2178.00, 
2179.00, 
2180.00, 
2181.00, 
2182.00, 
2183.00, 
2184.00, 
2185.00, 
2186.00, 
2187.00, 
2188.00, 
2189.00, 
2190.00, 
2191.00, 
2192.00, 
2193.00, 
2194.00, 
2195.00, 
2196.00, 
2197.00, 
2198.00, 
2199.00, 
2200.00, 
2201.00, 
2202.00, 
2203.00, 
2204.00, 
2205.00, 
2206.00, 
2207.00, 
2208.00, 
2209.00, 
2210.00, 
2211.00, 
2212.00, 
2213.00, 
2214.00, 
2215.00, 
2216.00, 
2217.00, 
2218.00, 
2219.00, 
2220.00, 
2221.00, 
2222.00, 
2223.00, 
2224.00, 
2225.00, 
2226.00, 
2227.00, 
2228.00, 
2229.00, 
2230.00, 
2231.00, 
2232.00, 
2233.00, 
2234.00, 
2235.00, 
2236.00, 
2237.00, 
2238.00, 
2239.00, 
2240.00, 
2241.00, 
2242.00, 
2243.00, 
2244.00, 
2245.00, 
2246.00, 
2247.00, 
2248.00, 
2249.00, 
2250.00, 
2251.00, 
2252.00, 
2253.00, 
2254.00, 
2255.00, 
2256.00, 
2257.00, 
2258.00, 
2259.00, 
2260.00, 
2261.00, 
2262.00, 
2263.00, 
2264.00, 
2265.00, 
2266.00, 
2267.00, 
2268.00, 
2269.00, 
2270.00, 
2271.00, 
2272.00, 
2273.00, 
2274.00, 
2275.00, 
2276.00, 
2277.00, 
2278.00, 
2279.00, 
2280.00, 
2281.00, 
2282.00, 
2283.00, 
2284.00, 
2285.00, 
2286.00, 
2287.00, 
2288.00, 
2289.00, 
2290.00, 
2291.00, 
2292.00, 
2293.00, 
2294.00, 
2295.00, 
2296.00, 
2297.00, 
2298.00, 
2299.00, 
2300.00, 
2301.00, 
2302.00, 
2303.00, 
2304.00, 
2305.00, 
2306.00, 
2307.00, 
2308.00, 
2309.00, 
2310.00, 
2311.00, 
2312.00, 
2313.00, 
2314.00, 
2315.00, 
2316.00, 
2317.00, 
2318.00, 
2319.00, 
2320.00, 
2321.00, 
2322.00, 
2323.00, 
2324.00, 
2325.00, 
2326.00, 
2327.00, 
2328.00, 
2329.00, 
2330.00, 
2331.00, 
2332.00, 
2333.00, 
2334.00, 
2335.00, 
2336.00, 
2337.00, 
2338.00, 
2339.00, 
2340.00, 
2341.00, 
2342.00, 
2343.00, 
2344.00, 
2345.00, 
2346.00, 
2347.00, 
2348.00, 
2349.00, 
2350.00, 
2351.00, 
2352.00, 
2353.00, 
2354.00, 
2355.00, 
2356.00, 
2357.00, 
2358.00, 
2359.00, 
2360.00, 
2361.00, 
2362.00, 
2363.00, 
2364.00, 
2365.00, 
2366.00, 
2367.00, 
2368.00, 
2369.00, 
2370.00, 
2371.00, 
2372.00, 
2373.00, 
2374.00, 
2375.00, 
2376.00, 
2377.00, 
2378.00, 
2379.00, 
2380.00, 
2381.00, 
2382.00, 
2383.00, 
2384.00, 
2385.00, 
2386.00, 
2387.00, 
2388.00, 
2389.00, 
2390.00, 
2391.00, 
2392.00, 
2393.00, 
2394.00, 
2395.00, 
2396.00, 
2397.00, 
2398.00, 
2399.00, 
2400.00, 
2401.00, 
2402.00, 
2403.00, 
2404.00, 
2405.00, 
2406.00, 
2407.00, 
2408.00, 
2409.00, 
2410.00, 
2411.00, 
2412.00, 
2413.00, 
2414.00, 
2415.00, 
2416.00, 
2417.00, 
2418.00, 
2419.00, 
2420.00, 
2421.00, 
2422.00, 
2423.00, 
2424.00, 
2425.00, 
2426.00, 
2427.00, 
2428.00, 
2429.00, 
2430.00, 
2431.00, 
2432.00, 
2433.00, 
2434.00, 
2435.00, 
2436.00, 
2437.00, 
2438.00, 
2439.00, 
2440.00, 
2441.00, 
2442.00, 
2443.00, 
2444.00, 
2445.00, 
2446.00, 
2447.00, 
2448.00, 
2449.00, 
2450.00, 
2451.00, 
2452.00, 
2453.00, 
2454.00, 
2455.00, 
2456.00, 
2457.00, 
2458.00, 
2459.00, 
2460.00, 
2461.00, 
2462.00, 
2463.00, 
2464.00, 
2465.00, 
2466.00, 
2467.00, 
2468.00, 
2469.00, 
2470.00, 
2471.00, 
2472.00, 
2473.00, 
2474.00, 
2475.00, 
2476.00, 
2477.00, 
2478.00, 
2479.00, 
2480.00, 
2481.00, 
2482.00, 
2483.00, 
2484.00, 
2485.00, 
2486.00, 
2487.00, 
2488.00, 
2489.00, 
2490.00, 
2491.00, 
2492.00, 
2493.00, 
2494.00, 
2495.00, 
2496.00, 
2497.00, 
2498.00, 
2499.00, 
2500.00, 
2501.00, 
2502.00, 
2503.00, 
2504.00, 
2505.00, 
2506.00, 
2507.00, 
2508.00, 
2509.00, 
2510.00, 
2511.00, 
2512.00, 
2513.00, 
2514.00, 
2515.00, 
2516.00, 
2517.00, 
2518.00, 
2519.00, 
2520.00, 
2521.00, 
2522.00, 
2523.00, 
2524.00, 
2525.00, 
2526.00, 
2527.00, 
2528.00, 
2529.00, 
2530.00, 
2531.00, 
2532.00, 
2533.00, 
2534.00, 
2535.00, 
2536.00, 
2537.00, 
2538.00, 
2539.00, 
2540.00, 
2541.00, 
2542.00, 
2543.00, 
2544.00, 
2545.00, 
2546.00, 
2547.00, 
2548.00, 
2549.00, 
2550.00, 
2551.00, 
2552.00, 
2553.00, 
2554.00, 
2555.00, 
2556.00, 
2557.00, 
2558.00, 
2559.00, 
2560.00, 
2561.00, 
2562.00, 
2563.00, 
2564.00, 
2565.00, 
2566.00, 
2567.00, 
2568.00, 
2569.00, 
2570.00, 
2571.00, 
2572.00, 
2573.00, 
2574.00, 
2575.00, 
2576.00, 
2577.00, 
2578.00, 
2579.00, 
2580.00, 
2581.00, 
2582.00, 
2583.00, 
2584.00, 
2585.00, 
2586.00, 
2587.00, 
2588.00, 
2589.00, 
2590.00, 
2591.00, 
2592.00, 
2593.00, 
2594.00, 
2595.00, 
2596.00, 
2597.00, 
2598.00, 
2599.00, 
2600.00, 
