"2aP2 - RawData"
"Wavelength nm.","T%"
200.00,0.002
201.00,0.004
202.00,0.002
203.00,0.002
204.00,0.001
205.00,0.001
206.00,0.002
207.00,0.001
208.00,0.002
209.00,0.001
210.00,0.003
211.00,0.001
212.00,0.000
213.00,-0.001
214.00,0.000
215.00,-0.000
216.00,0.003
217.00,-0.005
218.00,0.003
219.00,0.002
220.00,0.001
221.00,0.000
222.00,0.002
223.00,0.001
224.00,0.005
225.00,0.003
226.00,0.001
227.00,-0.001
228.00,0.002
229.00,0.002
230.00,0.000
231.00,0.003
232.00,0.001
233.00,0.002
234.00,0.002
235.00,0.004
236.00,0.002
237.00,0.003
238.00,0.002
239.00,0.001
240.00,0.000
241.00,0.000
242.00,0.002
243.00,0.000
244.00,-0.001
245.00,0.002
246.00,-0.000
247.00,0.002
248.00,0.001
249.00,0.002
250.00,0.001
251.00,0.001
252.00,0.001
253.00,0.003
254.00,0.002
255.00,0.002
256.00,-0.000
257.00,-0.001
258.00,0.001
259.00,0.000
260.00,-0.001
261.00,0.002
262.00,0.002
263.00,0.001
264.00,0.002
265.00,-0.000
266.00,-0.002
267.00,0.002
268.00,-0.001
269.00,-0.001
270.00,0.001
271.00,0.000
272.00,0.000
273.00,0.002
274.00,-0.000
275.00,-0.001
276.00,0.001
277.00,0.001
278.00,-0.000
279.00,-0.001
280.00,-0.000
281.00,-0.000
282.00,0.001
283.00,0.001
284.00,-0.000
285.00,-0.002
286.00,0.000
287.00,-0.001
288.00,-0.000
289.00,0.001
290.00,0.001
291.00,0.001
292.00,0.001
293.00,0.001
294.00,-0.000
295.00,-0.001
296.00,-0.000
297.00,0.002
298.00,-0.002
299.00,0.001
300.00,0.002
301.00,0.003
302.00,0.002
303.00,0.007
304.00,0.010
305.00,0.017
306.00,0.024
307.00,0.035
308.00,0.054
309.00,0.084
310.00,0.117
311.00,0.163
312.00,0.221
313.00,0.301
314.00,0.398
315.00,0.511
316.00,0.655
317.00,0.796
318.00,1.011
319.00,1.243
320.00,1.513
321.00,1.820
322.00,2.149
323.00,2.529
324.00,2.918
325.00,3.304
326.00,3.733
327.00,4.225
328.00,4.711
329.00,5.197
330.00,5.740
331.00,6.250
332.00,6.795
333.00,7.373
334.00,7.807
335.00,8.432
336.00,8.993
337.00,9.557
338.00,10.095
339.00,10.578
340.00,11.103
341.00,11.587
342.00,12.062
343.00,12.461
344.00,12.889
345.00,13.340
346.00,13.709
347.00,14.096
348.00,14.471
349.00,14.733
350.00,15.060
351.00,15.320
352.00,15.552
353.00,15.811
354.00,16.046
355.00,16.291
356.00,16.478
357.00,16.655
358.00,16.835
359.00,17.031
360.00,17.186
361.00,17.272
362.00,17.381
363.00,17.553
364.00,17.556
365.00,17.660
366.00,17.699
367.00,17.781
368.00,17.791
369.00,17.854
370.00,17.913
371.00,17.892
372.00,17.877
373.00,17.891
374.00,17.906
375.00,17.899
376.00,17.807
377.00,17.769
378.00,17.719
379.00,17.629
380.00,17.633
381.00,17.587
382.00,17.601
383.00,17.613
384.00,17.575
385.00,17.615
386.00,17.582
387.00,17.642
388.00,17.675
389.00,17.665
390.00,17.715
391.00,17.683
392.00,17.690
393.00,17.711
394.00,17.730
395.00,17.716
396.00,17.698
397.00,17.718
398.00,17.714
399.00,17.689
400.00,17.681
401.00,17.682
402.00,17.664
403.00,17.677
404.00,17.656
405.00,17.646
406.00,17.643
407.00,17.607
408.00,17.606
409.00,17.558
410.00,17.542
411.00,17.533
412.00,17.506
413.00,17.502
414.00,17.514
415.00,17.513
416.00,17.565
417.00,17.567
418.00,17.568
419.00,17.660
420.00,17.679
421.00,17.733
422.00,17.750
423.00,17.799
424.00,17.805
425.00,17.838
426.00,17.827
427.00,17.915
428.00,17.957
429.00,18.014
430.00,18.058
431.00,18.133
432.00,18.168
433.00,18.211
434.00,18.298
435.00,18.351
436.00,18.424
437.00,18.500
438.00,18.543
439.00,18.639
440.00,18.712
441.00,18.789
442.00,18.873
443.00,18.947
444.00,19.044
445.00,19.107
446.00,19.249
447.00,19.313
448.00,19.424
449.00,19.526
450.00,19.630
451.00,19.735
452.00,19.816
453.00,19.949
454.00,20.057
455.00,20.183
456.00,20.286
457.00,20.414
458.00,20.506
459.00,20.626
460.00,20.771
461.00,20.914
462.00,21.031
463.00,21.170
464.00,21.284
465.00,21.417
466.00,21.550
467.00,21.717
468.00,21.828
469.00,21.945
470.00,22.067
471.00,22.130
472.00,22.263
473.00,22.377
474.00,22.498
475.00,22.631
476.00,22.768
477.00,22.890
478.00,23.035
479.00,23.209
480.00,23.343
481.00,23.490
482.00,23.643
483.00,23.771
484.00,23.961
485.00,24.111
486.00,24.283
487.00,24.422
488.00,24.547
489.00,24.732
490.00,24.875
491.00,25.030
492.00,25.259
493.00,25.400
494.00,25.438
495.00,25.593
496.00,25.749
497.00,25.882
498.00,25.994
499.00,26.127
500.00,26.288
501.00,26.344
502.00,26.574
503.00,26.705
504.00,26.784
505.00,26.922
506.00,27.069
507.00,27.185
508.00,27.314
509.00,27.499
510.00,27.637
511.00,27.719
512.00,27.885
513.00,28.056
514.00,28.164
515.00,28.302
516.00,28.408
517.00,28.531
518.00,28.679
519.00,28.752
520.00,28.808
521.00,28.932
522.00,29.065
523.00,29.094
524.00,29.194
525.00,29.315
526.00,29.439
527.00,29.526
528.00,29.614
529.00,29.735
530.00,29.903
531.00,30.057
532.00,30.143
533.00,30.254
534.00,30.303
535.00,30.431
536.00,30.476
537.00,30.618
538.00,30.677
539.00,30.789
540.00,30.791
541.00,30.836
542.00,30.942
543.00,31.002
544.00,31.104
545.00,31.195
546.00,31.225
547.00,31.349
548.00,31.441
549.00,31.469
550.00,31.603
551.00,31.681
552.00,31.742
553.00,31.816
554.00,31.890
555.00,31.941
556.00,32.033
557.00,32.069
558.00,32.148
559.00,32.203
560.00,32.278
561.00,32.328
562.00,32.410
563.00,32.454
564.00,32.497
565.00,32.524
566.00,32.527
567.00,32.610
568.00,32.675
569.00,32.683
570.00,32.774
571.00,32.838
572.00,32.806
573.00,32.809
574.00,32.898
575.00,32.887
576.00,32.967
577.00,33.040
578.00,33.118
579.00,33.185
580.00,33.253
581.00,33.377
582.00,33.453
583.00,33.496
584.00,33.552
585.00,33.644
586.00,33.768
587.00,33.801
588.00,33.718
589.00,33.709
590.00,33.845
591.00,33.890
592.00,33.882
593.00,33.949
594.00,33.976
595.00,34.113
596.00,34.169
597.00,34.253
598.00,34.331
599.00,34.307
600.00,34.432
601.00,34.406
602.00,34.378
603.00,34.465
604.00,34.551
605.00,34.614
606.00,34.686
607.00,34.722
608.00,34.874
609.00,34.982
610.00,34.841
611.00,34.888
612.00,34.982
613.00,35.057
614.00,35.090
615.00,35.178
616.00,35.340
617.00,35.273
618.00,35.351
619.00,35.453
620.00,35.439
621.00,35.520
622.00,35.633
623.00,35.690
624.00,35.765
625.00,35.846
626.00,35.872
627.00,35.977
628.00,36.014
629.00,36.053
630.00,36.125
631.00,36.237
632.00,36.332
633.00,36.451
634.00,36.512
635.00,36.639
636.00,36.685
637.00,36.744
638.00,36.830
639.00,36.961
640.00,37.008
641.00,37.051
642.00,37.139
643.00,37.273
644.00,37.327
645.00,37.446
646.00,37.609
647.00,37.730
648.00,37.790
649.00,37.776
650.00,37.916
651.00,38.092
652.00,38.204
653.00,38.169
654.00,38.293
655.00,38.513
656.00,38.749
657.00,38.718
658.00,38.768
659.00,38.869
660.00,38.906
661.00,39.005
662.00,39.095
663.00,39.296
664.00,39.490
665.00,39.728
666.00,39.736
667.00,39.838
668.00,39.837
669.00,40.087
670.00,40.338
671.00,40.071
672.00,40.455
673.00,40.745
674.00,40.590
675.00,40.723
676.00,40.928
677.00,41.098
678.00,41.002
679.00,41.175
680.00,41.390
681.00,41.544
682.00,41.606
683.00,41.563
684.00,41.695
685.00,41.898
686.00,41.870
687.00,42.047
688.00,42.167
689.00,42.198
690.00,42.486
691.00,42.767
692.00,42.620
693.00,42.618
694.00,42.871
695.00,43.070
696.00,43.111
697.00,43.114
698.00,43.213
699.00,43.476
700.00,43.599
701.00,43.603
702.00,43.826
703.00,43.993
704.00,44.055
705.00,44.047
706.00,44.198
707.00,44.307
708.00,44.242
709.00,44.602
710.00,45.038
711.00,44.637
712.00,44.817
713.00,44.912
714.00,44.996
715.00,45.020
716.00,45.060
717.00,45.327
718.00,45.430
719.00,45.522
720.00,45.604
721.00,49.950
722.00,49.970
723.00,50.072
724.00,50.151
725.00,50.170
726.00,50.265
727.00,50.304
728.00,50.296
729.00,50.329
730.00,50.433
731.00,50.439
732.00,50.485
733.00,50.631
734.00,50.669
735.00,50.710
736.00,50.800
737.00,50.887
738.00,50.874
739.00,50.949
740.00,51.053
741.00,51.092
742.00,51.112
743.00,51.163
744.00,51.169
745.00,51.244
746.00,51.244
747.00,51.325
748.00,51.300
749.00,51.324
750.00,51.413
751.00,51.327
752.00,51.316
753.00,51.410
754.00,51.458
755.00,51.459
756.00,51.507
757.00,51.585
758.00,51.596
759.00,51.637
760.00,51.615
761.00,51.673
762.00,51.711
763.00,51.771
764.00,51.736
765.00,51.850
766.00,51.818
767.00,51.891
768.00,51.882
769.00,51.895
770.00,51.990
771.00,51.992
772.00,52.070
773.00,52.056
774.00,52.083
775.00,52.056
776.00,52.151
777.00,52.181
778.00,52.112
779.00,52.223
780.00,52.128
781.00,52.156
782.00,52.225
783.00,52.160
784.00,52.262
785.00,52.171
786.00,52.283
787.00,52.289
788.00,52.279
789.00,52.297
790.00,52.192
791.00,52.330
792.00,52.268
793.00,52.278
794.00,52.276
795.00,52.276
796.00,52.284
797.00,52.203
798.00,52.309
799.00,52.306
800.00,52.229
801.00,52.266
802.00,52.335
803.00,52.281
804.00,52.199
805.00,52.286
806.00,52.194
807.00,52.295
808.00,52.266
809.00,52.243
810.00,52.206
811.00,52.274
812.00,52.286
813.00,52.186
814.00,52.212
815.00,52.210
816.00,52.203
817.00,52.200
818.00,52.172
819.00,52.170
820.00,52.114
821.00,52.120
822.00,52.152
823.00,52.171
824.00,52.174
825.00,52.002
826.00,52.205
827.00,52.199
828.00,52.111
829.00,52.040
830.00,52.138
831.00,54.333
832.00,54.315
833.00,54.234
834.00,54.310
835.00,54.237
836.00,54.279
837.00,54.182
838.00,54.184
839.00,54.225
840.00,54.175
841.00,54.176
842.00,54.155
843.00,54.199
844.00,54.165
845.00,54.137
846.00,54.163
847.00,54.095
848.00,54.132
849.00,54.050
850.00,54.043
851.00,53.942
852.00,54.015
853.00,53.931
854.00,53.922
855.00,53.843
856.00,53.896
857.00,53.888
858.00,53.816
859.00,53.812
860.00,53.825
861.00,53.860
862.00,53.775
863.00,53.841
864.00,53.739
865.00,53.787
866.00,53.777
867.00,53.795
868.00,53.765
869.00,53.723
870.00,53.742
871.00,53.718
872.00,53.732
873.00,53.710
874.00,53.736
875.00,53.612
876.00,53.836
877.00,53.677
878.00,53.727
879.00,53.681
880.00,53.700
881.00,53.640
882.00,53.687
883.00,53.610
884.00,53.607
885.00,53.564
886.00,53.556
887.00,53.545
888.00,53.530
889.00,53.528
890.00,53.503
891.00,53.462
892.00,53.489
893.00,53.434
894.00,53.439
895.00,53.430
896.00,53.393
897.00,53.378
898.00,53.342
899.00,53.359
900.00,53.333
901.00,53.321
902.00,53.366
903.00,53.335
904.00,53.286
905.00,53.275
906.00,53.288
907.00,53.238
908.00,53.205
909.00,53.220
910.00,53.185
911.00,53.180
912.00,53.181
913.00,53.133
914.00,53.097
915.00,53.096
916.00,53.095
917.00,53.043
918.00,53.060
919.00,53.049
920.00,52.979
921.00,53.003
922.00,52.993
923.00,52.955
924.00,52.902
925.00,52.925
926.00,52.879
927.00,52.899
928.00,52.863
929.00,52.862
930.00,52.754
931.00,52.889
932.00,52.809
933.00,52.815
934.00,52.775
935.00,52.763
936.00,52.708
937.00,52.719
938.00,52.691
939.00,52.695
940.00,52.653
941.00,52.654
942.00,52.639
943.00,52.621
944.00,52.584
945.00,52.580
946.00,52.712
947.00,52.546
948.00,52.531
949.00,52.515
950.00,52.486
951.00,52.474
952.00,52.452
953.00,52.408
954.00,52.421
955.00,52.353
956.00,52.350
957.00,52.292
958.00,52.322
959.00,52.209
960.00,52.282
961.00,52.250
962.00,52.257
963.00,52.224
964.00,52.201
965.00,52.198
966.00,52.181
967.00,52.179
968.00,52.130
969.00,52.174
970.00,52.147
971.00,52.173
972.00,52.125
973.00,52.177
974.00,52.194
975.00,52.143
976.00,52.175
977.00,52.138
978.00,52.195
979.00,52.158
980.00,52.172
981.00,52.164
982.00,52.121
983.00,52.130
984.00,52.114
985.00,52.139
986.00,52.090
987.00,52.121
988.00,52.111
989.00,52.134
990.00,52.102
991.00,52.067
992.00,52.105
993.00,52.045
994.00,52.040
995.00,52.035
996.00,52.016
997.00,52.000
998.00,51.982
999.00,52.003
1000.00,51.944
1001.00,51.947
1002.00,51.925
1003.00,51.936
1004.00,51.926
1005.00,51.893
1006.00,51.902
1007.00,51.870
1008.00,51.869
1009.00,51.860
1010.00,51.843
1011.00,51.831
1012.00,51.787
1013.00,51.787
1014.00,51.771
1015.00,51.788
1016.00,51.731
1017.00,51.740
1018.00,51.739
1019.00,51.705
1020.00,51.705
1021.00,51.669
1022.00,51.713
1023.00,51.638
1024.00,51.644
1025.00,51.633
1026.00,51.617
1027.00,51.585
1028.00,51.578
1029.00,51.571
1030.00,51.522
1031.00,51.533
1032.00,51.483
1033.00,51.494
1034.00,51.468
1035.00,51.413
1036.00,51.413
1037.00,51.410
1038.00,51.388
1039.00,51.361
1040.00,51.351
1041.00,51.314
1042.00,51.315
1043.00,51.290
1044.00,51.325
1045.00,51.297
1046.00,51.272
1047.00,51.307
1048.00,51.306
1049.00,51.314
1050.00,51.315
1051.00,51.357
1052.00,51.332
1053.00,51.351
1054.00,51.352
1055.00,51.391
1056.00,51.409
1057.00,51.396
1058.00,51.369
1059.00,51.368
1060.00,51.376
1061.00,51.359
1062.00,51.354
1063.00,51.360
1064.00,51.363
1065.00,51.335
1066.00,51.329
1067.00,51.324
1068.00,51.340
1069.00,51.297
1070.00,51.298
1071.00,51.277
1072.00,51.296
1073.00,51.268
1074.00,51.251
1075.00,51.249
1076.00,51.248
1077.00,51.222
1078.00,51.205
1079.00,51.205
1080.00,51.229
1081.00,51.212
1082.00,51.199
1083.00,51.218
1084.00,51.180
1085.00,51.177
1086.00,51.165
1087.00,51.156
1088.00,51.146
1089.00,51.141
1090.00,51.127
1091.00,51.139
1092.00,51.114
1093.00,51.096
1094.00,51.089
1095.00,51.074
1096.00,51.047
1097.00,51.080
1098.00,51.074
1099.00,51.050
1100.00,51.037
1101.00,51.030
1102.00,51.009
1103.00,51.022
1104.00,50.997
1105.00,50.992
1106.00,50.975
1107.00,50.969
1108.00,50.959
1109.00,50.953
1110.00,50.951
1111.00,50.946
1112.00,50.909
1113.00,50.920
1114.00,50.909
1115.00,50.909
1116.00,50.901
1117.00,50.895
1118.00,50.891
1119.00,50.893
1120.00,50.885
1121.00,50.883
1122.00,50.852
1123.00,50.856
1124.00,50.852
1125.00,50.835
1126.00,50.817
1127.00,50.827
1128.00,50.812
1129.00,50.798
1130.00,50.782
1131.00,50.785
1132.00,50.782
1133.00,50.779
1134.00,50.745
1135.00,50.746
1136.00,50.759
1137.00,50.772
1138.00,50.777
1139.00,50.788
1140.00,50.747
1141.00,50.761
1142.00,50.738
1143.00,50.764
1144.00,50.733
1145.00,50.696
1146.00,50.699
1147.00,50.691
1148.00,50.678
1149.00,50.699
1150.00,50.685
1151.00,50.682
1152.00,50.670
1153.00,50.664
1154.00,50.652
1155.00,50.663
1156.00,50.647
1157.00,50.660
1158.00,50.641
1159.00,50.632
1160.00,50.639
1161.00,50.659
1162.00,50.656
1163.00,50.660
1164.00,50.655
1165.00,50.666
1166.00,50.670
1167.00,50.647
1168.00,50.671
1169.00,50.662
1170.00,50.648
1171.00,50.632
1172.00,50.637
1173.00,50.632
1174.00,50.645
1175.00,50.630
1176.00,50.627
1177.00,50.607
1178.00,50.597
1179.00,50.617
1180.00,50.604
1181.00,50.616
1182.00,50.610
1183.00,50.596
1184.00,50.584
1185.00,50.599
1186.00,50.568
1187.00,50.597
1188.00,50.594
1189.00,50.580
1190.00,50.592
1191.00,50.561
1192.00,50.579
1193.00,50.574
1194.00,50.584
1195.00,50.561
1196.00,50.602
1197.00,50.593
1198.00,50.576
1199.00,50.570
1200.00,50.563
1201.00,50.576
1202.00,50.573
1203.00,50.554
1204.00,50.557
1205.00,50.589
1206.00,50.549
1207.00,50.569
1208.00,50.548
1209.00,50.548
1210.00,50.561
1211.00,50.540
1212.00,50.568
1213.00,50.539
1214.00,50.556
1215.00,50.559
1216.00,50.543
1217.00,50.549
1218.00,50.564
1219.00,50.555
1220.00,50.534
1221.00,50.567
1222.00,50.540
1223.00,50.568
1224.00,50.560
1225.00,50.545
1226.00,50.557
1227.00,50.557
1228.00,50.553
1229.00,50.527
1230.00,50.581
1231.00,50.563
1232.00,50.590
1233.00,50.592
1234.00,50.579
1235.00,50.599
1236.00,50.602
1237.00,50.596
1238.00,50.589
1239.00,50.597
1240.00,50.591
1241.00,50.601
1242.00,50.606
1243.00,50.615
1244.00,50.578
1245.00,50.605
1246.00,50.626
1247.00,50.590
1248.00,50.601
1249.00,50.615
1250.00,50.622
1251.00,50.627
1252.00,50.624
1253.00,50.610
1254.00,50.650
1255.00,50.627
1256.00,50.616
1257.00,50.620
1258.00,50.638
1259.00,50.642
1260.00,50.661
1261.00,50.643
1262.00,50.650
1263.00,50.648
1264.00,50.651
1265.00,50.661
1266.00,50.659
1267.00,50.664
1268.00,50.662
1269.00,50.648
1270.00,50.676
1271.00,50.674
1272.00,50.670
1273.00,50.693
1274.00,50.681
1275.00,50.707
1276.00,50.693
1277.00,50.690
1278.00,50.701
1279.00,50.706
1280.00,50.700
1281.00,50.723
1282.00,50.734
1283.00,50.726
1284.00,50.740
1285.00,50.731
1286.00,50.740
1287.00,50.734
1288.00,50.725
1289.00,50.732
1290.00,50.754
1291.00,50.745
1292.00,50.744
1293.00,50.741
1294.00,50.762
1295.00,50.777
1296.00,50.772
1297.00,50.781
1298.00,50.819
1299.00,50.782
1300.00,50.799
1301.00,50.789
1302.00,50.806
1303.00,50.809
1304.00,50.794
1305.00,50.813
1306.00,50.822
1307.00,50.830
1308.00,50.819
1309.00,50.832
1310.00,50.822
1311.00,50.835
1312.00,50.853
1313.00,50.853
1314.00,50.871
1315.00,50.872
1316.00,50.848
1317.00,50.894
1318.00,50.880
1319.00,50.893
1320.00,50.912
1321.00,51.068
1322.00,51.059
1323.00,51.059
1324.00,51.024
1325.00,51.017
1326.00,51.059
1327.00,51.020
1328.00,51.039
1329.00,51.034
1330.00,51.036
1331.00,51.046
1332.00,51.020
1333.00,51.131
1334.00,51.078
1335.00,51.092
1336.00,51.104
1337.00,51.136
1338.00,51.186
1339.00,51.229
1340.00,51.288
1341.00,51.343
1342.00,51.425
1343.00,51.459
1344.00,51.502
1345.00,51.561
1346.00,51.574
1347.00,51.618
1348.00,51.655
1349.00,51.664
1350.00,51.675
1351.00,51.707
1352.00,51.724
1353.00,51.546
1354.00,51.726
1355.00,51.663
1356.00,51.769
1357.00,51.728
1358.00,51.739
1359.00,51.744
1360.00,51.816
1361.00,51.819
1362.00,51.754
1363.00,51.813
1364.00,51.814
1365.00,51.728
1366.00,51.796
1367.00,51.686
1368.00,51.655
1369.00,51.766
1370.00,51.768
1371.00,51.659
1372.00,51.730
1373.00,51.746
1374.00,51.720
1375.00,51.723
1376.00,51.718
1377.00,51.697
1378.00,51.797
1379.00,51.724
1380.00,51.760
1381.00,51.734
1382.00,51.578
1383.00,51.753
1384.00,51.683
1385.00,51.723
1386.00,51.795
1387.00,51.716
1388.00,51.693
1389.00,51.743
1390.00,51.688
1391.00,51.740
1392.00,51.682
1393.00,51.632
1394.00,51.700
1395.00,51.785
1396.00,51.638
1397.00,51.724
1398.00,51.698
1399.00,51.672
1400.00,51.624
1401.00,51.708
1402.00,51.729
1403.00,51.704
1404.00,51.739
1405.00,51.774
1406.00,51.798
1407.00,51.778
1408.00,51.833
1409.00,51.747
1410.00,51.804
1411.00,51.804
1412.00,51.880
1413.00,51.935
1414.00,51.802
1415.00,51.823
1416.00,51.862
1417.00,51.879
1418.00,51.811
1419.00,51.857
1420.00,51.863
1421.00,51.886
1422.00,51.895
1423.00,51.897
1424.00,51.904
1425.00,51.940
1426.00,51.917
1427.00,51.950
1428.00,51.944
1429.00,51.981
1430.00,52.009
1431.00,52.020
1432.00,52.024
1433.00,52.056
1434.00,52.036
1435.00,52.100
1436.00,52.115
1437.00,52.077
1438.00,52.103
1439.00,52.128
1440.00,52.128
1441.00,52.152
1442.00,52.150
1443.00,52.186
1444.00,52.272
1445.00,52.160
1446.00,52.199
1447.00,52.244
1448.00,52.283
1449.00,52.276
1450.00,52.290
1451.00,52.272
1452.00,52.317
1453.00,52.323
1454.00,52.320
1455.00,52.362
1456.00,52.354
1457.00,52.345
1458.00,52.410
1459.00,52.394
1460.00,52.420
1461.00,52.419
1462.00,52.450
1463.00,52.454
1464.00,52.468
1465.00,52.475
1466.00,52.478
1467.00,52.475
1468.00,52.550
1469.00,52.532
1470.00,52.539
1471.00,52.570
1472.00,52.576
1473.00,52.565
1474.00,52.620
1475.00,52.635
1476.00,52.641
1477.00,52.624
1478.00,52.664
1479.00,52.691
1480.00,52.698
1481.00,52.674
1482.00,52.718
1483.00,52.734
1484.00,52.743
1485.00,52.763
1486.00,52.753
1487.00,52.765
1488.00,52.797
1489.00,52.771
1490.00,52.820
1491.00,52.815
1492.00,52.833
1493.00,52.825
1494.00,52.871
1495.00,52.846
1496.00,52.881
1497.00,52.872
1498.00,52.874
1499.00,52.907
1500.00,52.907
1501.00, 
1502.00, 
1503.00, 
1504.00, 
1505.00, 
1506.00, 
1507.00, 
1508.00, 
1509.00, 
1510.00, 
1511.00, 
1512.00, 
1513.00, 
1514.00, 
1515.00, 
1516.00, 
1517.00, 
1518.00, 
1519.00, 
1520.00, 
1521.00, 
1522.00, 
1523.00, 
1524.00, 
1525.00, 
1526.00, 
1527.00, 
1528.00, 
1529.00, 
1530.00, 
1531.00, 
1532.00, 
1533.00, 
1534.00, 
1535.00, 
1536.00, 
1537.00, 
1538.00, 
1539.00, 
1540.00, 
1541.00, 
1542.00, 
1543.00, 
1544.00, 
1545.00, 
1546.00, 
1547.00, 
1548.00, 
1549.00, 
1550.00, 
1551.00, 
1552.00, 
1553.00, 
1554.00, 
1555.00, 
1556.00, 
1557.00, 
1558.00, 
1559.00, 
1560.00, 
1561.00, 
1562.00, 
1563.00, 
1564.00, 
1565.00, 
1566.00, 
1567.00, 
1568.00, 
1569.00, 
1570.00, 
1571.00, 
1572.00, 
1573.00, 
1574.00, 
1575.00, 
1576.00, 
1577.00, 
1578.00, 
1579.00, 
1580.00, 
1581.00, 
1582.00, 
1583.00, 
1584.00, 
1585.00, 
1586.00, 
1587.00, 
1588.00, 
1589.00, 
1590.00, 
1591.00, 
1592.00, 
1593.00, 
1594.00, 
1595.00, 
1596.00, 
1597.00, 
1598.00, 
1599.00, 
1600.00, 
1601.00, 
1602.00, 
1603.00, 
1604.00, 
1605.00, 
1606.00, 
1607.00, 
1608.00, 
1609.00, 
1610.00, 
1611.00, 
1612.00, 
1613.00, 
1614.00, 
1615.00, 
1616.00, 
1617.00, 
1618.00, 
1619.00, 
1620.00, 
1621.00, 
1622.00, 
1623.00, 
1624.00, 
1625.00, 
1626.00, 
1627.00, 
1628.00, 
1629.00, 
1630.00, 
1631.00, 
1632.00, 
1633.00, 
1634.00, 
1635.00, 
1636.00, 
1637.00, 
1638.00, 
1639.00, 
1640.00, 
1641.00, 
1642.00, 
1643.00, 
1644.00, 
1645.00, 
1646.00, 
1647.00, 
1648.00, 
1649.00, 
1650.00, 
1651.00, 
1652.00, 
1653.00, 
1654.00, 
1655.00, 
1656.00, 
1657.00, 
1658.00, 
1659.00, 
1660.00, 
1661.00, 
1662.00, 
1663.00, 
1664.00, 
1665.00, 
1666.00, 
1667.00, 
1668.00, 
1669.00, 
1670.00, 
1671.00, 
1672.00, 
1673.00, 
1674.00, 
1675.00, 
1676.00, 
1677.00, 
1678.00, 
1679.00, 
1680.00, 
1681.00, 
1682.00, 
1683.00, 
1684.00, 
1685.00, 
1686.00, 
1687.00, 
1688.00, 
1689.00, 
1690.00, 
1691.00, 
1692.00, 
1693.00, 
1694.00, 
1695.00, 
1696.00, 
1697.00, 
1698.00, 
1699.00, 
1700.00, 
1701.00, 
1702.00, 
1703.00, 
1704.00, 
1705.00, 
1706.00, 
1707.00, 
1708.00, 
1709.00, 
1710.00, 
1711.00, 
1712.00, 
1713.00, 
1714.00, 
1715.00, 
1716.00, 
1717.00, 
1718.00, 
1719.00, 
1720.00, 
1721.00, 
1722.00, 
1723.00, 
1724.00, 
1725.00, 
1726.00, 
1727.00, 
1728.00, 
1729.00, 
1730.00, 
1731.00, 
1732.00, 
1733.00, 
1734.00, 
1735.00, 
1736.00, 
1737.00, 
1738.00, 
1739.00, 
1740.00, 
1741.00, 
1742.00, 
1743.00, 
1744.00, 
1745.00, 
1746.00, 
1747.00, 
1748.00, 
1749.00, 
1750.00, 
1751.00, 
1752.00, 
1753.00, 
1754.00, 
1755.00, 
1756.00, 
1757.00, 
1758.00, 
1759.00, 
1760.00, 
1761.00, 
1762.00, 
1763.00, 
1764.00, 
1765.00, 
1766.00, 
1767.00, 
1768.00, 
1769.00, 
1770.00, 
1771.00, 
1772.00, 
1773.00, 
1774.00, 
1775.00, 
1776.00, 
1777.00, 
1778.00, 
1779.00, 
1780.00, 
1781.00, 
1782.00, 
1783.00, 
1784.00, 
1785.00, 
1786.00, 
1787.00, 
1788.00, 
1789.00, 
1790.00, 
1791.00, 
1792.00, 
1793.00, 
1794.00, 
1795.00, 
1796.00, 
1797.00, 
1798.00, 
1799.00, 
1800.00, 
1801.00, 
1802.00, 
1803.00, 
1804.00, 
1805.00, 
1806.00, 
1807.00, 
1808.00, 
1809.00, 
1810.00, 
1811.00, 
1812.00, 
1813.00, 
1814.00, 
1815.00, 
1816.00, 
1817.00, 
1818.00, 
1819.00, 
1820.00, 
1821.00, 
1822.00, 
1823.00, 
1824.00, 
1825.00, 
1826.00, 
1827.00, 
1828.00, 
1829.00, 
1830.00, 
1831.00, 
1832.00, 
1833.00, 
1834.00, 
1835.00, 
1836.00, 
1837.00, 
1838.00, 
1839.00, 
1840.00, 
1841.00, 
1842.00, 
1843.00, 
1844.00, 
1845.00, 
1846.00, 
1847.00, 
1848.00, 
1849.00, 
1850.00, 
1851.00, 
1852.00, 
1853.00, 
1854.00, 
1855.00, 
1856.00, 
1857.00, 
1858.00, 
1859.00, 
1860.00, 
1861.00, 
1862.00, 
1863.00, 
1864.00, 
1865.00, 
1866.00, 
1867.00, 
1868.00, 
1869.00, 
1870.00, 
1871.00, 
1872.00, 
1873.00, 
1874.00, 
1875.00, 
1876.00, 
1877.00, 
1878.00, 
1879.00, 
1880.00, 
1881.00, 
1882.00, 
1883.00, 
1884.00, 
1885.00, 
1886.00, 
1887.00, 
1888.00, 
1889.00, 
1890.00, 
1891.00, 
1892.00, 
1893.00, 
1894.00, 
1895.00, 
1896.00, 
1897.00, 
1898.00, 
1899.00, 
1900.00, 
1901.00, 
1902.00, 
1903.00, 
1904.00, 
1905.00, 
1906.00, 
1907.00, 
1908.00, 
1909.00, 
1910.00, 
1911.00, 
1912.00, 
1913.00, 
1914.00, 
1915.00, 
1916.00, 
1917.00, 
1918.00, 
1919.00, 
1920.00, 
1921.00, 
1922.00, 
1923.00, 
1924.00, 
1925.00, 
1926.00, 
1927.00, 
1928.00, 
1929.00, 
1930.00, 
1931.00, 
1932.00, 
1933.00, 
1934.00, 
1935.00, 
1936.00, 
1937.00, 
1938.00, 
1939.00, 
1940.00, 
1941.00, 
1942.00, 
1943.00, 
1944.00, 
1945.00, 
1946.00, 
1947.00, 
1948.00, 
1949.00, 
1950.00, 
1951.00, 
1952.00, 
1953.00, 
1954.00, 
1955.00, 
1956.00, 
1957.00, 
1958.00, 
1959.00, 
1960.00, 
1961.00, 
1962.00, 
1963.00, 
1964.00, 
1965.00, 
1966.00, 
1967.00, 
1968.00, 
1969.00, 
1970.00, 
1971.00, 
1972.00, 
1973.00, 
1974.00, 
1975.00, 
1976.00, 
1977.00, 
1978.00, 
1979.00, 
1980.00, 
1981.00, 
1982.00, 
1983.00, 
1984.00, 
1985.00, 
1986.00, 
1987.00, 
1988.00, 
1989.00, 
1990.00, 
1991.00, 
1992.00, 
1993.00, 
1994.00, 
1995.00, 
1996.00, 
1997.00, 
1998.00, 
1999.00, 
2000.00, 
2001.00, 
2002.00, 
2003.00, 
2004.00, 
2005.00, 
2006.00, 
2007.00, 
2008.00, 
2009.00, 
2010.00, 
2011.00, 
2012.00, 
2013.00, 
2014.00, 
2015.00, 
2016.00, 
2017.00, 
2018.00, 
2019.00, 
2020.00, 
2021.00, 
2022.00, 
2023.00, 
2024.00, 
2025.00, 
2026.00, 
2027.00, 
2028.00, 
2029.00, 
2030.00, 
2031.00, 
2032.00, 
2033.00, 
2034.00, 
2035.00, 
2036.00, 
2037.00, 
2038.00, 
2039.00, 
2040.00, 
2041.00, 
2042.00, 
2043.00, 
2044.00, 
2045.00, 
2046.00, 
2047.00, 
2048.00, 
2049.00, 
2050.00, 
2051.00, 
2052.00, 
2053.00, 
2054.00, 
2055.00, 
2056.00, 
2057.00, 
2058.00, 
2059.00, 
2060.00, 
2061.00, 
2062.00, 
2063.00, 
2064.00, 
2065.00, 
2066.00, 
2067.00, 
2068.00, 
2069.00, 
2070.00, 
2071.00, 
2072.00, 
2073.00, 
2074.00, 
2075.00, 
2076.00, 
2077.00, 
2078.00, 
2079.00, 
2080.00, 
2081.00, 
2082.00, 
2083.00, 
2084.00, 
2085.00, 
2086.00, 
2087.00, 
2088.00, 
2089.00, 
2090.00, 
2091.00, 
2092.00, 
2093.00, 
2094.00, 
2095.00, 
2096.00, 
2097.00, 
2098.00, 
2099.00, 
2100.00, 
2101.00, 
2102.00, 
2103.00, 
2104.00, 
2105.00, 
2106.00, 
2107.00, 
2108.00, 
2109.00, 
2110.00, 
2111.00, 
2112.00, 
2113.00, 
2114.00, 
2115.00, 
2116.00, 
2117.00, 
2118.00, 
2119.00, 
2120.00, 
2121.00, 
2122.00, 
2123.00, 
2124.00, 
2125.00, 
2126.00, 
2127.00, 
2128.00, 
2129.00, 
2130.00, 
2131.00, 
2132.00, 
2133.00, 
2134.00, 
2135.00, 
2136.00, 
2137.00, 
2138.00, 
2139.00, 
2140.00, 
2141.00, 
2142.00, 
2143.00, 
2144.00, 
2145.00, 
2146.00, 
2147.00, 
2148.00, 
2149.00, 
2150.00, 
2151.00, 
2152.00, 
2153.00, 
2154.00, 
2155.00, 
2156.00, 
2157.00, 
2158.00, 
2159.00, 
2160.00, 
2161.00, 
2162.00, 
2163.00, 
2164.00, 
2165.00, 
2166.00, 
2167.00, 
2168.00, 
2169.00, 
2170.00, 
2171.00, 
2172.00, 
2173.00, 
2174.00, 
2175.00, 
2176.00, 
2177.00, 
2178.00, 
2179.00, 
2180.00, 
2181.00, 
2182.00, 
2183.00, 
2184.00, 
2185.00, 
2186.00, 
2187.00, 
2188.00, 
2189.00, 
2190.00, 
2191.00, 
2192.00, 
2193.00, 
2194.00, 
2195.00, 
2196.00, 
2197.00, 
2198.00, 
2199.00, 
2200.00, 
2201.00, 
2202.00, 
2203.00, 
2204.00, 
2205.00, 
2206.00, 
2207.00, 
2208.00, 
2209.00, 
2210.00, 
2211.00, 
2212.00, 
2213.00, 
2214.00, 
2215.00, 
2216.00, 
2217.00, 
2218.00, 
2219.00, 
2220.00, 
2221.00, 
2222.00, 
2223.00, 
2224.00, 
2225.00, 
2226.00, 
2227.00, 
2228.00, 
2229.00, 
2230.00, 
2231.00, 
2232.00, 
2233.00, 
2234.00, 
2235.00, 
2236.00, 
2237.00, 
2238.00, 
2239.00, 
2240.00, 
2241.00, 
2242.00, 
2243.00, 
2244.00, 
2245.00, 
2246.00, 
2247.00, 
2248.00, 
2249.00, 
2250.00, 
2251.00, 
2252.00, 
2253.00, 
2254.00, 
2255.00, 
2256.00, 
2257.00, 
2258.00, 
2259.00, 
2260.00, 
2261.00, 
2262.00, 
2263.00, 
2264.00, 
2265.00, 
2266.00, 
2267.00, 
2268.00, 
2269.00, 
2270.00, 
2271.00, 
2272.00, 
2273.00, 
2274.00, 
2275.00, 
2276.00, 
2277.00, 
2278.00, 
2279.00, 
2280.00, 
2281.00, 
2282.00, 
2283.00, 
2284.00, 
2285.00, 
2286.00, 
2287.00, 
2288.00, 
2289.00, 
2290.00, 
2291.00, 
2292.00, 
2293.00, 
2294.00, 
2295.00, 
2296.00, 
2297.00, 
2298.00, 
2299.00, 
2300.00, 
2301.00, 
2302.00, 
2303.00, 
2304.00, 
2305.00, 
2306.00, 
2307.00, 
2308.00, 
2309.00, 
2310.00, 
2311.00, 
2312.00, 
2313.00, 
2314.00, 
2315.00, 
2316.00, 
2317.00, 
2318.00, 
2319.00, 
2320.00, 
2321.00, 
2322.00, 
2323.00, 
2324.00, 
2325.00, 
2326.00, 
2327.00, 
2328.00, 
2329.00, 
2330.00, 
2331.00, 
2332.00, 
2333.00, 
2334.00, 
2335.00, 
2336.00, 
2337.00, 
2338.00, 
2339.00, 
2340.00, 
2341.00, 
2342.00, 
2343.00, 
2344.00, 
2345.00, 
2346.00, 
2347.00, 
2348.00, 
2349.00, 
2350.00, 
2351.00, 
2352.00, 
2353.00, 
2354.00, 
2355.00, 
2356.00, 
2357.00, 
2358.00, 
2359.00, 
2360.00, 
2361.00, 
2362.00, 
2363.00, 
2364.00, 
2365.00, 
2366.00, 
2367.00, 
2368.00, 
2369.00, 
2370.00, 
2371.00, 
2372.00, 
2373.00, 
2374.00, 
2375.00, 
2376.00, 
2377.00, 
2378.00, 
2379.00, 
2380.00, 
2381.00, 
2382.00, 
2383.00, 
2384.00, 
2385.00, 
2386.00, 
2387.00, 
2388.00, 
2389.00, 
2390.00, 
2391.00, 
2392.00, 
2393.00, 
2394.00, 
2395.00, 
2396.00, 
2397.00, 
2398.00, 
2399.00, 
2400.00, 
2401.00, 
2402.00, 
2403.00, 
2404.00, 
2405.00, 
2406.00, 
2407.00, 
2408.00, 
2409.00, 
2410.00, 
2411.00, 
2412.00, 
2413.00, 
2414.00, 
2415.00, 
2416.00, 
2417.00, 
2418.00, 
2419.00, 
2420.00, 
2421.00, 
2422.00, 
2423.00, 
2424.00, 
2425.00, 
2426.00, 
2427.00, 
2428.00, 
2429.00, 
2430.00, 
2431.00, 
2432.00, 
2433.00, 
2434.00, 
2435.00, 
2436.00, 
2437.00, 
2438.00, 
2439.00, 
2440.00, 
2441.00, 
2442.00, 
2443.00, 
2444.00, 
2445.00, 
2446.00, 
2447.00, 
2448.00, 
2449.00, 
2450.00, 
2451.00, 
2452.00, 
2453.00, 
2454.00, 
2455.00, 
2456.00, 
2457.00, 
2458.00, 
2459.00, 
2460.00, 
2461.00, 
2462.00, 
2463.00, 
2464.00, 
2465.00, 
2466.00, 
2467.00, 
2468.00, 
2469.00, 
2470.00, 
2471.00, 
2472.00, 
2473.00, 
2474.00, 
2475.00, 
2476.00, 
2477.00, 
2478.00, 
2479.00, 
2480.00, 
2481.00, 
2482.00, 
2483.00, 
2484.00, 
2485.00, 
2486.00, 
2487.00, 
2488.00, 
2489.00, 
2490.00, 
2491.00, 
2492.00, 
2493.00, 
2494.00, 
2495.00, 
2496.00, 
2497.00, 
2498.00, 
2499.00, 
2500.00, 
2501.00, 
2502.00, 
2503.00, 
2504.00, 
2505.00, 
2506.00, 
2507.00, 
2508.00, 
2509.00, 
2510.00, 
2511.00, 
2512.00, 
2513.00, 
2514.00, 
2515.00, 
2516.00, 
2517.00, 
2518.00, 
2519.00, 
2520.00, 
2521.00, 
2522.00, 
2523.00, 
2524.00, 
2525.00, 
2526.00, 
2527.00, 
2528.00, 
2529.00, 
2530.00, 
2531.00, 
2532.00, 
2533.00, 
2534.00, 
2535.00, 
2536.00, 
2537.00, 
2538.00, 
2539.00, 
2540.00, 
2541.00, 
2542.00, 
2543.00, 
2544.00, 
2545.00, 
2546.00, 
2547.00, 
2548.00, 
2549.00, 
2550.00, 
2551.00, 
2552.00, 
2553.00, 
2554.00, 
2555.00, 
2556.00, 
2557.00, 
2558.00, 
2559.00, 
2560.00, 
2561.00, 
2562.00, 
2563.00, 
2564.00, 
2565.00, 
2566.00, 
2567.00, 
2568.00, 
2569.00, 
2570.00, 
2571.00, 
2572.00, 
2573.00, 
2574.00, 
2575.00, 
2576.00, 
2577.00, 
2578.00, 
2579.00, 
2580.00, 
2581.00, 
2582.00, 
2583.00, 
2584.00, 
2585.00, 
2586.00, 
2587.00, 
2588.00, 
2589.00, 
2590.00, 
2591.00, 
2592.00, 
2593.00, 
2594.00, 
2595.00, 
2596.00, 
2597.00, 
2598.00, 
2599.00, 
2600.00, 
