"2bP2 - RawData"
"Wavelength nm.","T%"
200.00,-0.001
201.00,0.001
202.00,0.001
203.00,0.001
204.00,0.001
205.00,-0.000
206.00,0.001
207.00,-0.000
208.00,0.000
209.00,0.001
210.00,-0.002
211.00,0.004
212.00,0.002
213.00,0.003
214.00,0.001
215.00,0.001
216.00,-0.001
217.00,-0.000
218.00,0.000
219.00,-0.001
220.00,0.000
221.00,-0.001
222.00,0.003
223.00,0.000
224.00,0.001
225.00,-0.000
226.00,0.002
227.00,0.001
228.00,0.002
229.00,0.001
230.00,-0.001
231.00,0.001
232.00,-0.001
233.00,-0.002
234.00,-0.001
235.00,0.000
236.00,0.000
237.00,-0.001
238.00,0.001
239.00,0.000
240.00,0.001
241.00,-0.001
242.00,0.001
243.00,0.001
244.00,-0.001
245.00,0.001
246.00,-0.000
247.00,0.000
248.00,0.001
249.00,0.000
250.00,0.000
251.00,-0.002
252.00,0.001
253.00,-0.000
254.00,0.001
255.00,0.001
256.00,0.001
257.00,-0.001
258.00,0.002
259.00,0.000
260.00,0.001
261.00,-0.000
262.00,0.001
263.00,-0.001
264.00,0.000
265.00,-0.000
266.00,-0.001
267.00,0.000
268.00,-0.001
269.00,0.000
270.00,-0.001
271.00,0.000
272.00,0.000
273.00,0.001
274.00,0.001
275.00,-0.000
276.00,0.001
277.00,0.000
278.00,0.001
279.00,-0.000
280.00,-0.001
281.00,-0.001
282.00,0.000
283.00,-0.001
284.00,0.000
285.00,0.002
286.00,0.001
287.00,-0.001
288.00,-0.002
289.00,-0.001
290.00,0.001
291.00,-0.001
292.00,-0.000
293.00,-0.000
294.00,-0.000
295.00,0.000
296.00,0.001
297.00,0.000
298.00,0.001
299.00,0.002
300.00,0.003
301.00,0.004
302.00,0.006
303.00,0.007
304.00,0.014
305.00,0.022
306.00,0.033
307.00,0.048
308.00,0.075
309.00,0.114
310.00,0.157
311.00,0.213
312.00,0.282
313.00,0.384
314.00,0.505
315.00,0.656
316.00,0.826
317.00,1.050
318.00,1.282
319.00,1.559
320.00,1.881
321.00,2.243
322.00,2.655
323.00,3.110
324.00,3.593
325.00,4.073
326.00,4.587
327.00,5.091
328.00,5.736
329.00,6.298
330.00,6.922
331.00,7.531
332.00,8.162
333.00,8.813
334.00,9.437
335.00,10.120
336.00,10.712
337.00,11.366
338.00,11.988
339.00,12.583
340.00,13.144
341.00,13.727
342.00,14.289
343.00,14.767
344.00,15.259
345.00,15.766
346.00,16.221
347.00,16.603
348.00,17.007
349.00,17.325
350.00,17.727
351.00,18.043
352.00,18.304
353.00,18.594
354.00,18.866
355.00,19.112
356.00,19.378
357.00,19.579
358.00,19.749
359.00,19.995
360.00,20.177
361.00,20.268
362.00,20.411
363.00,20.601
364.00,20.626
365.00,20.730
366.00,20.797
367.00,20.890
368.00,20.932
369.00,20.962
370.00,21.014
371.00,21.014
372.00,21.020
373.00,21.009
374.00,21.007
375.00,21.007
376.00,20.951
377.00,20.914
378.00,20.824
379.00,20.755
380.00,20.715
381.00,20.682
382.00,20.685
383.00,20.722
384.00,20.734
385.00,20.754
386.00,20.739
387.00,20.756
388.00,20.813
389.00,20.796
390.00,20.850
391.00,20.839
392.00,20.861
393.00,20.843
394.00,20.860
395.00,20.869
396.00,20.854
397.00,20.879
398.00,20.852
399.00,20.839
400.00,20.846
401.00,20.847
402.00,20.812
403.00,20.819
404.00,20.831
405.00,20.800
406.00,20.773
407.00,20.749
408.00,20.734
409.00,20.685
410.00,20.646
411.00,20.655
412.00,20.617
413.00,20.620
414.00,20.640
415.00,20.612
416.00,20.686
417.00,20.668
418.00,20.679
419.00,20.748
420.00,20.793
421.00,20.819
422.00,20.810
423.00,20.888
424.00,20.932
425.00,20.974
426.00,20.927
427.00,20.992
428.00,21.006
429.00,21.076
430.00,21.125
431.00,21.206
432.00,21.229
433.00,21.308
434.00,21.372
435.00,21.378
436.00,21.450
437.00,21.486
438.00,21.589
439.00,21.676
440.00,21.732
441.00,21.811
442.00,21.914
443.00,21.987
444.00,22.063
445.00,22.173
446.00,22.262
447.00,22.337
448.00,22.463
449.00,22.546
450.00,22.638
451.00,22.759
452.00,22.810
453.00,22.979
454.00,23.068
455.00,23.177
456.00,23.281
457.00,23.415
458.00,23.508
459.00,23.650
460.00,23.753
461.00,23.905
462.00,24.017
463.00,24.168
464.00,24.294
465.00,24.419
466.00,24.562
467.00,24.705
468.00,24.794
469.00,24.929
470.00,25.000
471.00,25.102
472.00,25.244
473.00,25.324
474.00,25.453
475.00,25.568
476.00,25.711
477.00,25.817
478.00,25.967
479.00,26.133
480.00,26.270
481.00,26.391
482.00,26.575
483.00,26.679
484.00,26.889
485.00,27.019
486.00,27.163
487.00,27.312
488.00,27.458
489.00,27.638
490.00,27.803
491.00,27.935
492.00,28.156
493.00,28.267
494.00,28.262
495.00,28.472
496.00,28.572
497.00,28.696
498.00,28.836
499.00,28.999
500.00,29.114
501.00,29.222
502.00,29.404
503.00,29.523
504.00,29.583
505.00,29.758
506.00,29.888
507.00,29.955
508.00,30.084
509.00,30.273
510.00,30.360
511.00,30.454
512.00,30.638
513.00,30.760
514.00,30.850
515.00,31.030
516.00,31.098
517.00,31.154
518.00,31.384
519.00,31.412
520.00,31.362
521.00,31.570
522.00,31.786
523.00,31.792
524.00,31.890
525.00,32.007
526.00,32.104
527.00,32.154
528.00,32.287
529.00,32.424
530.00,32.568
531.00,32.694
532.00,32.759
533.00,32.886
534.00,32.977
535.00,33.056
536.00,33.102
537.00,33.230
538.00,33.291
539.00,33.442
540.00,33.435
541.00,33.479
542.00,33.543
543.00,33.578
544.00,33.673
545.00,33.761
546.00,33.796
547.00,33.876
548.00,34.020
549.00,34.097
550.00,34.156
551.00,34.217
552.00,34.278
553.00,34.315
554.00,34.413
555.00,34.469
556.00,34.551
557.00,34.598
558.00,34.669
559.00,34.723
560.00,34.804
561.00,34.826
562.00,34.935
563.00,34.943
564.00,35.009
565.00,34.969
566.00,34.961
567.00,35.111
568.00,35.108
569.00,35.228
570.00,35.293
571.00,35.356
572.00,35.354
573.00,35.347
574.00,35.438
575.00,35.476
576.00,35.447
577.00,35.503
578.00,35.619
579.00,35.659
580.00,35.747
581.00,35.904
582.00,35.977
583.00,35.951
584.00,36.062
585.00,36.107
586.00,36.206
587.00,36.345
588.00,36.256
589.00,36.231
590.00,36.292
591.00,36.355
592.00,36.330
593.00,36.350
594.00,36.469
595.00,36.568
596.00,36.582
597.00,36.596
598.00,36.783
599.00,36.732
600.00,36.791
601.00,36.865
602.00,36.787
603.00,36.893
604.00,36.929
605.00,36.963
606.00,37.079
607.00,37.104
608.00,37.175
609.00,37.366
610.00,37.224
611.00,37.254
612.00,37.338
613.00,37.424
614.00,37.458
615.00,37.498
616.00,37.720
617.00,37.635
618.00,37.720
619.00,37.801
620.00,37.720
621.00,37.832
622.00,37.938
623.00,38.019
624.00,38.054
625.00,38.123
626.00,38.174
627.00,38.258
628.00,38.305
629.00,38.299
630.00,38.403
631.00,38.512
632.00,38.570
633.00,38.659
634.00,38.732
635.00,38.853
636.00,38.901
637.00,38.968
638.00,39.060
639.00,39.179
640.00,39.182
641.00,39.243
642.00,39.343
643.00,39.417
644.00,39.493
645.00,39.538
646.00,39.679
647.00,39.793
648.00,39.841
649.00,39.885
650.00,39.954
651.00,40.138
652.00,40.239
653.00,40.187
654.00,40.325
655.00,40.476
656.00,40.774
657.00,40.575
658.00,40.731
659.00,40.871
660.00,40.848
661.00,40.935
662.00,41.050
663.00,41.164
664.00,41.436
665.00,41.578
666.00,41.565
667.00,41.625
668.00,41.673
669.00,41.918
670.00,42.075
671.00,42.065
672.00,42.189
673.00,42.194
674.00,42.345
675.00,42.447
676.00,42.630
677.00,42.774
678.00,42.672
679.00,42.835
680.00,42.906
681.00,43.034
682.00,43.136
683.00,43.127
684.00,43.361
685.00,43.474
686.00,43.407
687.00,43.550
688.00,43.651
689.00,43.656
690.00,43.996
691.00,44.239
692.00,44.037
693.00,44.064
694.00,44.287
695.00,44.438
696.00,44.493
697.00,44.461
698.00,44.543
699.00,44.866
700.00,44.842
701.00,44.822
702.00,45.073
703.00,45.166
704.00,45.183
705.00,45.188
706.00,45.336
707.00,45.182
708.00,45.430
709.00,46.041
710.00,46.201
711.00,45.678
712.00,45.853
713.00,45.998
714.00,46.115
715.00,46.068
716.00,46.079
717.00,46.367
718.00,46.400
719.00,46.360
720.00,46.527
721.00,50.876
722.00,50.914
723.00,50.961
724.00,51.042
725.00,51.110
726.00,51.062
727.00,51.135
728.00,51.182
729.00,51.221
730.00,51.266
731.00,51.270
732.00,51.324
733.00,51.359
734.00,51.480
735.00,51.512
736.00,51.493
737.00,51.611
738.00,51.560
739.00,51.583
740.00,51.685
741.00,51.738
742.00,51.780
743.00,51.795
744.00,51.840
745.00,51.824
746.00,51.848
747.00,51.926
748.00,51.821
749.00,51.888
750.00,51.922
751.00,51.890
752.00,51.861
753.00,51.876
754.00,51.964
755.00,51.926
756.00,52.047
757.00,52.023
758.00,51.980
759.00,52.030
760.00,52.103
761.00,52.078
762.00,52.127
763.00,52.141
764.00,52.168
765.00,52.207
766.00,52.158
767.00,52.277
768.00,52.222
769.00,52.209
770.00,52.298
771.00,52.188
772.00,52.331
773.00,52.234
774.00,52.385
775.00,52.388
776.00,52.340
777.00,52.440
778.00,52.394
779.00,52.467
780.00,52.338
781.00,52.370
782.00,52.457
783.00,52.328
784.00,52.479
785.00,52.318
786.00,52.451
787.00,52.476
788.00,52.515
789.00,52.379
790.00,52.390
791.00,52.511
792.00,52.468
793.00,52.449
794.00,52.452
795.00,52.453
796.00,52.474
797.00,52.319
798.00,52.446
799.00,52.422
800.00,52.331
801.00,52.381
802.00,52.441
803.00,52.384
804.00,52.287
805.00,52.393
806.00,52.308
807.00,52.325
808.00,52.351
809.00,52.413
810.00,52.248
811.00,52.336
812.00,52.363
813.00,52.276
814.00,52.245
815.00,52.240
816.00,52.239
817.00,52.286
818.00,52.228
819.00,52.286
820.00,52.142
821.00,52.196
822.00,52.240
823.00,52.161
824.00,52.160
825.00,52.103
826.00,52.149
827.00,52.266
828.00,52.075
829.00,52.051
830.00,52.190
831.00,54.574
832.00,54.575
833.00,54.498
834.00,54.540
835.00,54.455
836.00,54.505
837.00,54.416
838.00,54.400
839.00,54.456
840.00,54.401
841.00,54.411
842.00,54.374
843.00,54.418
844.00,54.378
845.00,54.348
846.00,54.366
847.00,54.320
848.00,54.356
849.00,54.245
850.00,54.222
851.00,54.182
852.00,54.227
853.00,54.128
854.00,54.125
855.00,54.087
856.00,54.098
857.00,54.077
858.00,54.042
859.00,54.010
860.00,54.021
861.00,54.034
862.00,53.959
863.00,54.010
864.00,53.927
865.00,53.997
866.00,53.957
867.00,53.964
868.00,53.955
869.00,53.852
870.00,53.919
871.00,53.850
872.00,53.895
873.00,53.870
874.00,53.886
875.00,53.827
876.00,53.898
877.00,53.834
878.00,53.844
879.00,53.823
880.00,53.822
881.00,53.810
882.00,53.820
883.00,53.780
884.00,53.748
885.00,53.718
886.00,53.720
887.00,53.697
888.00,53.680
889.00,53.646
890.00,53.652
891.00,53.619
892.00,53.624
893.00,53.608
894.00,53.587
895.00,53.592
896.00,53.555
897.00,53.525
898.00,53.504
899.00,53.543
900.00,53.477
901.00,53.469
902.00,53.492
903.00,53.438
904.00,53.416
905.00,53.396
906.00,53.400
907.00,53.358
908.00,53.330
909.00,53.362
910.00,53.330
911.00,53.324
912.00,53.322
913.00,53.259
914.00,53.208
915.00,53.215
916.00,53.189
917.00,53.125
918.00,53.227
919.00,53.166
920.00,53.122
921.00,53.145
922.00,53.124
923.00,53.099
924.00,53.037
925.00,53.055
926.00,53.040
927.00,53.035
928.00,52.985
929.00,53.000
930.00,52.969
931.00,52.983
932.00,52.935
933.00,52.949
934.00,53.077
935.00,52.900
936.00,52.855
937.00,52.844
938.00,52.829
939.00,52.826
940.00,52.792
941.00,52.786
942.00,52.758
943.00,52.759
944.00,52.705
945.00,52.709
946.00,52.701
947.00,52.641
948.00,52.647
949.00,52.629
950.00,52.614
951.00,52.606
952.00,52.593
953.00,52.538
954.00,52.532
955.00,52.471
956.00,52.474
957.00,52.418
958.00,52.449
959.00,52.332
960.00,52.386
961.00,52.373
962.00,52.373
963.00,52.333
964.00,52.342
965.00,52.340
966.00,52.314
967.00,52.330
968.00,52.281
969.00,52.321
970.00,52.290
971.00,52.306
972.00,52.266
973.00,52.303
974.00,52.315
975.00,52.263
976.00,52.295
977.00,52.286
978.00,52.328
979.00,52.365
980.00,52.301
981.00,52.318
982.00,52.272
983.00,52.307
984.00,52.289
985.00,52.299
986.00,52.245
987.00,52.277
988.00,52.249
989.00,52.260
990.00,52.234
991.00,52.190
992.00,52.228
993.00,52.173
994.00,52.158
995.00,52.163
996.00,52.150
997.00,52.141
998.00,52.120
999.00,52.134
1000.00,52.076
1001.00,52.083
1002.00,52.064
1003.00,52.091
1004.00,52.052
1005.00,52.020
1006.00,52.033
1007.00,52.009
1008.00,52.003
1009.00,51.996
1010.00,51.990
1011.00,51.979
1012.00,51.947
1013.00,51.949
1014.00,51.926
1015.00,51.919
1016.00,51.887
1017.00,51.889
1018.00,51.885
1019.00,51.834
1020.00,51.851
1021.00,51.821
1022.00,51.814
1023.00,51.771
1024.00,51.779
1025.00,51.806
1026.00,51.755
1027.00,51.723
1028.00,51.732
1029.00,51.723
1030.00,51.681
1031.00,51.700
1032.00,51.655
1033.00,51.671
1034.00,51.632
1035.00,51.586
1036.00,51.572
1037.00,51.549
1038.00,51.535
1039.00,51.506
1040.00,51.500
1041.00,51.464
1042.00,51.469
1043.00,51.438
1044.00,51.473
1045.00,51.452
1046.00,51.422
1047.00,51.466
1048.00,51.466
1049.00,51.470
1050.00,51.470
1051.00,51.514
1052.00,51.495
1053.00,51.504
1054.00,51.497
1055.00,51.525
1056.00,51.546
1057.00,51.534
1058.00,51.526
1059.00,51.527
1060.00,51.531
1061.00,51.514
1062.00,51.500
1063.00,51.497
1064.00,51.504
1065.00,51.481
1066.00,51.477
1067.00,51.464
1068.00,51.489
1069.00,51.440
1070.00,51.468
1071.00,51.473
1072.00,51.452
1073.00,51.423
1074.00,51.409
1075.00,51.413
1076.00,51.404
1077.00,51.381
1078.00,51.370
1079.00,51.368
1080.00,51.374
1081.00,51.356
1082.00,51.354
1083.00,51.350
1084.00,51.326
1085.00,51.319
1086.00,51.317
1087.00,51.316
1088.00,51.293
1089.00,51.295
1090.00,51.280
1091.00,51.289
1092.00,51.269
1093.00,51.257
1094.00,51.245
1095.00,51.228
1096.00,51.211
1097.00,51.223
1098.00,51.194
1099.00,51.202
1100.00,51.194
1101.00,51.184
1102.00,51.175
1103.00,51.177
1104.00,51.141
1105.00,51.148
1106.00,51.136
1107.00,51.136
1108.00,51.129
1109.00,51.114
1110.00,51.109
1111.00,51.097
1112.00,51.076
1113.00,51.087
1114.00,51.073
1115.00,51.071
1116.00,51.062
1117.00,51.040
1118.00,51.027
1119.00,51.030
1120.00,51.016
1121.00,51.013
1122.00,51.002
1123.00,50.999
1124.00,50.992
1125.00,50.989
1126.00,50.975
1127.00,50.983
1128.00,50.961
1129.00,50.945
1130.00,50.938
1131.00,50.950
1132.00,50.905
1133.00,50.934
1134.00,50.922
1135.00,50.909
1136.00,50.914
1137.00,50.916
1138.00,50.905
1139.00,50.914
1140.00,50.894
1141.00,50.905
1142.00,50.888
1143.00,50.898
1144.00,50.887
1145.00,50.867
1146.00,50.866
1147.00,50.865
1148.00,50.845
1149.00,50.868
1150.00,50.863
1151.00,50.855
1152.00,50.850
1153.00,50.842
1154.00,50.830
1155.00,50.854
1156.00,50.815
1157.00,50.834
1158.00,50.826
1159.00,50.807
1160.00,50.812
1161.00,50.814
1162.00,50.807
1163.00,50.807
1164.00,50.803
1165.00,50.806
1166.00,50.808
1167.00,50.775
1168.00,50.804
1169.00,50.792
1170.00,50.777
1171.00,50.766
1172.00,50.778
1173.00,50.759
1174.00,50.780
1175.00,50.774
1176.00,50.789
1177.00,50.769
1178.00,50.756
1179.00,50.774
1180.00,50.752
1181.00,50.770
1182.00,50.764
1183.00,50.755
1184.00,50.748
1185.00,50.770
1186.00,50.749
1187.00,50.743
1188.00,50.751
1189.00,50.725
1190.00,50.733
1191.00,50.723
1192.00,50.733
1193.00,50.734
1194.00,50.731
1195.00,50.707
1196.00,50.753
1197.00,50.740
1198.00,50.725
1199.00,50.728
1200.00,50.726
1201.00,50.756
1202.00,50.740
1203.00,50.718
1204.00,50.723
1205.00,50.748
1206.00,50.736
1207.00,50.751
1208.00,50.729
1209.00,50.737
1210.00,50.745
1211.00,50.723
1212.00,50.744
1213.00,50.702
1214.00,50.734
1215.00,50.715
1216.00,50.718
1217.00,50.721
1218.00,50.709
1219.00,50.722
1220.00,50.693
1221.00,50.738
1222.00,50.707
1223.00,50.731
1224.00,50.720
1225.00,50.701
1226.00,50.717
1227.00,50.710
1228.00,50.718
1229.00,50.728
1230.00,50.749
1231.00,50.736
1232.00,50.773
1233.00,50.755
1234.00,50.751
1235.00,50.758
1236.00,50.748
1237.00,50.779
1238.00,50.769
1239.00,50.765
1240.00,50.738
1241.00,50.747
1242.00,50.760
1243.00,50.757
1244.00,50.735
1245.00,50.758
1246.00,50.778
1247.00,50.758
1248.00,50.769
1249.00,50.786
1250.00,50.789
1251.00,50.792
1252.00,50.812
1253.00,50.796
1254.00,50.827
1255.00,50.800
1256.00,50.776
1257.00,50.762
1258.00,50.785
1259.00,50.806
1260.00,50.813
1261.00,50.812
1262.00,50.849
1263.00,50.813
1264.00,50.825
1265.00,50.832
1266.00,50.824
1267.00,50.845
1268.00,50.850
1269.00,50.845
1270.00,50.863
1271.00,50.851
1272.00,50.846
1273.00,50.868
1274.00,50.855
1275.00,50.872
1276.00,50.861
1277.00,50.856
1278.00,50.870
1279.00,50.875
1280.00,50.860
1281.00,50.882
1282.00,50.896
1283.00,50.876
1284.00,50.914
1285.00,50.892
1286.00,50.926
1287.00,50.916
1288.00,50.904
1289.00,50.896
1290.00,50.917
1291.00,50.906
1292.00,50.912
1293.00,50.912
1294.00,50.925
1295.00,50.951
1296.00,50.959
1297.00,50.972
1298.00,51.011
1299.00,50.970
1300.00,50.985
1301.00,50.969
1302.00,50.981
1303.00,50.996
1304.00,50.953
1305.00,50.980
1306.00,50.983
1307.00,50.956
1308.00,50.981
1309.00,51.025
1310.00,50.956
1311.00,50.983
1312.00,51.004
1313.00,51.020
1314.00,51.035
1315.00,51.049
1316.00,51.028
1317.00,51.072
1318.00,51.049
1319.00,51.047
1320.00,51.062
1321.00,51.215
1322.00,51.222
1323.00,51.225
1324.00,51.193
1325.00,51.186
1326.00,51.223
1327.00,51.177
1328.00,51.190
1329.00,51.189
1330.00,51.191
1331.00,51.199
1332.00,51.157
1333.00,51.288
1334.00,51.213
1335.00,51.241
1336.00,51.227
1337.00,51.293
1338.00,51.336
1339.00,51.384
1340.00,51.438
1341.00,51.492
1342.00,51.558
1343.00,51.605
1344.00,51.649
1345.00,51.724
1346.00,51.745
1347.00,51.785
1348.00,51.798
1349.00,51.799
1350.00,51.808
1351.00,51.852
1352.00,51.864
1353.00,51.606
1354.00,51.876
1355.00,51.807
1356.00,51.926
1357.00,51.887
1358.00,51.869
1359.00,51.914
1360.00,51.886
1361.00,51.960
1362.00,51.870
1363.00,51.929
1364.00,52.017
1365.00,51.897
1366.00,51.920
1367.00,51.895
1368.00,51.876
1369.00,51.908
1370.00,51.919
1371.00,51.817
1372.00,51.883
1373.00,51.895
1374.00,51.885
1375.00,51.878
1376.00,51.882
1377.00,51.880
1378.00,51.823
1379.00,51.847
1380.00,51.872
1381.00,51.865
1382.00,51.743
1383.00,51.865
1384.00,51.812
1385.00,51.877
1386.00,51.907
1387.00,51.792
1388.00,51.788
1389.00,51.854
1390.00,51.870
1391.00,51.868
1392.00,51.843
1393.00,51.782
1394.00,51.831
1395.00,51.811
1396.00,51.765
1397.00,51.805
1398.00,52.046
1399.00,51.841
1400.00,51.777
1401.00,51.839
1402.00,51.848
1403.00,51.837
1404.00,51.888
1405.00,51.930
1406.00,51.915
1407.00,51.907
1408.00,51.922
1409.00,51.849
1410.00,51.914
1411.00,51.930
1412.00,51.933
1413.00,51.802
1414.00,51.892
1415.00,51.943
1416.00,51.963
1417.00,51.965
1418.00,51.943
1419.00,51.979
1420.00,51.994
1421.00,52.022
1422.00,52.013
1423.00,52.038
1424.00,52.047
1425.00,52.062
1426.00,52.054
1427.00,52.103
1428.00,52.079
1429.00,52.090
1430.00,52.125
1431.00,52.133
1432.00,52.134
1433.00,52.158
1434.00,52.128
1435.00,52.186
1436.00,52.204
1437.00,52.189
1438.00,52.214
1439.00,52.237
1440.00,52.236
1441.00,52.260
1442.00,52.266
1443.00,52.288
1444.00,52.334
1445.00,52.242
1446.00,52.311
1447.00,52.346
1448.00,52.394
1449.00,52.381
1450.00,52.389
1451.00,52.385
1452.00,52.417
1453.00,52.424
1454.00,52.428
1455.00,52.480
1456.00,52.479
1457.00,52.495
1458.00,52.518
1459.00,52.516
1460.00,52.556
1461.00,52.565
1462.00,52.596
1463.00,52.609
1464.00,52.615
1465.00,52.612
1466.00,52.623
1467.00,52.630
1468.00,52.683
1469.00,52.663
1470.00,52.676
1471.00,52.685
1472.00,52.684
1473.00,52.679
1474.00,52.735
1475.00,52.747
1476.00,52.742
1477.00,52.734
1478.00,52.766
1479.00,52.780
1480.00,52.780
1481.00,52.765
1482.00,52.814
1483.00,52.811
1484.00,52.824
1485.00,52.849
1486.00,52.848
1487.00,52.870
1488.00,52.916
1489.00,52.882
1490.00,52.917
1491.00,52.914
1492.00,52.914
1493.00,52.919
1494.00,52.961
1495.00,52.945
1496.00,52.981
1497.00,52.975
1498.00,52.977
1499.00,53.006
1500.00,53.009
1501.00, 
1502.00, 
1503.00, 
1504.00, 
1505.00, 
1506.00, 
1507.00, 
1508.00, 
1509.00, 
1510.00, 
1511.00, 
1512.00, 
1513.00, 
1514.00, 
1515.00, 
1516.00, 
1517.00, 
1518.00, 
1519.00, 
1520.00, 
1521.00, 
1522.00, 
1523.00, 
1524.00, 
1525.00, 
1526.00, 
1527.00, 
1528.00, 
1529.00, 
1530.00, 
1531.00, 
1532.00, 
1533.00, 
1534.00, 
1535.00, 
1536.00, 
1537.00, 
1538.00, 
1539.00, 
1540.00, 
1541.00, 
1542.00, 
1543.00, 
1544.00, 
1545.00, 
1546.00, 
1547.00, 
1548.00, 
1549.00, 
1550.00, 
1551.00, 
1552.00, 
1553.00, 
1554.00, 
1555.00, 
1556.00, 
1557.00, 
1558.00, 
1559.00, 
1560.00, 
1561.00, 
1562.00, 
1563.00, 
1564.00, 
1565.00, 
1566.00, 
1567.00, 
1568.00, 
1569.00, 
1570.00, 
1571.00, 
1572.00, 
1573.00, 
1574.00, 
1575.00, 
1576.00, 
1577.00, 
1578.00, 
1579.00, 
1580.00, 
1581.00, 
1582.00, 
1583.00, 
1584.00, 
1585.00, 
1586.00, 
1587.00, 
1588.00, 
1589.00, 
1590.00, 
1591.00, 
1592.00, 
1593.00, 
1594.00, 
1595.00, 
1596.00, 
1597.00, 
1598.00, 
1599.00, 
1600.00, 
1601.00, 
1602.00, 
1603.00, 
1604.00, 
1605.00, 
1606.00, 
1607.00, 
1608.00, 
1609.00, 
1610.00, 
1611.00, 
1612.00, 
1613.00, 
1614.00, 
1615.00, 
1616.00, 
1617.00, 
1618.00, 
1619.00, 
1620.00, 
1621.00, 
1622.00, 
1623.00, 
1624.00, 
1625.00, 
1626.00, 
1627.00, 
1628.00, 
1629.00, 
1630.00, 
1631.00, 
1632.00, 
1633.00, 
1634.00, 
1635.00, 
1636.00, 
1637.00, 
1638.00, 
1639.00, 
1640.00, 
1641.00, 
1642.00, 
1643.00, 
1644.00, 
1645.00, 
1646.00, 
1647.00, 
1648.00, 
1649.00, 
1650.00, 
1651.00, 
1652.00, 
1653.00, 
1654.00, 
1655.00, 
1656.00, 
1657.00, 
1658.00, 
1659.00, 
1660.00, 
1661.00, 
1662.00, 
1663.00, 
1664.00, 
1665.00, 
1666.00, 
1667.00, 
1668.00, 
1669.00, 
1670.00, 
1671.00, 
1672.00, 
1673.00, 
1674.00, 
1675.00, 
1676.00, 
1677.00, 
1678.00, 
1679.00, 
1680.00, 
1681.00, 
1682.00, 
1683.00, 
1684.00, 
1685.00, 
1686.00, 
1687.00, 
1688.00, 
1689.00, 
1690.00, 
1691.00, 
1692.00, 
1693.00, 
1694.00, 
1695.00, 
1696.00, 
1697.00, 
1698.00, 
1699.00, 
1700.00, 
1701.00, 
1702.00, 
1703.00, 
1704.00, 
1705.00, 
1706.00, 
1707.00, 
1708.00, 
1709.00, 
1710.00, 
1711.00, 
1712.00, 
1713.00, 
1714.00, 
1715.00, 
1716.00, 
1717.00, 
1718.00, 
1719.00, 
1720.00, 
1721.00, 
1722.00, 
1723.00, 
1724.00, 
1725.00, 
1726.00, 
1727.00, 
1728.00, 
1729.00, 
1730.00, 
1731.00, 
1732.00, 
1733.00, 
1734.00, 
1735.00, 
1736.00, 
1737.00, 
1738.00, 
1739.00, 
1740.00, 
1741.00, 
1742.00, 
1743.00, 
1744.00, 
1745.00, 
1746.00, 
1747.00, 
1748.00, 
1749.00, 
1750.00, 
1751.00, 
1752.00, 
1753.00, 
1754.00, 
1755.00, 
1756.00, 
1757.00, 
1758.00, 
1759.00, 
1760.00, 
1761.00, 
1762.00, 
1763.00, 
1764.00, 
1765.00, 
1766.00, 
1767.00, 
1768.00, 
1769.00, 
1770.00, 
1771.00, 
1772.00, 
1773.00, 
1774.00, 
1775.00, 
1776.00, 
1777.00, 
1778.00, 
1779.00, 
1780.00, 
1781.00, 
1782.00, 
1783.00, 
1784.00, 
1785.00, 
1786.00, 
1787.00, 
1788.00, 
1789.00, 
1790.00, 
1791.00, 
1792.00, 
1793.00, 
1794.00, 
1795.00, 
1796.00, 
1797.00, 
1798.00, 
1799.00, 
1800.00, 
1801.00, 
1802.00, 
1803.00, 
1804.00, 
1805.00, 
1806.00, 
1807.00, 
1808.00, 
1809.00, 
1810.00, 
1811.00, 
1812.00, 
1813.00, 
1814.00, 
1815.00, 
1816.00, 
1817.00, 
1818.00, 
1819.00, 
1820.00, 
1821.00, 
1822.00, 
1823.00, 
1824.00, 
1825.00, 
1826.00, 
1827.00, 
1828.00, 
1829.00, 
1830.00, 
1831.00, 
1832.00, 
1833.00, 
1834.00, 
1835.00, 
1836.00, 
1837.00, 
1838.00, 
1839.00, 
1840.00, 
1841.00, 
1842.00, 
1843.00, 
1844.00, 
1845.00, 
1846.00, 
1847.00, 
1848.00, 
1849.00, 
1850.00, 
1851.00, 
1852.00, 
1853.00, 
1854.00, 
1855.00, 
1856.00, 
1857.00, 
1858.00, 
1859.00, 
1860.00, 
1861.00, 
1862.00, 
1863.00, 
1864.00, 
1865.00, 
1866.00, 
1867.00, 
1868.00, 
1869.00, 
1870.00, 
1871.00, 
1872.00, 
1873.00, 
1874.00, 
1875.00, 
1876.00, 
1877.00, 
1878.00, 
1879.00, 
1880.00, 
1881.00, 
1882.00, 
1883.00, 
1884.00, 
1885.00, 
1886.00, 
1887.00, 
1888.00, 
1889.00, 
1890.00, 
1891.00, 
1892.00, 
1893.00, 
1894.00, 
1895.00, 
1896.00, 
1897.00, 
1898.00, 
1899.00, 
1900.00, 
1901.00, 
1902.00, 
1903.00, 
1904.00, 
1905.00, 
1906.00, 
1907.00, 
1908.00, 
1909.00, 
1910.00, 
1911.00, 
1912.00, 
1913.00, 
1914.00, 
1915.00, 
1916.00, 
1917.00, 
1918.00, 
1919.00, 
1920.00, 
1921.00, 
1922.00, 
1923.00, 
1924.00, 
1925.00, 
1926.00, 
1927.00, 
1928.00, 
1929.00, 
1930.00, 
1931.00, 
1932.00, 
1933.00, 
1934.00, 
1935.00, 
1936.00, 
1937.00, 
1938.00, 
1939.00, 
1940.00, 
1941.00, 
1942.00, 
1943.00, 
1944.00, 
1945.00, 
1946.00, 
1947.00, 
1948.00, 
1949.00, 
1950.00, 
1951.00, 
1952.00, 
1953.00, 
1954.00, 
1955.00, 
1956.00, 
1957.00, 
1958.00, 
1959.00, 
1960.00, 
1961.00, 
1962.00, 
1963.00, 
1964.00, 
1965.00, 
1966.00, 
1967.00, 
1968.00, 
1969.00, 
1970.00, 
1971.00, 
1972.00, 
1973.00, 
1974.00, 
1975.00, 
1976.00, 
1977.00, 
1978.00, 
1979.00, 
1980.00, 
1981.00, 
1982.00, 
1983.00, 
1984.00, 
1985.00, 
1986.00, 
1987.00, 
1988.00, 
1989.00, 
1990.00, 
1991.00, 
1992.00, 
1993.00, 
1994.00, 
1995.00, 
1996.00, 
1997.00, 
1998.00, 
1999.00, 
2000.00, 
2001.00, 
2002.00, 
2003.00, 
2004.00, 
2005.00, 
2006.00, 
2007.00, 
2008.00, 
2009.00, 
2010.00, 
2011.00, 
2012.00, 
2013.00, 
2014.00, 
2015.00, 
2016.00, 
2017.00, 
2018.00, 
2019.00, 
2020.00, 
2021.00, 
2022.00, 
2023.00, 
2024.00, 
2025.00, 
2026.00, 
2027.00, 
2028.00, 
2029.00, 
2030.00, 
2031.00, 
2032.00, 
2033.00, 
2034.00, 
2035.00, 
2036.00, 
2037.00, 
2038.00, 
2039.00, 
2040.00, 
2041.00, 
2042.00, 
2043.00, 
2044.00, 
2045.00, 
2046.00, 
2047.00, 
2048.00, 
2049.00, 
2050.00, 
2051.00, 
2052.00, 
2053.00, 
2054.00, 
2055.00, 
2056.00, 
2057.00, 
2058.00, 
2059.00, 
2060.00, 
2061.00, 
2062.00, 
2063.00, 
2064.00, 
2065.00, 
2066.00, 
2067.00, 
2068.00, 
2069.00, 
2070.00, 
2071.00, 
2072.00, 
2073.00, 
2074.00, 
2075.00, 
2076.00, 
2077.00, 
2078.00, 
2079.00, 
2080.00, 
2081.00, 
2082.00, 
2083.00, 
2084.00, 
2085.00, 
2086.00, 
2087.00, 
2088.00, 
2089.00, 
2090.00, 
2091.00, 
2092.00, 
2093.00, 
2094.00, 
2095.00, 
2096.00, 
2097.00, 
2098.00, 
2099.00, 
2100.00, 
2101.00, 
2102.00, 
2103.00, 
2104.00, 
2105.00, 
2106.00, 
2107.00, 
2108.00, 
2109.00, 
2110.00, 
2111.00, 
2112.00, 
2113.00, 
2114.00, 
2115.00, 
2116.00, 
2117.00, 
2118.00, 
2119.00, 
2120.00, 
2121.00, 
2122.00, 
2123.00, 
2124.00, 
2125.00, 
2126.00, 
2127.00, 
2128.00, 
2129.00, 
2130.00, 
2131.00, 
2132.00, 
2133.00, 
2134.00, 
2135.00, 
2136.00, 
2137.00, 
2138.00, 
2139.00, 
2140.00, 
2141.00, 
2142.00, 
2143.00, 
2144.00, 
2145.00, 
2146.00, 
2147.00, 
2148.00, 
2149.00, 
2150.00, 
2151.00, 
2152.00, 
2153.00, 
2154.00, 
2155.00, 
2156.00, 
2157.00, 
2158.00, 
2159.00, 
2160.00, 
2161.00, 
2162.00, 
2163.00, 
2164.00, 
2165.00, 
2166.00, 
2167.00, 
2168.00, 
2169.00, 
2170.00, 
2171.00, 
2172.00, 
2173.00, 
2174.00, 
2175.00, 
2176.00, 
2177.00, 
2178.00, 
2179.00, 
2180.00, 
2181.00, 
2182.00, 
2183.00, 
2184.00, 
2185.00, 
2186.00, 
2187.00, 
2188.00, 
2189.00, 
2190.00, 
2191.00, 
2192.00, 
2193.00, 
2194.00, 
2195.00, 
2196.00, 
2197.00, 
2198.00, 
2199.00, 
2200.00, 
2201.00, 
2202.00, 
2203.00, 
2204.00, 
2205.00, 
2206.00, 
2207.00, 
2208.00, 
2209.00, 
2210.00, 
2211.00, 
2212.00, 
2213.00, 
2214.00, 
2215.00, 
2216.00, 
2217.00, 
2218.00, 
2219.00, 
2220.00, 
2221.00, 
2222.00, 
2223.00, 
2224.00, 
2225.00, 
2226.00, 
2227.00, 
2228.00, 
2229.00, 
2230.00, 
2231.00, 
2232.00, 
2233.00, 
2234.00, 
2235.00, 
2236.00, 
2237.00, 
2238.00, 
2239.00, 
2240.00, 
2241.00, 
2242.00, 
2243.00, 
2244.00, 
2245.00, 
2246.00, 
2247.00, 
2248.00, 
2249.00, 
2250.00, 
2251.00, 
2252.00, 
2253.00, 
2254.00, 
2255.00, 
2256.00, 
2257.00, 
2258.00, 
2259.00, 
2260.00, 
2261.00, 
2262.00, 
2263.00, 
2264.00, 
2265.00, 
2266.00, 
2267.00, 
2268.00, 
2269.00, 
2270.00, 
2271.00, 
2272.00, 
2273.00, 
2274.00, 
2275.00, 
2276.00, 
2277.00, 
2278.00, 
2279.00, 
2280.00, 
2281.00, 
2282.00, 
2283.00, 
2284.00, 
2285.00, 
2286.00, 
2287.00, 
2288.00, 
2289.00, 
2290.00, 
2291.00, 
2292.00, 
2293.00, 
2294.00, 
2295.00, 
2296.00, 
2297.00, 
2298.00, 
2299.00, 
2300.00, 
2301.00, 
2302.00, 
2303.00, 
2304.00, 
2305.00, 
2306.00, 
2307.00, 
2308.00, 
2309.00, 
2310.00, 
2311.00, 
2312.00, 
2313.00, 
2314.00, 
2315.00, 
2316.00, 
2317.00, 
2318.00, 
2319.00, 
2320.00, 
2321.00, 
2322.00, 
2323.00, 
2324.00, 
2325.00, 
2326.00, 
2327.00, 
2328.00, 
2329.00, 
2330.00, 
2331.00, 
2332.00, 
2333.00, 
2334.00, 
2335.00, 
2336.00, 
2337.00, 
2338.00, 
2339.00, 
2340.00, 
2341.00, 
2342.00, 
2343.00, 
2344.00, 
2345.00, 
2346.00, 
2347.00, 
2348.00, 
2349.00, 
2350.00, 
2351.00, 
2352.00, 
2353.00, 
2354.00, 
2355.00, 
2356.00, 
2357.00, 
2358.00, 
2359.00, 
2360.00, 
2361.00, 
2362.00, 
2363.00, 
2364.00, 
2365.00, 
2366.00, 
2367.00, 
2368.00, 
2369.00, 
2370.00, 
2371.00, 
2372.00, 
2373.00, 
2374.00, 
2375.00, 
2376.00, 
2377.00, 
2378.00, 
2379.00, 
2380.00, 
2381.00, 
2382.00, 
2383.00, 
2384.00, 
2385.00, 
2386.00, 
2387.00, 
2388.00, 
2389.00, 
2390.00, 
2391.00, 
2392.00, 
2393.00, 
2394.00, 
2395.00, 
2396.00, 
2397.00, 
2398.00, 
2399.00, 
2400.00, 
2401.00, 
2402.00, 
2403.00, 
2404.00, 
2405.00, 
2406.00, 
2407.00, 
2408.00, 
2409.00, 
2410.00, 
2411.00, 
2412.00, 
2413.00, 
2414.00, 
2415.00, 
2416.00, 
2417.00, 
2418.00, 
2419.00, 
2420.00, 
2421.00, 
2422.00, 
2423.00, 
2424.00, 
2425.00, 
2426.00, 
2427.00, 
2428.00, 
2429.00, 
2430.00, 
2431.00, 
2432.00, 
2433.00, 
2434.00, 
2435.00, 
2436.00, 
2437.00, 
2438.00, 
2439.00, 
2440.00, 
2441.00, 
2442.00, 
2443.00, 
2444.00, 
2445.00, 
2446.00, 
2447.00, 
2448.00, 
2449.00, 
2450.00, 
2451.00, 
2452.00, 
2453.00, 
2454.00, 
2455.00, 
2456.00, 
2457.00, 
2458.00, 
2459.00, 
2460.00, 
2461.00, 
2462.00, 
2463.00, 
2464.00, 
2465.00, 
2466.00, 
2467.00, 
2468.00, 
2469.00, 
2470.00, 
2471.00, 
2472.00, 
2473.00, 
2474.00, 
2475.00, 
2476.00, 
2477.00, 
2478.00, 
2479.00, 
2480.00, 
2481.00, 
2482.00, 
2483.00, 
2484.00, 
2485.00, 
2486.00, 
2487.00, 
2488.00, 
2489.00, 
2490.00, 
2491.00, 
2492.00, 
2493.00, 
2494.00, 
2495.00, 
2496.00, 
2497.00, 
2498.00, 
2499.00, 
2500.00, 
2501.00, 
2502.00, 
2503.00, 
2504.00, 
2505.00, 
2506.00, 
2507.00, 
2508.00, 
2509.00, 
2510.00, 
2511.00, 
2512.00, 
2513.00, 
2514.00, 
2515.00, 
2516.00, 
2517.00, 
2518.00, 
2519.00, 
2520.00, 
2521.00, 
2522.00, 
2523.00, 
2524.00, 
2525.00, 
2526.00, 
2527.00, 
2528.00, 
2529.00, 
2530.00, 
2531.00, 
2532.00, 
2533.00, 
2534.00, 
2535.00, 
2536.00, 
2537.00, 
2538.00, 
2539.00, 
2540.00, 
2541.00, 
2542.00, 
2543.00, 
2544.00, 
2545.00, 
2546.00, 
2547.00, 
2548.00, 
2549.00, 
2550.00, 
2551.00, 
2552.00, 
2553.00, 
2554.00, 
2555.00, 
2556.00, 
2557.00, 
2558.00, 
2559.00, 
2560.00, 
2561.00, 
2562.00, 
2563.00, 
2564.00, 
2565.00, 
2566.00, 
2567.00, 
2568.00, 
2569.00, 
2570.00, 
2571.00, 
2572.00, 
2573.00, 
2574.00, 
2575.00, 
2576.00, 
2577.00, 
2578.00, 
2579.00, 
2580.00, 
2581.00, 
2582.00, 
2583.00, 
2584.00, 
2585.00, 
2586.00, 
2587.00, 
2588.00, 
2589.00, 
2590.00, 
2591.00, 
2592.00, 
2593.00, 
2594.00, 
2595.00, 
2596.00, 
2597.00, 
2598.00, 
2599.00, 
2600.00, 
