"2cP2 - RawData"
"Wavelength nm.","T%"
200.00,0.003
201.00,0.002
202.00,0.001
203.00,-0.000
204.00,0.002
205.00,0.001
206.00,0.003
207.00,0.004
208.00,0.002
209.00,0.002
210.00,0.002
211.00,0.003
212.00,0.003
213.00,0.001
214.00,0.002
215.00,0.002
216.00,0.001
217.00,-0.000
218.00,0.000
219.00,0.001
220.00,0.003
221.00,0.001
222.00,0.003
223.00,0.002
224.00,0.001
225.00,0.003
226.00,-0.002
227.00,0.002
228.00,0.004
229.00,0.001
230.00,-0.002
231.00,0.001
232.00,0.001
233.00,0.002
234.00,-0.000
235.00,0.001
236.00,0.002
237.00,0.001
238.00,0.000
239.00,0.000
240.00,-0.000
241.00,0.001
242.00,0.000
243.00,-0.003
244.00,0.002
245.00,0.000
246.00,0.001
247.00,0.001
248.00,0.001
249.00,-0.000
250.00,0.002
251.00,0.001
252.00,0.000
253.00,0.001
254.00,-0.000
255.00,0.002
256.00,-0.000
257.00,0.001
258.00,-0.001
259.00,0.001
260.00,0.001
261.00,-0.001
262.00,0.002
263.00,0.001
264.00,0.000
265.00,-0.000
266.00,-0.001
267.00,0.002
268.00,0.000
269.00,-0.001
270.00,-0.000
271.00,-0.000
272.00,0.001
273.00,0.001
274.00,0.001
275.00,-0.001
276.00,-0.001
277.00,-0.000
278.00,0.001
279.00,-0.001
280.00,0.000
281.00,0.002
282.00,-0.001
283.00,-0.000
284.00,0.002
285.00,0.000
286.00,-0.000
287.00,-0.002
288.00,-0.000
289.00,0.001
290.00,0.001
291.00,0.001
292.00,0.002
293.00,-0.001
294.00,-0.001
295.00,-0.001
296.00,-0.000
297.00,0.001
298.00,0.002
299.00,0.003
300.00,0.004
301.00,0.007
302.00,0.008
303.00,0.011
304.00,0.019
305.00,0.031
306.00,0.046
307.00,0.069
308.00,0.107
309.00,0.166
310.00,0.233
311.00,0.313
312.00,0.434
313.00,0.596
314.00,0.760
315.00,1.023
316.00,1.307
317.00,1.658
318.00,2.039
319.00,2.492
320.00,3.035
321.00,3.685
322.00,4.376
323.00,5.147
324.00,5.978
325.00,6.800
326.00,7.662
327.00,8.698
328.00,9.700
329.00,10.729
330.00,11.854
331.00,12.970
332.00,14.154
333.00,15.327
334.00,16.399
335.00,17.608
336.00,18.761
337.00,19.930
338.00,21.071
339.00,22.207
340.00,23.309
341.00,24.366
342.00,25.417
343.00,26.413
344.00,27.331
345.00,28.237
346.00,29.054
347.00,29.919
348.00,30.715
349.00,31.388
350.00,32.172
351.00,32.778
352.00,33.378
353.00,33.974
354.00,34.572
355.00,35.109
356.00,35.669
357.00,36.191
358.00,36.535
359.00,36.976
360.00,37.361
361.00,37.679
362.00,38.009
363.00,38.467
364.00,38.695
365.00,38.797
366.00,39.216
367.00,39.459
368.00,39.614
369.00,39.763
370.00,39.965
371.00,40.050
372.00,40.148
373.00,40.221
374.00,40.291
375.00,40.308
376.00,40.333
377.00,40.312
378.00,40.246
379.00,40.240
380.00,40.242
381.00,40.309
382.00,40.370
383.00,40.440
384.00,40.525
385.00,40.658
386.00,40.793
387.00,40.934
388.00,41.091
389.00,41.129
390.00,41.273
391.00,41.250
392.00,41.468
393.00,41.527
394.00,41.653
395.00,41.748
396.00,41.758
397.00,41.853
398.00,41.896
399.00,41.923
400.00,41.959
401.00,41.997
402.00,42.011
403.00,42.054
404.00,42.125
405.00,42.145
406.00,42.115
407.00,42.035
408.00,42.037
409.00,41.945
410.00,41.935
411.00,41.897
412.00,41.862
413.00,41.859
414.00,41.923
415.00,41.901
416.00,41.924
417.00,41.980
418.00,41.911
419.00,42.010
420.00,41.965
421.00,42.093
422.00,42.138
423.00,42.153
424.00,42.188
425.00,42.251
426.00,42.158
427.00,42.239
428.00,42.210
429.00,42.259
430.00,42.241
431.00,42.312
432.00,42.329
433.00,42.341
434.00,42.382
435.00,42.306
436.00,42.434
437.00,42.504
438.00,42.552
439.00,42.588
440.00,42.636
441.00,42.666
442.00,42.695
443.00,42.739
444.00,42.824
445.00,42.824
446.00,42.941
447.00,43.002
448.00,43.070
449.00,43.110
450.00,43.175
451.00,43.273
452.00,43.295
453.00,43.388
454.00,43.404
455.00,43.473
456.00,43.519
457.00,43.611
458.00,43.624
459.00,43.670
460.00,43.780
461.00,43.845
462.00,43.889
463.00,43.967
464.00,44.076
465.00,44.067
466.00,44.131
467.00,44.309
468.00,44.142
469.00,44.393
470.00,44.398
471.00,44.358
472.00,44.412
473.00,44.480
474.00,44.489
475.00,44.548
476.00,44.581
477.00,44.597
478.00,44.687
479.00,44.761
480.00,44.850
481.00,44.959
482.00,45.005
483.00,45.068
484.00,45.215
485.00,45.300
486.00,45.395
487.00,45.492
488.00,45.508
489.00,45.633
490.00,45.744
491.00,45.765
492.00,45.916
493.00,45.913
494.00,45.880
495.00,45.858
496.00,46.040
497.00,46.126
498.00,46.131
499.00,46.293
500.00,46.274
501.00,46.319
502.00,46.466
503.00,46.521
504.00,46.576
505.00,46.631
506.00,46.656
507.00,46.679
508.00,46.764
509.00,46.857
510.00,46.898
511.00,46.939
512.00,47.019
513.00,47.105
514.00,47.165
515.00,47.191
516.00,47.268
517.00,47.269
518.00,47.476
519.00,47.441
520.00,47.477
521.00,47.447
522.00,47.540
523.00,47.544
524.00,47.539
525.00,47.605
526.00,47.707
527.00,47.760
528.00,47.760
529.00,47.809
530.00,47.813
531.00,48.023
532.00,48.058
533.00,47.995
534.00,48.096
535.00,48.164
536.00,48.202
537.00,48.234
538.00,48.346
539.00,48.345
540.00,48.378
541.00,48.399
542.00,48.406
543.00,48.441
544.00,48.476
545.00,48.549
546.00,48.539
547.00,48.600
548.00,48.677
549.00,48.686
550.00,48.795
551.00,48.819
552.00,48.791
553.00,48.839
554.00,48.917
555.00,48.984
556.00,49.039
557.00,49.008
558.00,49.013
559.00,49.083
560.00,49.146
561.00,49.091
562.00,49.165
563.00,49.101
564.00,49.237
565.00,49.189
566.00,49.161
567.00,49.227
568.00,49.191
569.00,49.210
570.00,49.237
571.00,49.302
572.00,49.249
573.00,49.236
574.00,49.312
575.00,49.309
576.00,49.289
577.00,49.385
578.00,49.427
579.00,49.446
580.00,49.533
581.00,49.606
582.00,49.685
583.00,49.708
584.00,49.817
585.00,49.829
586.00,49.927
587.00,50.088
588.00,49.842
589.00,49.862
590.00,49.934
591.00,49.862
592.00,49.928
593.00,49.992
594.00,49.906
595.00,49.931
596.00,50.014
597.00,50.065
598.00,50.084
599.00,50.055
600.00,50.214
601.00,50.168
602.00,50.108
603.00,50.149
604.00,50.180
605.00,50.197
606.00,50.270
607.00,50.279
608.00,50.352
609.00,50.214
610.00,50.128
611.00,50.228
612.00,50.303
613.00,50.299
614.00,50.319
615.00,50.316
616.00,50.458
617.00,50.353
618.00,50.512
619.00,50.481
620.00,50.334
621.00,50.387
622.00,50.455
623.00,50.511
624.00,50.463
625.00,50.492
626.00,50.468
627.00,50.531
628.00,50.529
629.00,50.457
630.00,50.516
631.00,50.535
632.00,50.573
633.00,50.623
634.00,50.541
635.00,50.621
636.00,50.677
637.00,50.747
638.00,50.717
639.00,50.737
640.00,50.662
641.00,50.616
642.00,50.722
643.00,50.778
644.00,50.791
645.00,50.750
646.00,50.841
647.00,50.856
648.00,50.858
649.00,50.830
650.00,50.874
651.00,50.866
652.00,50.896
653.00,50.849
654.00,50.927
655.00,50.907
656.00,50.995
657.00,51.084
658.00,50.956
659.00,50.974
660.00,50.979
661.00,50.879
662.00,51.034
663.00,51.109
664.00,51.107
665.00,51.078
666.00,51.150
667.00,51.220
668.00,51.130
669.00,51.287
670.00,51.213
671.00,51.139
672.00,51.228
673.00,51.266
674.00,51.287
675.00,51.204
676.00,51.330
677.00,51.246
678.00,51.246
679.00,51.132
680.00,51.253
681.00,51.188
682.00,51.059
683.00,51.187
684.00,51.230
685.00,51.259
686.00,51.029
687.00,51.240
688.00,51.448
689.00,51.308
690.00,51.331
691.00,51.361
692.00,51.271
693.00,51.270
694.00,51.392
695.00,51.398
696.00,51.314
697.00,51.404
698.00,51.409
699.00,51.429
700.00,51.520
701.00,51.373
702.00,51.477
703.00,51.519
704.00,51.452
705.00,51.349
706.00,51.524
707.00,51.493
708.00,51.250
709.00,51.408
710.00,51.629
711.00,51.463
712.00,51.410
713.00,51.478
714.00,51.252
715.00,51.328
716.00,51.261
717.00,51.315
718.00,51.431
719.00,51.388
720.00,51.237
721.00,55.682
722.00,55.645
723.00,55.635
724.00,55.533
725.00,55.465
726.00,55.390
727.00,55.355
728.00,55.301
729.00,55.283
730.00,55.235
731.00,55.115
732.00,55.147
733.00,55.182
734.00,55.117
735.00,55.108
736.00,55.090
737.00,55.026
738.00,54.922
739.00,54.955
740.00,54.932
741.00,54.903
742.00,54.847
743.00,54.852
744.00,54.834
745.00,54.699
746.00,54.567
747.00,54.596
748.00,54.537
749.00,54.476
750.00,54.439
751.00,54.396
752.00,54.297
753.00,54.299
754.00,54.270
755.00,54.230
756.00,54.238
757.00,54.158
758.00,54.130
759.00,54.120
760.00,54.048
761.00,53.998
762.00,53.966
763.00,53.862
764.00,53.946
765.00,53.947
766.00,53.864
767.00,53.775
768.00,53.816
769.00,53.761
770.00,53.810
771.00,53.611
772.00,53.736
773.00,53.604
774.00,53.675
775.00,53.631
776.00,53.567
777.00,53.570
778.00,53.491
779.00,53.551
780.00,53.440
781.00,53.467
782.00,53.392
783.00,53.316
784.00,53.398
785.00,53.267
786.00,53.358
787.00,53.338
788.00,53.249
789.00,53.199
790.00,53.008
791.00,53.092
792.00,53.032
793.00,52.993
794.00,52.967
795.00,52.989
796.00,52.908
797.00,52.834
798.00,52.854
799.00,52.861
800.00,52.763
801.00,52.689
802.00,52.770
803.00,52.736
804.00,52.552
805.00,52.662
806.00,52.545
807.00,52.544
808.00,52.493
809.00,52.526
810.00,52.482
811.00,52.434
812.00,52.413
813.00,52.304
814.00,52.344
815.00,52.305
816.00,52.271
817.00,52.244
818.00,52.146
819.00,52.161
820.00,52.121
821.00,52.071
822.00,52.092
823.00,52.041
824.00,52.016
825.00,51.980
826.00,52.052
827.00,52.058
828.00,51.913
829.00,51.759
830.00,51.873
831.00,54.514
832.00,54.434
833.00,54.418
834.00,54.375
835.00,54.294
836.00,54.326
837.00,54.253
838.00,54.216
839.00,54.242
840.00,54.160
841.00,54.174
842.00,54.122
843.00,54.121
844.00,54.118
845.00,54.024
846.00,54.049
847.00,54.010
848.00,53.962
849.00,53.886
850.00,53.853
851.00,53.774
852.00,53.813
853.00,53.756
854.00,53.710
855.00,53.617
856.00,53.661
857.00,53.604
858.00,53.536
859.00,53.521
860.00,53.509
861.00,53.520
862.00,53.437
863.00,53.483
864.00,53.401
865.00,53.416
866.00,53.388
867.00,53.384
868.00,53.362
869.00,53.301
870.00,53.308
871.00,53.267
872.00,53.320
873.00,53.234
874.00,53.235
875.00,53.355
876.00,53.222
877.00,53.175
878.00,53.154
879.00,53.115
880.00,53.122
881.00,53.080
882.00,53.081
883.00,53.049
884.00,53.039
885.00,52.949
886.00,52.968
887.00,52.953
888.00,52.900
889.00,53.053
890.00,52.887
891.00,52.825
892.00,52.850
893.00,52.794
894.00,52.774
895.00,52.755
896.00,52.732
897.00,52.710
898.00,52.673
899.00,52.731
900.00,52.676
901.00,52.651
902.00,52.638
903.00,52.762
904.00,52.583
905.00,52.563
906.00,52.565
907.00,52.517
908.00,52.483
909.00,52.495
910.00,52.455
911.00,52.423
912.00,52.434
913.00,52.344
914.00,52.341
915.00,52.322
916.00,52.314
917.00,52.252
918.00,52.256
919.00,52.263
920.00,52.191
921.00,52.186
922.00,52.163
923.00,52.149
924.00,52.094
925.00,52.106
926.00,52.086
927.00,52.063
928.00,52.028
929.00,52.086
930.00,51.994
931.00,52.002
932.00,51.968
933.00,51.968
934.00,51.925
935.00,51.903
936.00,51.866
937.00,51.846
938.00,51.813
939.00,51.831
940.00,51.801
941.00,51.793
942.00,51.753
943.00,51.755
944.00,51.702
945.00,51.684
946.00,51.688
947.00,51.643
948.00,51.621
949.00,51.614
950.00,51.595
951.00,51.576
952.00,51.527
953.00,51.502
954.00,51.490
955.00,51.441
956.00,51.427
957.00,51.394
958.00,51.414
959.00,51.286
960.00,51.337
961.00,51.314
962.00,51.349
963.00,51.293
964.00,51.277
965.00,51.264
966.00,51.247
967.00,51.253
968.00,51.218
969.00,51.241
970.00,51.219
971.00,51.241
972.00,51.206
973.00,51.230
974.00,51.244
975.00,51.194
976.00,51.235
977.00,51.203
978.00,51.243
979.00,51.208
980.00,51.213
981.00,51.216
982.00,51.183
983.00,51.191
984.00,51.174
985.00,51.198
986.00,51.139
987.00,51.154
988.00,51.151
989.00,51.161
990.00,51.133
991.00,51.083
992.00,51.122
993.00,51.076
994.00,51.062
995.00,51.067
996.00,51.042
997.00,51.024
998.00,51.012
999.00,51.033
1000.00,50.982
1001.00,50.986
1002.00,50.958
1003.00,50.988
1004.00,50.969
1005.00,50.922
1006.00,50.989
1007.00,50.905
1008.00,50.899
1009.00,50.885
1010.00,50.872
1011.00,50.858
1012.00,50.816
1013.00,50.812
1014.00,50.784
1015.00,50.795
1016.00,50.746
1017.00,50.752
1018.00,50.745
1019.00,50.711
1020.00,50.711
1021.00,50.719
1022.00,50.671
1023.00,50.625
1024.00,50.634
1025.00,50.621
1026.00,50.610
1027.00,50.567
1028.00,50.569
1029.00,50.562
1030.00,50.528
1031.00,50.545
1032.00,50.490
1033.00,50.495
1034.00,50.468
1035.00,50.430
1036.00,50.417
1037.00,50.398
1038.00,50.383
1039.00,50.358
1040.00,50.341
1041.00,50.309
1042.00,50.304
1043.00,50.255
1044.00,50.294
1045.00,50.281
1046.00,50.251
1047.00,50.283
1048.00,50.289
1049.00,50.299
1050.00,50.307
1051.00,50.332
1052.00,50.337
1053.00,50.353
1054.00,50.355
1055.00,50.381
1056.00,50.404
1057.00,50.393
1058.00,50.379
1059.00,50.380
1060.00,50.364
1061.00,50.367
1062.00,50.337
1063.00,50.343
1064.00,50.335
1065.00,50.310
1066.00,50.321
1067.00,50.343
1068.00,50.318
1069.00,50.282
1070.00,50.286
1071.00,50.260
1072.00,50.272
1073.00,50.249
1074.00,50.233
1075.00,50.238
1076.00,50.211
1077.00,50.207
1078.00,50.211
1079.00,50.193
1080.00,50.206
1081.00,50.177
1082.00,50.171
1083.00,50.169
1084.00,50.155
1085.00,50.151
1086.00,50.157
1087.00,50.129
1088.00,50.108
1089.00,50.111
1090.00,50.102
1091.00,50.097
1092.00,50.080
1093.00,50.054
1094.00,50.056
1095.00,50.033
1096.00,50.017
1097.00,50.026
1098.00,50.010
1099.00,50.007
1100.00,50.002
1101.00,49.986
1102.00,49.975
1103.00,49.987
1104.00,49.967
1105.00,49.964
1106.00,49.948
1107.00,49.934
1108.00,49.943
1109.00,49.919
1110.00,49.924
1111.00,49.919
1112.00,49.909
1113.00,49.920
1114.00,49.891
1115.00,49.884
1116.00,49.881
1117.00,49.856
1118.00,49.853
1119.00,49.855
1120.00,49.851
1121.00,49.834
1122.00,49.822
1123.00,49.808
1124.00,49.808
1125.00,49.787
1126.00,49.778
1127.00,49.790
1128.00,49.785
1129.00,49.745
1130.00,49.751
1131.00,49.747
1132.00,49.740
1133.00,49.737
1134.00,49.725
1135.00,49.716
1136.00,49.718
1137.00,49.709
1138.00,49.715
1139.00,49.704
1140.00,49.690
1141.00,49.696
1142.00,49.675
1143.00,49.687
1144.00,49.669
1145.00,49.659
1146.00,49.673
1147.00,49.665
1148.00,49.661
1149.00,49.671
1150.00,49.663
1151.00,49.661
1152.00,49.652
1153.00,49.639
1154.00,49.628
1155.00,49.645
1156.00,49.617
1157.00,49.640
1158.00,49.634
1159.00,49.610
1160.00,49.611
1161.00,49.612
1162.00,49.605
1163.00,49.609
1164.00,49.603
1165.00,49.595
1166.00,49.608
1167.00,49.593
1168.00,49.609
1169.00,49.613
1170.00,49.603
1171.00,49.585
1172.00,49.593
1173.00,49.597
1174.00,49.614
1175.00,49.576
1176.00,49.592
1177.00,49.589
1178.00,49.576
1179.00,49.599
1180.00,49.585
1181.00,49.591
1182.00,49.587
1183.00,49.568
1184.00,49.567
1185.00,49.592
1186.00,49.558
1187.00,49.566
1188.00,49.567
1189.00,49.555
1190.00,49.555
1191.00,49.552
1192.00,49.549
1193.00,49.541
1194.00,49.549
1195.00,49.512
1196.00,49.550
1197.00,49.550
1198.00,49.549
1199.00,49.545
1200.00,49.546
1201.00,49.578
1202.00,49.556
1203.00,49.536
1204.00,49.533
1205.00,49.538
1206.00,49.525
1207.00,49.560
1208.00,49.525
1209.00,49.519
1210.00,49.539
1211.00,49.532
1212.00,49.546
1213.00,49.507
1214.00,49.535
1215.00,49.518
1216.00,49.518
1217.00,49.520
1218.00,49.521
1219.00,49.515
1220.00,49.498
1221.00,49.537
1222.00,49.500
1223.00,49.528
1224.00,49.518
1225.00,49.503
1226.00,49.513
1227.00,49.498
1228.00,49.507
1229.00,49.514
1230.00,49.557
1231.00,49.537
1232.00,49.570
1233.00,49.549
1234.00,49.576
1235.00,49.601
1236.00,49.571
1237.00,49.574
1238.00,49.569
1239.00,49.564
1240.00,49.572
1241.00,49.568
1242.00,49.569
1243.00,49.581
1244.00,49.548
1245.00,49.577
1246.00,49.580
1247.00,49.580
1248.00,49.586
1249.00,49.590
1250.00,49.604
1251.00,49.599
1252.00,49.605
1253.00,49.584
1254.00,49.613
1255.00,49.597
1256.00,49.595
1257.00,49.578
1258.00,49.617
1259.00,49.615
1260.00,49.628
1261.00,49.619
1262.00,49.632
1263.00,49.626
1264.00,49.633
1265.00,49.638
1266.00,49.632
1267.00,49.642
1268.00,49.657
1269.00,49.644
1270.00,49.670
1271.00,49.661
1272.00,49.669
1273.00,49.682
1274.00,49.668
1275.00,49.671
1276.00,49.680
1277.00,49.678
1278.00,49.689
1279.00,49.697
1280.00,49.691
1281.00,49.693
1282.00,49.702
1283.00,49.688
1284.00,49.745
1285.00,49.706
1286.00,49.704
1287.00,49.702
1288.00,49.707
1289.00,49.700
1290.00,49.721
1291.00,49.715
1292.00,49.727
1293.00,49.722
1294.00,49.744
1295.00,49.761
1296.00,49.753
1297.00,49.766
1298.00,49.777
1299.00,49.749
1300.00,49.769
1301.00,49.774
1302.00,49.763
1303.00,49.792
1304.00,49.765
1305.00,49.773
1306.00,49.806
1307.00,49.796
1308.00,49.805
1309.00,49.821
1310.00,49.816
1311.00,49.813
1312.00,49.828
1313.00,49.823
1314.00,49.839
1315.00,49.852
1316.00,49.834
1317.00,49.871
1318.00,49.850
1319.00,49.858
1320.00,49.887
1321.00,50.033
1322.00,50.048
1323.00,50.031
1324.00,50.025
1325.00,50.010
1326.00,50.055
1327.00,50.020
1328.00,50.023
1329.00,50.031
1330.00,50.030
1331.00,50.033
1332.00,50.001
1333.00,50.138
1334.00,50.046
1335.00,50.070
1336.00,50.095
1337.00,50.120
1338.00,50.165
1339.00,50.221
1340.00,50.286
1341.00,50.335
1342.00,50.418
1343.00,50.462
1344.00,50.491
1345.00,50.573
1346.00,50.594
1347.00,50.642
1348.00,50.665
1349.00,50.662
1350.00,50.694
1351.00,50.719
1352.00,50.694
1353.00,50.732
1354.00,50.743
1355.00,50.668
1356.00,50.767
1357.00,50.741
1358.00,50.720
1359.00,50.763
1360.00,50.799
1361.00,50.828
1362.00,50.667
1363.00,50.849
1364.00,50.828
1365.00,50.729
1366.00,50.791
1367.00,50.756
1368.00,50.698
1369.00,50.730
1370.00,50.740
1371.00,50.674
1372.00,50.735
1373.00,50.730
1374.00,50.727
1375.00,50.716
1376.00,50.724
1377.00,50.714
1378.00,50.765
1379.00,50.719
1380.00,50.743
1381.00,50.732
1382.00,50.618
1383.00,50.714
1384.00,50.647
1385.00,50.661
1386.00,50.751
1387.00,50.631
1388.00,50.620
1389.00,50.627
1390.00,50.765
1391.00,50.660
1392.00,50.687
1393.00,50.696
1394.00,50.676
1395.00,50.574
1396.00,50.585
1397.00,50.651
1398.00,50.742
1399.00,50.696
1400.00,50.641
1401.00,50.682
1402.00,50.713
1403.00,50.699
1404.00,50.693
1405.00,50.767
1406.00,50.715
1407.00,50.736
1408.00,50.785
1409.00,50.715
1410.00,50.773
1411.00,50.777
1412.00,50.783
1413.00,50.709
1414.00,50.781
1415.00,50.795
1416.00,50.826
1417.00,50.831
1418.00,50.802
1419.00,50.828
1420.00,50.865
1421.00,50.845
1422.00,50.885
1423.00,50.878
1424.00,50.892
1425.00,50.921
1426.00,50.913
1427.00,50.942
1428.00,50.932
1429.00,50.940
1430.00,50.979
1431.00,50.974
1432.00,50.985
1433.00,51.034
1434.00,51.014
1435.00,51.059
1436.00,51.074
1437.00,51.057
1438.00,51.078
1439.00,51.112
1440.00,51.108
1441.00,51.139
1442.00,51.129
1443.00,51.155
1444.00,51.171
1445.00,51.125
1446.00,51.176
1447.00,51.212
1448.00,51.240
1449.00,51.247
1450.00,51.243
1451.00,51.251
1452.00,51.264
1453.00,51.299
1454.00,51.282
1455.00,51.328
1456.00,51.331
1457.00,51.320
1458.00,51.356
1459.00,51.364
1460.00,51.400
1461.00,51.400
1462.00,51.409
1463.00,51.432
1464.00,51.449
1465.00,51.456
1466.00,51.471
1467.00,51.479
1468.00,51.524
1469.00,51.518
1470.00,51.523
1471.00,51.544
1472.00,51.556
1473.00,51.553
1474.00,51.600
1475.00,51.605
1476.00,51.606
1477.00,51.612
1478.00,51.626
1479.00,51.640
1480.00,51.661
1481.00,51.641
1482.00,51.674
1483.00,51.678
1484.00,51.680
1485.00,51.715
1486.00,51.710
1487.00,51.722
1488.00,51.742
1489.00,51.732
1490.00,51.761
1491.00,51.763
1492.00,51.761
1493.00,51.771
1494.00,51.785
1495.00,51.779
1496.00,51.809
1497.00,51.835
1498.00,51.816
1499.00,51.850
1500.00,51.858
1501.00, 
1502.00, 
1503.00, 
1504.00, 
1505.00, 
1506.00, 
1507.00, 
1508.00, 
1509.00, 
1510.00, 
1511.00, 
1512.00, 
1513.00, 
1514.00, 
1515.00, 
1516.00, 
1517.00, 
1518.00, 
1519.00, 
1520.00, 
1521.00, 
1522.00, 
1523.00, 
1524.00, 
1525.00, 
1526.00, 
1527.00, 
1528.00, 
1529.00, 
1530.00, 
1531.00, 
1532.00, 
1533.00, 
1534.00, 
1535.00, 
1536.00, 
1537.00, 
1538.00, 
1539.00, 
1540.00, 
1541.00, 
1542.00, 
1543.00, 
1544.00, 
1545.00, 
1546.00, 
1547.00, 
1548.00, 
1549.00, 
1550.00, 
1551.00, 
1552.00, 
1553.00, 
1554.00, 
1555.00, 
1556.00, 
1557.00, 
1558.00, 
1559.00, 
1560.00, 
1561.00, 
1562.00, 
1563.00, 
1564.00, 
1565.00, 
1566.00, 
1567.00, 
1568.00, 
1569.00, 
1570.00, 
1571.00, 
1572.00, 
1573.00, 
1574.00, 
1575.00, 
1576.00, 
1577.00, 
1578.00, 
1579.00, 
1580.00, 
1581.00, 
1582.00, 
1583.00, 
1584.00, 
1585.00, 
1586.00, 
1587.00, 
1588.00, 
1589.00, 
1590.00, 
1591.00, 
1592.00, 
1593.00, 
1594.00, 
1595.00, 
1596.00, 
1597.00, 
1598.00, 
1599.00, 
1600.00, 
1601.00, 
1602.00, 
1603.00, 
1604.00, 
1605.00, 
1606.00, 
1607.00, 
1608.00, 
1609.00, 
1610.00, 
1611.00, 
1612.00, 
1613.00, 
1614.00, 
1615.00, 
1616.00, 
1617.00, 
1618.00, 
1619.00, 
1620.00, 
1621.00, 
1622.00, 
1623.00, 
1624.00, 
1625.00, 
1626.00, 
1627.00, 
1628.00, 
1629.00, 
1630.00, 
1631.00, 
1632.00, 
1633.00, 
1634.00, 
1635.00, 
1636.00, 
1637.00, 
1638.00, 
1639.00, 
1640.00, 
1641.00, 
1642.00, 
1643.00, 
1644.00, 
1645.00, 
1646.00, 
1647.00, 
1648.00, 
1649.00, 
1650.00, 
1651.00, 
1652.00, 
1653.00, 
1654.00, 
1655.00, 
1656.00, 
1657.00, 
1658.00, 
1659.00, 
1660.00, 
1661.00, 
1662.00, 
1663.00, 
1664.00, 
1665.00, 
1666.00, 
1667.00, 
1668.00, 
1669.00, 
1670.00, 
1671.00, 
1672.00, 
1673.00, 
1674.00, 
1675.00, 
1676.00, 
1677.00, 
1678.00, 
1679.00, 
1680.00, 
1681.00, 
1682.00, 
1683.00, 
1684.00, 
1685.00, 
1686.00, 
1687.00, 
1688.00, 
1689.00, 
1690.00, 
1691.00, 
1692.00, 
1693.00, 
1694.00, 
1695.00, 
1696.00, 
1697.00, 
1698.00, 
1699.00, 
1700.00, 
1701.00, 
1702.00, 
1703.00, 
1704.00, 
1705.00, 
1706.00, 
1707.00, 
1708.00, 
1709.00, 
1710.00, 
1711.00, 
1712.00, 
1713.00, 
1714.00, 
1715.00, 
1716.00, 
1717.00, 
1718.00, 
1719.00, 
1720.00, 
1721.00, 
1722.00, 
1723.00, 
1724.00, 
1725.00, 
1726.00, 
1727.00, 
1728.00, 
1729.00, 
1730.00, 
1731.00, 
1732.00, 
1733.00, 
1734.00, 
1735.00, 
1736.00, 
1737.00, 
1738.00, 
1739.00, 
1740.00, 
1741.00, 
1742.00, 
1743.00, 
1744.00, 
1745.00, 
1746.00, 
1747.00, 
1748.00, 
1749.00, 
1750.00, 
1751.00, 
1752.00, 
1753.00, 
1754.00, 
1755.00, 
1756.00, 
1757.00, 
1758.00, 
1759.00, 
1760.00, 
1761.00, 
1762.00, 
1763.00, 
1764.00, 
1765.00, 
1766.00, 
1767.00, 
1768.00, 
1769.00, 
1770.00, 
1771.00, 
1772.00, 
1773.00, 
1774.00, 
1775.00, 
1776.00, 
1777.00, 
1778.00, 
1779.00, 
1780.00, 
1781.00, 
1782.00, 
1783.00, 
1784.00, 
1785.00, 
1786.00, 
1787.00, 
1788.00, 
1789.00, 
1790.00, 
1791.00, 
1792.00, 
1793.00, 
1794.00, 
1795.00, 
1796.00, 
1797.00, 
1798.00, 
1799.00, 
1800.00, 
1801.00, 
1802.00, 
1803.00, 
1804.00, 
1805.00, 
1806.00, 
1807.00, 
1808.00, 
1809.00, 
1810.00, 
1811.00, 
1812.00, 
1813.00, 
1814.00, 
1815.00, 
1816.00, 
1817.00, 
1818.00, 
1819.00, 
1820.00, 
1821.00, 
1822.00, 
1823.00, 
1824.00, 
1825.00, 
1826.00, 
1827.00, 
1828.00, 
1829.00, 
1830.00, 
1831.00, 
1832.00, 
1833.00, 
1834.00, 
1835.00, 
1836.00, 
1837.00, 
1838.00, 
1839.00, 
1840.00, 
1841.00, 
1842.00, 
1843.00, 
1844.00, 
1845.00, 
1846.00, 
1847.00, 
1848.00, 
1849.00, 
1850.00, 
1851.00, 
1852.00, 
1853.00, 
1854.00, 
1855.00, 
1856.00, 
1857.00, 
1858.00, 
1859.00, 
1860.00, 
1861.00, 
1862.00, 
1863.00, 
1864.00, 
1865.00, 
1866.00, 
1867.00, 
1868.00, 
1869.00, 
1870.00, 
1871.00, 
1872.00, 
1873.00, 
1874.00, 
1875.00, 
1876.00, 
1877.00, 
1878.00, 
1879.00, 
1880.00, 
1881.00, 
1882.00, 
1883.00, 
1884.00, 
1885.00, 
1886.00, 
1887.00, 
1888.00, 
1889.00, 
1890.00, 
1891.00, 
1892.00, 
1893.00, 
1894.00, 
1895.00, 
1896.00, 
1897.00, 
1898.00, 
1899.00, 
1900.00, 
1901.00, 
1902.00, 
1903.00, 
1904.00, 
1905.00, 
1906.00, 
1907.00, 
1908.00, 
1909.00, 
1910.00, 
1911.00, 
1912.00, 
1913.00, 
1914.00, 
1915.00, 
1916.00, 
1917.00, 
1918.00, 
1919.00, 
1920.00, 
1921.00, 
1922.00, 
1923.00, 
1924.00, 
1925.00, 
1926.00, 
1927.00, 
1928.00, 
1929.00, 
1930.00, 
1931.00, 
1932.00, 
1933.00, 
1934.00, 
1935.00, 
1936.00, 
1937.00, 
1938.00, 
1939.00, 
1940.00, 
1941.00, 
1942.00, 
1943.00, 
1944.00, 
1945.00, 
1946.00, 
1947.00, 
1948.00, 
1949.00, 
1950.00, 
1951.00, 
1952.00, 
1953.00, 
1954.00, 
1955.00, 
1956.00, 
1957.00, 
1958.00, 
1959.00, 
1960.00, 
1961.00, 
1962.00, 
1963.00, 
1964.00, 
1965.00, 
1966.00, 
1967.00, 
1968.00, 
1969.00, 
1970.00, 
1971.00, 
1972.00, 
1973.00, 
1974.00, 
1975.00, 
1976.00, 
1977.00, 
1978.00, 
1979.00, 
1980.00, 
1981.00, 
1982.00, 
1983.00, 
1984.00, 
1985.00, 
1986.00, 
1987.00, 
1988.00, 
1989.00, 
1990.00, 
1991.00, 
1992.00, 
1993.00, 
1994.00, 
1995.00, 
1996.00, 
1997.00, 
1998.00, 
1999.00, 
2000.00, 
2001.00, 
2002.00, 
2003.00, 
2004.00, 
2005.00, 
2006.00, 
2007.00, 
2008.00, 
2009.00, 
2010.00, 
2011.00, 
2012.00, 
2013.00, 
2014.00, 
2015.00, 
2016.00, 
2017.00, 
2018.00, 
2019.00, 
2020.00, 
2021.00, 
2022.00, 
2023.00, 
2024.00, 
2025.00, 
2026.00, 
2027.00, 
2028.00, 
2029.00, 
2030.00, 
2031.00, 
2032.00, 
2033.00, 
2034.00, 
2035.00, 
2036.00, 
2037.00, 
2038.00, 
2039.00, 
2040.00, 
2041.00, 
2042.00, 
2043.00, 
2044.00, 
2045.00, 
2046.00, 
2047.00, 
2048.00, 
2049.00, 
2050.00, 
2051.00, 
2052.00, 
2053.00, 
2054.00, 
2055.00, 
2056.00, 
2057.00, 
2058.00, 
2059.00, 
2060.00, 
2061.00, 
2062.00, 
2063.00, 
2064.00, 
2065.00, 
2066.00, 
2067.00, 
2068.00, 
2069.00, 
2070.00, 
2071.00, 
2072.00, 
2073.00, 
2074.00, 
2075.00, 
2076.00, 
2077.00, 
2078.00, 
2079.00, 
2080.00, 
2081.00, 
2082.00, 
2083.00, 
2084.00, 
2085.00, 
2086.00, 
2087.00, 
2088.00, 
2089.00, 
2090.00, 
2091.00, 
2092.00, 
2093.00, 
2094.00, 
2095.00, 
2096.00, 
2097.00, 
2098.00, 
2099.00, 
2100.00, 
2101.00, 
2102.00, 
2103.00, 
2104.00, 
2105.00, 
2106.00, 
2107.00, 
2108.00, 
2109.00, 
2110.00, 
2111.00, 
2112.00, 
2113.00, 
2114.00, 
2115.00, 
2116.00, 
2117.00, 
2118.00, 
2119.00, 
2120.00, 
2121.00, 
2122.00, 
2123.00, 
2124.00, 
2125.00, 
2126.00, 
2127.00, 
2128.00, 
2129.00, 
2130.00, 
2131.00, 
2132.00, 
2133.00, 
2134.00, 
2135.00, 
2136.00, 
2137.00, 
2138.00, 
2139.00, 
2140.00, 
2141.00, 
2142.00, 
2143.00, 
2144.00, 
2145.00, 
2146.00, 
2147.00, 
2148.00, 
2149.00, 
2150.00, 
2151.00, 
2152.00, 
2153.00, 
2154.00, 
2155.00, 
2156.00, 
2157.00, 
2158.00, 
2159.00, 
2160.00, 
2161.00, 
2162.00, 
2163.00, 
2164.00, 
2165.00, 
2166.00, 
2167.00, 
2168.00, 
2169.00, 
2170.00, 
2171.00, 
2172.00, 
2173.00, 
2174.00, 
2175.00, 
2176.00, 
2177.00, 
2178.00, 
2179.00, 
2180.00, 
2181.00, 
2182.00, 
2183.00, 
2184.00, 
2185.00, 
2186.00, 
2187.00, 
2188.00, 
2189.00, 
2190.00, 
2191.00, 
2192.00, 
2193.00, 
2194.00, 
2195.00, 
2196.00, 
2197.00, 
2198.00, 
2199.00, 
2200.00, 
2201.00, 
2202.00, 
2203.00, 
2204.00, 
2205.00, 
2206.00, 
2207.00, 
2208.00, 
2209.00, 
2210.00, 
2211.00, 
2212.00, 
2213.00, 
2214.00, 
2215.00, 
2216.00, 
2217.00, 
2218.00, 
2219.00, 
2220.00, 
2221.00, 
2222.00, 
2223.00, 
2224.00, 
2225.00, 
2226.00, 
2227.00, 
2228.00, 
2229.00, 
2230.00, 
2231.00, 
2232.00, 
2233.00, 
2234.00, 
2235.00, 
2236.00, 
2237.00, 
2238.00, 
2239.00, 
2240.00, 
2241.00, 
2242.00, 
2243.00, 
2244.00, 
2245.00, 
2246.00, 
2247.00, 
2248.00, 
2249.00, 
2250.00, 
2251.00, 
2252.00, 
2253.00, 
2254.00, 
2255.00, 
2256.00, 
2257.00, 
2258.00, 
2259.00, 
2260.00, 
2261.00, 
2262.00, 
2263.00, 
2264.00, 
2265.00, 
2266.00, 
2267.00, 
2268.00, 
2269.00, 
2270.00, 
2271.00, 
2272.00, 
2273.00, 
2274.00, 
2275.00, 
2276.00, 
2277.00, 
2278.00, 
2279.00, 
2280.00, 
2281.00, 
2282.00, 
2283.00, 
2284.00, 
2285.00, 
2286.00, 
2287.00, 
2288.00, 
2289.00, 
2290.00, 
2291.00, 
2292.00, 
2293.00, 
2294.00, 
2295.00, 
2296.00, 
2297.00, 
2298.00, 
2299.00, 
2300.00, 
2301.00, 
2302.00, 
2303.00, 
2304.00, 
2305.00, 
2306.00, 
2307.00, 
2308.00, 
2309.00, 
2310.00, 
2311.00, 
2312.00, 
2313.00, 
2314.00, 
2315.00, 
2316.00, 
2317.00, 
2318.00, 
2319.00, 
2320.00, 
2321.00, 
2322.00, 
2323.00, 
2324.00, 
2325.00, 
2326.00, 
2327.00, 
2328.00, 
2329.00, 
2330.00, 
2331.00, 
2332.00, 
2333.00, 
2334.00, 
2335.00, 
2336.00, 
2337.00, 
2338.00, 
2339.00, 
2340.00, 
2341.00, 
2342.00, 
2343.00, 
2344.00, 
2345.00, 
2346.00, 
2347.00, 
2348.00, 
2349.00, 
2350.00, 
2351.00, 
2352.00, 
2353.00, 
2354.00, 
2355.00, 
2356.00, 
2357.00, 
2358.00, 
2359.00, 
2360.00, 
2361.00, 
2362.00, 
2363.00, 
2364.00, 
2365.00, 
2366.00, 
2367.00, 
2368.00, 
2369.00, 
2370.00, 
2371.00, 
2372.00, 
2373.00, 
2374.00, 
2375.00, 
2376.00, 
2377.00, 
2378.00, 
2379.00, 
2380.00, 
2381.00, 
2382.00, 
2383.00, 
2384.00, 
2385.00, 
2386.00, 
2387.00, 
2388.00, 
2389.00, 
2390.00, 
2391.00, 
2392.00, 
2393.00, 
2394.00, 
2395.00, 
2396.00, 
2397.00, 
2398.00, 
2399.00, 
2400.00, 
2401.00, 
2402.00, 
2403.00, 
2404.00, 
2405.00, 
2406.00, 
2407.00, 
2408.00, 
2409.00, 
2410.00, 
2411.00, 
2412.00, 
2413.00, 
2414.00, 
2415.00, 
2416.00, 
2417.00, 
2418.00, 
2419.00, 
2420.00, 
2421.00, 
2422.00, 
2423.00, 
2424.00, 
2425.00, 
2426.00, 
2427.00, 
2428.00, 
2429.00, 
2430.00, 
2431.00, 
2432.00, 
2433.00, 
2434.00, 
2435.00, 
2436.00, 
2437.00, 
2438.00, 
2439.00, 
2440.00, 
2441.00, 
2442.00, 
2443.00, 
2444.00, 
2445.00, 
2446.00, 
2447.00, 
2448.00, 
2449.00, 
2450.00, 
2451.00, 
2452.00, 
2453.00, 
2454.00, 
2455.00, 
2456.00, 
2457.00, 
2458.00, 
2459.00, 
2460.00, 
2461.00, 
2462.00, 
2463.00, 
2464.00, 
2465.00, 
2466.00, 
2467.00, 
2468.00, 
2469.00, 
2470.00, 
2471.00, 
2472.00, 
2473.00, 
2474.00, 
2475.00, 
2476.00, 
2477.00, 
2478.00, 
2479.00, 
2480.00, 
2481.00, 
2482.00, 
2483.00, 
2484.00, 
2485.00, 
2486.00, 
2487.00, 
2488.00, 
2489.00, 
2490.00, 
2491.00, 
2492.00, 
2493.00, 
2494.00, 
2495.00, 
2496.00, 
2497.00, 
2498.00, 
2499.00, 
2500.00, 
2501.00, 
2502.00, 
2503.00, 
2504.00, 
2505.00, 
2506.00, 
2507.00, 
2508.00, 
2509.00, 
2510.00, 
2511.00, 
2512.00, 
2513.00, 
2514.00, 
2515.00, 
2516.00, 
2517.00, 
2518.00, 
2519.00, 
2520.00, 
2521.00, 
2522.00, 
2523.00, 
2524.00, 
2525.00, 
2526.00, 
2527.00, 
2528.00, 
2529.00, 
2530.00, 
2531.00, 
2532.00, 
2533.00, 
2534.00, 
2535.00, 
2536.00, 
2537.00, 
2538.00, 
2539.00, 
2540.00, 
2541.00, 
2542.00, 
2543.00, 
2544.00, 
2545.00, 
2546.00, 
2547.00, 
2548.00, 
2549.00, 
2550.00, 
2551.00, 
2552.00, 
2553.00, 
2554.00, 
2555.00, 
2556.00, 
2557.00, 
2558.00, 
2559.00, 
2560.00, 
2561.00, 
2562.00, 
2563.00, 
2564.00, 
2565.00, 
2566.00, 
2567.00, 
2568.00, 
2569.00, 
2570.00, 
2571.00, 
2572.00, 
2573.00, 
2574.00, 
2575.00, 
2576.00, 
2577.00, 
2578.00, 
2579.00, 
2580.00, 
2581.00, 
2582.00, 
2583.00, 
2584.00, 
2585.00, 
2586.00, 
2587.00, 
2588.00, 
2589.00, 
2590.00, 
2591.00, 
2592.00, 
2593.00, 
2594.00, 
2595.00, 
2596.00, 
2597.00, 
2598.00, 
2599.00, 
2600.00, 
