"1aP2 - RawData"
"Wavelength nm.","T%"
200.00,0.005
201.00,-0.001
202.00,0.000
203.00,0.003
204.00,0.001
205.00,-0.002
206.00,0.002
207.00,0.005
208.00,0.002
209.00,0.002
210.00,0.001
211.00,0.000
212.00,0.002
213.00,0.000
214.00,0.001
215.00,-0.000
216.00,0.003
217.00,0.000
218.00,-0.002
219.00,0.003
220.00,-0.000
221.00,0.000
222.00,0.000
223.00,0.003
224.00,0.003
225.00,0.001
226.00,0.001
227.00,0.001
228.00,-0.000
229.00,-0.001
230.00,0.001
231.00,0.001
232.00,0.001
233.00,-0.001
234.00,0.001
235.00,0.002
236.00,0.002
237.00,-0.000
238.00,0.001
239.00,0.000
240.00,0.001
241.00,0.000
242.00,-0.001
243.00,0.002
244.00,0.002
245.00,0.001
246.00,-0.000
247.00,0.001
248.00,0.002
249.00,-0.002
250.00,-0.000
251.00,0.001
252.00,-0.001
253.00,-0.001
254.00,0.001
255.00,-0.000
256.00,0.001
257.00,-0.001
258.00,-0.001
259.00,0.001
260.00,0.000
261.00,-0.001
262.00,0.001
263.00,0.003
264.00,-0.001
265.00,-0.001
266.00,-0.000
267.00,-0.000
268.00,0.001
269.00,-0.000
270.00,0.002
271.00,0.000
272.00,-0.000
273.00,0.002
274.00,0.001
275.00,-0.000
276.00,-0.000
277.00,0.001
278.00,-0.001
279.00,-0.000
280.00,-0.001
281.00,0.000
282.00,0.001
283.00,0.001
284.00,0.001
285.00,-0.000
286.00,-0.000
287.00,-0.000
288.00,-0.002
289.00,0.001
290.00,0.002
291.00,-0.002
292.00,0.001
293.00,0.000
294.00,0.000
295.00,0.000
296.00,-0.001
297.00,0.001
298.00,0.002
299.00,0.005
300.00,0.003
301.00,0.006
302.00,0.008
303.00,0.014
304.00,0.020
305.00,0.034
306.00,0.049
307.00,0.072
308.00,0.110
309.00,0.173
310.00,0.237
311.00,0.315
312.00,0.432
313.00,0.586
314.00,0.771
315.00,0.965
316.00,1.256
317.00,1.571
318.00,1.908
319.00,2.344
320.00,2.817
321.00,3.325
322.00,3.931
323.00,4.590
324.00,5.264
325.00,5.958
326.00,6.662
327.00,7.487
328.00,8.307
329.00,9.110
330.00,9.980
331.00,10.863
332.00,11.724
333.00,12.631
334.00,13.472
335.00,14.350
336.00,15.168
337.00,16.094
338.00,16.903
339.00,17.625
340.00,18.456
341.00,19.176
342.00,19.904
343.00,20.572
344.00,21.214
345.00,21.858
346.00,22.349
347.00,22.940
348.00,23.303
349.00,23.939
350.00,24.409
351.00,24.789
352.00,25.137
353.00,25.431
354.00,25.930
355.00,26.214
356.00,26.474
357.00,26.788
358.00,26.971
359.00,27.259
360.00,27.504
361.00,27.623
362.00,27.864
363.00,28.038
364.00,28.138
365.00,28.296
366.00,28.377
367.00,28.483
368.00,28.564
369.00,28.573
370.00,28.640
371.00,28.702
372.00,28.629
373.00,28.685
374.00,28.663
375.00,28.611
376.00,28.544
377.00,28.508
378.00,28.456
379.00,28.365
380.00,28.375
381.00,28.359
382.00,28.343
383.00,28.370
384.00,28.361
385.00,28.442
386.00,28.412
387.00,28.558
388.00,28.564
389.00,28.603
390.00,28.680
391.00,28.611
392.00,28.681
393.00,28.628
394.00,28.729
395.00,28.755
396.00,28.787
397.00,28.791
398.00,28.842
399.00,28.823
400.00,28.824
401.00,28.863
402.00,28.829
403.00,28.835
404.00,28.855
405.00,28.862
406.00,28.774
407.00,28.764
408.00,28.771
409.00,28.709
410.00,28.618
411.00,28.642
412.00,28.624
413.00,28.629
414.00,28.606
415.00,28.599
416.00,28.652
417.00,28.649
418.00,28.677
419.00,28.762
420.00,28.771
421.00,28.810
422.00,28.882
423.00,28.901
424.00,28.944
425.00,28.995
426.00,29.001
427.00,29.056
428.00,29.096
429.00,29.142
430.00,29.204
431.00,29.224
432.00,29.269
433.00,29.368
434.00,29.453
435.00,29.497
436.00,29.532
437.00,29.484
438.00,29.690
439.00,29.760
440.00,29.797
441.00,29.893
442.00,29.977
443.00,30.037
444.00,30.145
445.00,30.221
446.00,30.297
447.00,30.406
448.00,30.526
449.00,30.574
450.00,30.705
451.00,30.808
452.00,30.801
453.00,31.064
454.00,31.175
455.00,31.252
456.00,31.357
457.00,31.467
458.00,31.580
459.00,31.698
460.00,31.810
461.00,31.925
462.00,32.078
463.00,32.184
464.00,32.308
465.00,32.450
466.00,32.581
467.00,32.694
468.00,32.765
469.00,32.945
470.00,32.961
471.00,33.095
472.00,33.226
473.00,33.260
474.00,33.388
475.00,33.517
476.00,33.553
477.00,33.698
478.00,33.797
479.00,33.949
480.00,34.128
481.00,34.181
482.00,34.250
483.00,34.510
484.00,34.580
485.00,34.826
486.00,34.922
487.00,35.094
488.00,35.187
489.00,35.374
490.00,35.474
491.00,35.633
492.00,35.873
493.00,35.960
494.00,35.973
495.00,36.114
496.00,36.283
497.00,36.378
498.00,36.572
499.00,36.763
500.00,36.687
501.00,36.847
502.00,36.977
503.00,37.069
504.00,37.166
505.00,37.235
506.00,37.379
507.00,37.438
508.00,37.569
509.00,37.707
510.00,37.808
511.00,37.917
512.00,38.069
513.00,38.141
514.00,38.321
515.00,38.426
516.00,38.496
517.00,38.624
518.00,38.713
519.00,38.762
520.00,38.855
521.00,38.878
522.00,38.936
523.00,38.996
524.00,39.092
525.00,39.198
526.00,39.285
527.00,39.260
528.00,39.375
529.00,39.506
530.00,39.598
531.00,39.813
532.00,39.828
533.00,39.933
534.00,40.025
535.00,40.066
536.00,40.161
537.00,40.128
538.00,40.321
539.00,40.342
540.00,40.363
541.00,40.412
542.00,40.444
543.00,40.453
544.00,40.588
545.00,40.580
546.00,40.640
547.00,40.721
548.00,40.793
549.00,40.846
550.00,40.911
551.00,41.001
552.00,41.007
553.00,41.015
554.00,41.190
555.00,41.237
556.00,41.277
557.00,41.309
558.00,41.327
559.00,41.425
560.00,41.511
561.00,41.622
562.00,41.607
563.00,41.660
564.00,41.680
565.00,41.687
566.00,41.707
567.00,41.688
568.00,41.749
569.00,41.789
570.00,41.789
571.00,41.860
572.00,41.880
573.00,41.924
574.00,41.938
575.00,41.938
576.00,41.942
577.00,41.954
578.00,42.042
579.00,42.098
580.00,42.114
581.00,42.234
582.00,42.275
583.00,42.314
584.00,42.455
585.00,42.503
586.00,42.517
587.00,42.603
588.00,42.558
589.00,42.565
590.00,42.595
591.00,42.641
592.00,42.639
593.00,42.660
594.00,42.774
595.00,42.738
596.00,42.813
597.00,42.911
598.00,42.981
599.00,42.965
600.00,43.039
601.00,43.039
602.00,43.054
603.00,43.134
604.00,43.105
605.00,43.155
606.00,43.194
607.00,43.173
608.00,43.347
609.00,43.320
610.00,43.314
611.00,43.345
612.00,43.406
613.00,43.396
614.00,43.454
615.00,43.538
616.00,43.600
617.00,43.590
618.00,43.637
619.00,43.640
620.00,43.694
621.00,43.779
622.00,43.763
623.00,43.804
624.00,43.899
625.00,43.927
626.00,43.996
627.00,44.022
628.00,44.056
629.00,44.099
630.00,44.114
631.00,44.128
632.00,44.237
633.00,44.302
634.00,44.369
635.00,44.515
636.00,44.518
637.00,44.543
638.00,44.625
639.00,44.646
640.00,44.744
641.00,44.807
642.00,44.823
643.00,44.931
644.00,45.030
645.00,45.061
646.00,45.178
647.00,45.211
648.00,45.226
649.00,45.289
650.00,45.310
651.00,45.370
652.00,45.381
653.00,45.517
654.00,45.579
655.00,45.521
656.00,45.719
657.00,45.869
658.00,45.805
659.00,45.938
660.00,46.050
661.00,45.684
662.00,46.125
663.00,46.161
664.00,46.307
665.00,46.396
666.00,46.434
667.00,46.670
668.00,46.621
669.00,46.719
670.00,46.855
671.00,46.679
672.00,46.724
673.00,46.967
674.00,46.910
675.00,47.103
676.00,47.238
677.00,47.117
678.00,47.067
679.00,47.485
680.00,47.378
681.00,47.493
682.00,47.529
683.00,47.560
684.00,47.799
685.00,47.825
686.00,47.694
687.00,47.825
688.00,47.957
689.00,47.755
690.00,48.132
691.00,48.235
692.00,47.952
693.00,48.045
694.00,48.325
695.00,48.367
696.00,48.409
697.00,48.584
698.00,48.546
699.00,48.752
700.00,48.915
701.00,48.876
702.00,48.955
703.00,49.046
704.00,49.120
705.00,49.043
706.00,49.112
707.00,49.363
708.00,49.090
709.00,49.368
710.00,49.608
711.00,49.368
712.00,49.427
713.00,49.496
714.00,49.466
715.00,49.599
716.00,49.635
717.00,49.545
718.00,49.676
719.00,49.747
720.00,49.660
721.00,54.158
722.00,54.047
723.00,54.135
724.00,54.095
725.00,54.170
726.00,54.105
727.00,54.075
728.00,54.146
729.00,54.125
730.00,54.178
731.00,54.168
732.00,54.156
733.00,54.184
734.00,54.170
735.00,54.365
736.00,54.279
737.00,54.288
738.00,54.310
739.00,54.319
740.00,54.351
741.00,54.318
742.00,54.382
743.00,54.336
744.00,54.354
745.00,54.413
746.00,54.362
747.00,54.339
748.00,54.256
749.00,54.322
750.00,54.269
751.00,54.217
752.00,54.281
753.00,54.315
754.00,54.243
755.00,54.278
756.00,54.363
757.00,54.254
758.00,54.280
759.00,54.281
760.00,54.202
761.00,54.257
762.00,54.235
763.00,54.351
764.00,54.271
765.00,54.267
766.00,54.260
767.00,54.420
768.00,54.313
769.00,54.162
770.00,54.360
771.00,54.243
772.00,54.319
773.00,54.285
774.00,54.257
775.00,54.286
776.00,54.222
777.00,54.294
778.00,54.235
779.00,54.317
780.00,54.211
781.00,54.234
782.00,54.313
783.00,54.229
784.00,54.173
785.00,54.097
786.00,54.223
787.00,54.158
788.00,54.077
789.00,54.157
790.00,54.173
791.00,54.110
792.00,54.037
793.00,54.161
794.00,54.051
795.00,54.072
796.00,54.072
797.00,54.051
798.00,54.037
799.00,54.081
800.00,54.000
801.00,53.967
802.00,54.020
803.00,53.950
804.00,53.872
805.00,53.994
806.00,53.900
807.00,53.901
808.00,53.861
809.00,53.874
810.00,53.818
811.00,53.843
812.00,53.881
813.00,53.755
814.00,53.817
815.00,53.757
816.00,53.764
817.00,53.739
818.00,53.664
819.00,53.661
820.00,53.678
821.00,53.706
822.00,53.652
823.00,53.564
824.00,53.731
825.00,53.567
826.00,53.639
827.00,53.558
828.00,53.627
829.00,53.614
830.00,53.512
831.00,56.056
832.00,56.077
833.00,56.004
834.00,56.037
835.00,55.980
836.00,55.985
837.00,55.889
838.00,55.889
839.00,55.920
840.00,55.878
841.00,55.871
842.00,55.824
843.00,55.854
844.00,55.885
845.00,55.792
846.00,55.801
847.00,55.744
848.00,55.756
849.00,55.676
850.00,55.670
851.00,55.585
852.00,55.640
853.00,55.576
854.00,55.561
855.00,55.527
856.00,55.516
857.00,55.469
858.00,55.485
859.00,55.415
860.00,55.435
861.00,55.427
862.00,55.393
863.00,55.397
864.00,55.347
865.00,55.390
866.00,55.363
867.00,55.333
868.00,55.328
869.00,55.302
870.00,55.279
871.00,55.410
872.00,55.354
873.00,55.288
874.00,55.316
875.00,55.292
876.00,55.282
877.00,55.258
878.00,55.245
879.00,55.231
880.00,55.192
881.00,55.185
882.00,55.218
883.00,55.160
884.00,55.140
885.00,55.151
886.00,55.131
887.00,55.079
888.00,55.060
889.00,55.049
890.00,55.043
891.00,54.997
892.00,55.004
893.00,54.978
894.00,54.971
895.00,54.922
896.00,54.895
897.00,54.909
898.00,54.868
899.00,54.877
900.00,54.853
901.00,54.856
902.00,54.881
903.00,54.824
904.00,54.800
905.00,54.804
906.00,54.805
907.00,54.680
908.00,54.734
909.00,54.738
910.00,54.671
911.00,54.681
912.00,54.657
913.00,54.631
914.00,54.599
915.00,54.569
916.00,54.544
917.00,54.567
918.00,54.553
919.00,54.490
920.00,54.508
921.00,54.485
922.00,54.387
923.00,54.524
924.00,54.422
925.00,54.431
926.00,54.425
927.00,54.405
928.00,54.379
929.00,54.373
930.00,54.317
931.00,54.351
932.00,54.242
933.00,54.316
934.00,54.300
935.00,54.255
936.00,54.232
937.00,54.242
938.00,54.208
939.00,54.200
940.00,54.190
941.00,54.162
942.00,54.142
943.00,54.130
944.00,54.079
945.00,54.095
946.00,54.096
947.00,54.026
948.00,54.025
949.00,54.010
950.00,54.011
951.00,54.001
952.00,53.969
953.00,53.935
954.00,53.917
955.00,53.873
956.00,53.866
957.00,53.838
958.00,53.853
959.00,53.791
960.00,53.783
961.00,53.784
962.00,53.773
963.00,53.722
964.00,53.742
965.00,53.741
966.00,53.716
967.00,53.712
968.00,53.691
969.00,53.717
970.00,53.682
971.00,53.684
972.00,53.642
973.00,53.698
974.00,53.693
975.00,53.684
976.00,53.702
977.00,53.671
978.00,53.726
979.00,53.695
980.00,53.692
981.00,53.712
982.00,53.662
983.00,53.690
984.00,53.675
985.00,53.680
986.00,53.642
987.00,53.675
988.00,53.627
989.00,53.641
990.00,53.623
991.00,53.606
992.00,53.614
993.00,53.575
994.00,53.574
995.00,53.567
996.00,53.547
997.00,53.556
998.00,53.529
999.00,53.531
1000.00,53.493
1001.00,53.512
1002.00,53.567
1003.00,53.505
1004.00,53.468
1005.00,53.451
1006.00,53.484
1007.00,53.439
1008.00,53.428
1009.00,53.414
1010.00,53.411
1011.00,53.402
1012.00,53.387
1013.00,53.385
1014.00,53.349
1015.00,53.349
1016.00,53.310
1017.00,53.307
1018.00,53.293
1019.00,53.276
1020.00,53.270
1021.00,53.234
1022.00,53.244
1023.00,53.204
1024.00,53.200
1025.00,53.193
1026.00,53.181
1027.00,53.159
1028.00,53.154
1029.00,53.120
1030.00,53.122
1031.00,53.146
1032.00,53.083
1033.00,53.096
1034.00,53.066
1035.00,53.038
1036.00,53.019
1037.00,52.994
1038.00,52.993
1039.00,52.954
1040.00,52.940
1041.00,52.928
1042.00,52.925
1043.00,52.870
1044.00,52.920
1045.00,52.883
1046.00,52.881
1047.00,52.922
1048.00,52.930
1049.00,52.921
1050.00,52.930
1051.00,52.959
1052.00,52.966
1053.00,52.975
1054.00,52.969
1055.00,52.993
1056.00,52.996
1057.00,53.002
1058.00,53.001
1059.00,52.983
1060.00,53.003
1061.00,52.972
1062.00,52.953
1063.00,53.003
1064.00,52.965
1065.00,52.949
1066.00,52.948
1067.00,52.952
1068.00,52.975
1069.00,52.943
1070.00,52.917
1071.00,52.915
1072.00,52.932
1073.00,52.892
1074.00,52.909
1075.00,52.908
1076.00,52.895
1077.00,52.875
1078.00,52.865
1079.00,52.864
1080.00,52.874
1081.00,52.844
1082.00,52.843
1083.00,52.845
1084.00,52.840
1085.00,52.862
1086.00,52.860
1087.00,52.850
1088.00,52.852
1089.00,52.837
1090.00,52.827
1091.00,52.829
1092.00,52.813
1093.00,52.807
1094.00,52.783
1095.00,52.754
1096.00,52.749
1097.00,52.749
1098.00,52.730
1099.00,52.730
1100.00,52.711
1101.00,52.710
1102.00,52.704
1103.00,52.695
1104.00,52.674
1105.00,52.678
1106.00,52.664
1107.00,52.663
1108.00,52.685
1109.00,52.675
1110.00,52.658
1111.00,52.650
1112.00,52.631
1113.00,52.641
1114.00,52.620
1115.00,52.629
1116.00,52.617
1117.00,52.586
1118.00,52.587
1119.00,52.598
1120.00,52.582
1121.00,52.582
1122.00,52.571
1123.00,52.554
1124.00,52.557
1125.00,52.549
1126.00,52.546
1127.00,52.544
1128.00,52.506
1129.00,52.500
1130.00,52.494
1131.00,52.494
1132.00,52.507
1133.00,52.503
1134.00,52.496
1135.00,52.476
1136.00,52.477
1137.00,52.495
1138.00,52.487
1139.00,52.491
1140.00,52.516
1141.00,52.498
1142.00,52.474
1143.00,52.491
1144.00,52.464
1145.00,52.460
1146.00,52.458
1147.00,52.430
1148.00,52.433
1149.00,52.451
1150.00,52.445
1151.00,52.453
1152.00,52.453
1153.00,52.431
1154.00,52.423
1155.00,52.442
1156.00,52.425
1157.00,52.437
1158.00,52.411
1159.00,52.424
1160.00,52.424
1161.00,52.421
1162.00,52.434
1163.00,52.429
1164.00,52.414
1165.00,52.423
1166.00,52.421
1167.00,52.421
1168.00,52.438
1169.00,52.430
1170.00,52.439
1171.00,52.420
1172.00,52.402
1173.00,52.415
1174.00,52.432
1175.00,52.410
1176.00,52.422
1177.00,52.405
1178.00,52.410
1179.00,52.435
1180.00,52.410
1181.00,52.424
1182.00,52.418
1183.00,52.410
1184.00,52.402
1185.00,52.425
1186.00,52.388
1187.00,52.397
1188.00,52.400
1189.00,52.398
1190.00,52.378
1191.00,52.375
1192.00,52.416
1193.00,52.399
1194.00,52.415
1195.00,52.414
1196.00,52.429
1197.00,52.423
1198.00,52.423
1199.00,52.422
1200.00,52.426
1201.00,52.443
1202.00,52.405
1203.00,52.423
1204.00,52.408
1205.00,52.408
1206.00,52.402
1207.00,52.416
1208.00,52.397
1209.00,52.420
1210.00,52.402
1211.00,52.392
1212.00,52.418
1213.00,52.376
1214.00,52.427
1215.00,52.407
1216.00,52.392
1217.00,52.407
1218.00,52.411
1219.00,52.401
1220.00,52.398
1221.00,52.440
1222.00,52.411
1223.00,52.446
1224.00,52.433
1225.00,52.423
1226.00,52.431
1227.00,52.406
1228.00,52.430
1229.00,52.415
1230.00,52.440
1231.00,52.462
1232.00,52.472
1233.00,52.474
1234.00,52.470
1235.00,52.450
1236.00,52.464
1237.00,52.454
1238.00,52.448
1239.00,52.455
1240.00,52.452
1241.00,52.456
1242.00,52.474
1243.00,52.477
1244.00,52.456
1245.00,52.498
1246.00,52.499
1247.00,52.505
1248.00,52.498
1249.00,52.492
1250.00,52.500
1251.00,52.500
1252.00,52.499
1253.00,52.505
1254.00,52.532
1255.00,52.509
1256.00,52.510
1257.00,52.505
1258.00,52.539
1259.00,52.537
1260.00,52.540
1261.00,52.558
1262.00,52.560
1263.00,52.533
1264.00,52.561
1265.00,52.562
1266.00,52.539
1267.00,52.564
1268.00,52.566
1269.00,52.581
1270.00,52.595
1271.00,52.574
1272.00,52.597
1273.00,52.612
1274.00,52.596
1275.00,52.622
1276.00,52.616
1277.00,52.610
1278.00,52.625
1279.00,52.608
1280.00,52.617
1281.00,52.638
1282.00,52.641
1283.00,52.636
1284.00,52.667
1285.00,52.654
1286.00,52.677
1287.00,52.670
1288.00,52.681
1289.00,52.689
1290.00,52.684
1291.00,52.705
1292.00,52.722
1293.00,52.704
1294.00,52.720
1295.00,52.736
1296.00,52.716
1297.00,52.745
1298.00,52.779
1299.00,52.729
1300.00,52.755
1301.00,52.731
1302.00,52.763
1303.00,52.759
1304.00,52.717
1305.00,52.762
1306.00,52.763
1307.00,52.755
1308.00,52.775
1309.00,52.789
1310.00,52.775
1311.00,52.768
1312.00,52.760
1313.00,52.771
1314.00,52.792
1315.00,52.792
1316.00,52.821
1317.00,52.844
1318.00,52.827
1319.00,52.846
1320.00,52.835
1321.00,53.050
1322.00,53.034
1323.00,53.025
1324.00,53.006
1325.00,52.997
1326.00,53.017
1327.00,52.991
1328.00,53.006
1329.00,52.964
1330.00,52.977
1331.00,53.014
1332.00,52.988
1333.00,52.964
1334.00,53.067
1335.00,53.032
1336.00,53.075
1337.00,53.102
1338.00,53.167
1339.00,53.209
1340.00,53.245
1341.00,53.314
1342.00,53.381
1343.00,53.415
1344.00,53.481
1345.00,53.527
1346.00,53.549
1347.00,53.579
1348.00,53.613
1349.00,53.595
1350.00,53.644
1351.00,53.653
1352.00,53.660
1353.00,53.699
1354.00,53.683
1355.00,53.642
1356.00,53.729
1357.00,53.706
1358.00,53.738
1359.00,53.731
1360.00,53.757
1361.00,53.747
1362.00,53.684
1363.00,53.763
1364.00,53.786
1365.00,53.709
1366.00,53.829
1367.00,53.731
1368.00,53.653
1369.00,53.794
1370.00,53.653
1371.00,53.591
1372.00,53.668
1373.00,53.720
1374.00,53.737
1375.00,53.720
1376.00,53.681
1377.00,53.686
1378.00,53.772
1379.00,53.766
1380.00,53.782
1381.00,53.771
1382.00,53.736
1383.00,53.777
1384.00,53.619
1385.00,53.656
1386.00,53.738
1387.00,53.619
1388.00,53.632
1389.00,53.729
1390.00,53.639
1391.00,53.692
1392.00,53.717
1393.00,53.860
1394.00,53.770
1395.00,53.689
1396.00,53.639
1397.00,53.708
1398.00,53.690
1399.00,53.710
1400.00,53.667
1401.00,53.668
1402.00,53.784
1403.00,53.682
1404.00,53.689
1405.00,53.762
1406.00,53.731
1407.00,53.746
1408.00,53.745
1409.00,53.751
1410.00,53.788
1411.00,53.746
1412.00,53.853
1413.00,53.778
1414.00,53.720
1415.00,53.784
1416.00,53.854
1417.00,53.868
1418.00,53.828
1419.00,53.814
1420.00,53.823
1421.00,53.906
1422.00,53.875
1423.00,53.866
1424.00,53.883
1425.00,53.894
1426.00,53.961
1427.00,54.008
1428.00,53.933
1429.00,53.973
1430.00,53.987
1431.00,53.962
1432.00,54.004
1433.00,54.016
1434.00,53.991
1435.00,54.067
1436.00,54.068
1437.00,54.034
1438.00,54.058
1439.00,54.095
1440.00,54.092
1441.00,54.123
1442.00,54.117
1443.00,54.150
1444.00,54.224
1445.00,54.154
1446.00,54.185
1447.00,54.200
1448.00,54.235
1449.00,54.263
1450.00,54.221
1451.00,54.254
1452.00,54.264
1453.00,54.279
1454.00,54.306
1455.00,54.330
1456.00,54.324
1457.00,54.330
1458.00,54.357
1459.00,54.367
1460.00,54.385
1461.00,54.373
1462.00,54.428
1463.00,54.446
1464.00,54.433
1465.00,54.473
1466.00,54.467
1467.00,54.476
1468.00,54.547
1469.00,54.504
1470.00,54.529
1471.00,54.526
1472.00,54.525
1473.00,54.558
1474.00,54.589
1475.00,54.596
1476.00,54.626
1477.00,54.607
1478.00,54.612
1479.00,54.652
1480.00,54.640
1481.00,54.648
1482.00,54.680
1483.00,54.674
1484.00,54.692
1485.00,54.693
1486.00,54.698
1487.00,54.736
1488.00,54.774
1489.00,54.743
1490.00,54.779
1491.00,54.777
1492.00,54.784
1493.00,54.786
1494.00,54.809
1495.00,54.808
1496.00,54.833
1497.00,54.806
1498.00,54.844
1499.00,54.852
1500.00,54.851
1501.00, 
1502.00, 
1503.00, 
1504.00, 
1505.00, 
1506.00, 
1507.00, 
1508.00, 
1509.00, 
1510.00, 
1511.00, 
1512.00, 
1513.00, 
1514.00, 
1515.00, 
1516.00, 
1517.00, 
1518.00, 
1519.00, 
1520.00, 
1521.00, 
1522.00, 
1523.00, 
1524.00, 
1525.00, 
1526.00, 
1527.00, 
1528.00, 
1529.00, 
1530.00, 
1531.00, 
1532.00, 
1533.00, 
1534.00, 
1535.00, 
1536.00, 
1537.00, 
1538.00, 
1539.00, 
1540.00, 
1541.00, 
1542.00, 
1543.00, 
1544.00, 
1545.00, 
1546.00, 
1547.00, 
1548.00, 
1549.00, 
1550.00, 
1551.00, 
1552.00, 
1553.00, 
1554.00, 
1555.00, 
1556.00, 
1557.00, 
1558.00, 
1559.00, 
1560.00, 
1561.00, 
1562.00, 
1563.00, 
1564.00, 
1565.00, 
1566.00, 
1567.00, 
1568.00, 
1569.00, 
1570.00, 
1571.00, 
1572.00, 
1573.00, 
1574.00, 
1575.00, 
1576.00, 
1577.00, 
1578.00, 
1579.00, 
1580.00, 
1581.00, 
1582.00, 
1583.00, 
1584.00, 
1585.00, 
1586.00, 
1587.00, 
1588.00, 
1589.00, 
1590.00, 
1591.00, 
1592.00, 
1593.00, 
1594.00, 
1595.00, 
1596.00, 
1597.00, 
1598.00, 
1599.00, 
1600.00, 
1601.00, 
1602.00, 
1603.00, 
1604.00, 
1605.00, 
1606.00, 
1607.00, 
1608.00, 
1609.00, 
1610.00, 
1611.00, 
1612.00, 
1613.00, 
1614.00, 
1615.00, 
1616.00, 
1617.00, 
1618.00, 
1619.00, 
1620.00, 
1621.00, 
1622.00, 
1623.00, 
1624.00, 
1625.00, 
1626.00, 
1627.00, 
1628.00, 
1629.00, 
1630.00, 
1631.00, 
1632.00, 
1633.00, 
1634.00, 
1635.00, 
1636.00, 
1637.00, 
1638.00, 
1639.00, 
1640.00, 
1641.00, 
1642.00, 
1643.00, 
1644.00, 
1645.00, 
1646.00, 
1647.00, 
1648.00, 
1649.00, 
1650.00, 
1651.00, 
1652.00, 
1653.00, 
1654.00, 
1655.00, 
1656.00, 
1657.00, 
1658.00, 
1659.00, 
1660.00, 
1661.00, 
1662.00, 
1663.00, 
1664.00, 
1665.00, 
1666.00, 
1667.00, 
1668.00, 
1669.00, 
1670.00, 
1671.00, 
1672.00, 
1673.00, 
1674.00, 
1675.00, 
1676.00, 
1677.00, 
1678.00, 
1679.00, 
1680.00, 
1681.00, 
1682.00, 
1683.00, 
1684.00, 
1685.00, 
1686.00, 
1687.00, 
1688.00, 
1689.00, 
1690.00, 
1691.00, 
1692.00, 
1693.00, 
1694.00, 
1695.00, 
1696.00, 
1697.00, 
1698.00, 
1699.00, 
1700.00, 
1701.00, 
1702.00, 
1703.00, 
1704.00, 
1705.00, 
1706.00, 
1707.00, 
1708.00, 
1709.00, 
1710.00, 
1711.00, 
1712.00, 
1713.00, 
1714.00, 
1715.00, 
1716.00, 
1717.00, 
1718.00, 
1719.00, 
1720.00, 
1721.00, 
1722.00, 
1723.00, 
1724.00, 
1725.00, 
1726.00, 
1727.00, 
1728.00, 
1729.00, 
1730.00, 
1731.00, 
1732.00, 
1733.00, 
1734.00, 
1735.00, 
1736.00, 
1737.00, 
1738.00, 
1739.00, 
1740.00, 
1741.00, 
1742.00, 
1743.00, 
1744.00, 
1745.00, 
1746.00, 
1747.00, 
1748.00, 
1749.00, 
1750.00, 
1751.00, 
1752.00, 
1753.00, 
1754.00, 
1755.00, 
1756.00, 
1757.00, 
1758.00, 
1759.00, 
1760.00, 
1761.00, 
1762.00, 
1763.00, 
1764.00, 
1765.00, 
1766.00, 
1767.00, 
1768.00, 
1769.00, 
1770.00, 
1771.00, 
1772.00, 
1773.00, 
1774.00, 
1775.00, 
1776.00, 
1777.00, 
1778.00, 
1779.00, 
1780.00, 
1781.00, 
1782.00, 
1783.00, 
1784.00, 
1785.00, 
1786.00, 
1787.00, 
1788.00, 
1789.00, 
1790.00, 
1791.00, 
1792.00, 
1793.00, 
1794.00, 
1795.00, 
1796.00, 
1797.00, 
1798.00, 
1799.00, 
1800.00, 
1801.00, 
1802.00, 
1803.00, 
1804.00, 
1805.00, 
1806.00, 
1807.00, 
1808.00, 
1809.00, 
1810.00, 
1811.00, 
1812.00, 
1813.00, 
1814.00, 
1815.00, 
1816.00, 
1817.00, 
1818.00, 
1819.00, 
1820.00, 
1821.00, 
1822.00, 
1823.00, 
1824.00, 
1825.00, 
1826.00, 
1827.00, 
1828.00, 
1829.00, 
1830.00, 
1831.00, 
1832.00, 
1833.00, 
1834.00, 
1835.00, 
1836.00, 
1837.00, 
1838.00, 
1839.00, 
1840.00, 
1841.00, 
1842.00, 
1843.00, 
1844.00, 
1845.00, 
1846.00, 
1847.00, 
1848.00, 
1849.00, 
1850.00, 
1851.00, 
1852.00, 
1853.00, 
1854.00, 
1855.00, 
1856.00, 
1857.00, 
1858.00, 
1859.00, 
1860.00, 
1861.00, 
1862.00, 
1863.00, 
1864.00, 
1865.00, 
1866.00, 
1867.00, 
1868.00, 
1869.00, 
1870.00, 
1871.00, 
1872.00, 
1873.00, 
1874.00, 
1875.00, 
1876.00, 
1877.00, 
1878.00, 
1879.00, 
1880.00, 
1881.00, 
1882.00, 
1883.00, 
1884.00, 
1885.00, 
1886.00, 
1887.00, 
1888.00, 
1889.00, 
1890.00, 
1891.00, 
1892.00, 
1893.00, 
1894.00, 
1895.00, 
1896.00, 
1897.00, 
1898.00, 
1899.00, 
1900.00, 
1901.00, 
1902.00, 
1903.00, 
1904.00, 
1905.00, 
1906.00, 
1907.00, 
1908.00, 
1909.00, 
1910.00, 
1911.00, 
1912.00, 
1913.00, 
1914.00, 
1915.00, 
1916.00, 
1917.00, 
1918.00, 
1919.00, 
1920.00, 
1921.00, 
1922.00, 
1923.00, 
1924.00, 
1925.00, 
1926.00, 
1927.00, 
1928.00, 
1929.00, 
1930.00, 
1931.00, 
1932.00, 
1933.00, 
1934.00, 
1935.00, 
1936.00, 
1937.00, 
1938.00, 
1939.00, 
1940.00, 
1941.00, 
1942.00, 
1943.00, 
1944.00, 
1945.00, 
1946.00, 
1947.00, 
1948.00, 
1949.00, 
1950.00, 
1951.00, 
1952.00, 
1953.00, 
1954.00, 
1955.00, 
1956.00, 
1957.00, 
1958.00, 
1959.00, 
1960.00, 
1961.00, 
1962.00, 
1963.00, 
1964.00, 
1965.00, 
1966.00, 
1967.00, 
1968.00, 
1969.00, 
1970.00, 
1971.00, 
1972.00, 
1973.00, 
1974.00, 
1975.00, 
1976.00, 
1977.00, 
1978.00, 
1979.00, 
1980.00, 
1981.00, 
1982.00, 
1983.00, 
1984.00, 
1985.00, 
1986.00, 
1987.00, 
1988.00, 
1989.00, 
1990.00, 
1991.00, 
1992.00, 
1993.00, 
1994.00, 
1995.00, 
1996.00, 
1997.00, 
1998.00, 
1999.00, 
2000.00, 
2001.00, 
2002.00, 
2003.00, 
2004.00, 
2005.00, 
2006.00, 
2007.00, 
2008.00, 
2009.00, 
2010.00, 
2011.00, 
2012.00, 
2013.00, 
2014.00, 
2015.00, 
2016.00, 
2017.00, 
2018.00, 
2019.00, 
2020.00, 
2021.00, 
2022.00, 
2023.00, 
2024.00, 
2025.00, 
2026.00, 
2027.00, 
2028.00, 
2029.00, 
2030.00, 
2031.00, 
2032.00, 
2033.00, 
2034.00, 
2035.00, 
2036.00, 
2037.00, 
2038.00, 
2039.00, 
2040.00, 
2041.00, 
2042.00, 
2043.00, 
2044.00, 
2045.00, 
2046.00, 
2047.00, 
2048.00, 
2049.00, 
2050.00, 
2051.00, 
2052.00, 
2053.00, 
2054.00, 
2055.00, 
2056.00, 
2057.00, 
2058.00, 
2059.00, 
2060.00, 
2061.00, 
2062.00, 
2063.00, 
2064.00, 
2065.00, 
2066.00, 
2067.00, 
2068.00, 
2069.00, 
2070.00, 
2071.00, 
2072.00, 
2073.00, 
2074.00, 
2075.00, 
2076.00, 
2077.00, 
2078.00, 
2079.00, 
2080.00, 
2081.00, 
2082.00, 
2083.00, 
2084.00, 
2085.00, 
2086.00, 
2087.00, 
2088.00, 
2089.00, 
2090.00, 
2091.00, 
2092.00, 
2093.00, 
2094.00, 
2095.00, 
2096.00, 
2097.00, 
2098.00, 
2099.00, 
2100.00, 
2101.00, 
2102.00, 
2103.00, 
2104.00, 
2105.00, 
2106.00, 
2107.00, 
2108.00, 
2109.00, 
2110.00, 
2111.00, 
2112.00, 
2113.00, 
2114.00, 
2115.00, 
2116.00, 
2117.00, 
2118.00, 
2119.00, 
2120.00, 
2121.00, 
2122.00, 
2123.00, 
2124.00, 
2125.00, 
2126.00, 
2127.00, 
2128.00, 
2129.00, 
2130.00, 
2131.00, 
2132.00, 
2133.00, 
2134.00, 
2135.00, 
2136.00, 
2137.00, 
2138.00, 
2139.00, 
2140.00, 
2141.00, 
2142.00, 
2143.00, 
2144.00, 
2145.00, 
2146.00, 
2147.00, 
2148.00, 
2149.00, 
2150.00, 
2151.00, 
2152.00, 
2153.00, 
2154.00, 
2155.00, 
2156.00, 
2157.00, 
2158.00, 
2159.00, 
2160.00, 
2161.00, 
2162.00, 
2163.00, 
2164.00, 
2165.00, 
2166.00, 
2167.00, 
2168.00, 
2169.00, 
2170.00, 
2171.00, 
2172.00, 
2173.00, 
2174.00, 
2175.00, 
2176.00, 
2177.00, 
2178.00, 
2179.00, 
2180.00, 
2181.00, 
2182.00, 
2183.00, 
2184.00, 
2185.00, 
2186.00, 
2187.00, 
2188.00, 
2189.00, 
2190.00, 
2191.00, 
2192.00, 
2193.00, 
2194.00, 
2195.00, 
2196.00, 
2197.00, 
2198.00, 
2199.00, 
2200.00, 
2201.00, 
2202.00, 
2203.00, 
2204.00, 
2205.00, 
2206.00, 
2207.00, 
2208.00, 
2209.00, 
2210.00, 
2211.00, 
2212.00, 
2213.00, 
2214.00, 
2215.00, 
2216.00, 
2217.00, 
2218.00, 
2219.00, 
2220.00, 
2221.00, 
2222.00, 
2223.00, 
2224.00, 
2225.00, 
2226.00, 
2227.00, 
2228.00, 
2229.00, 
2230.00, 
2231.00, 
2232.00, 
2233.00, 
2234.00, 
2235.00, 
2236.00, 
2237.00, 
2238.00, 
2239.00, 
2240.00, 
2241.00, 
2242.00, 
2243.00, 
2244.00, 
2245.00, 
2246.00, 
2247.00, 
2248.00, 
2249.00, 
2250.00, 
2251.00, 
2252.00, 
2253.00, 
2254.00, 
2255.00, 
2256.00, 
2257.00, 
2258.00, 
2259.00, 
2260.00, 
2261.00, 
2262.00, 
2263.00, 
2264.00, 
2265.00, 
2266.00, 
2267.00, 
2268.00, 
2269.00, 
2270.00, 
2271.00, 
2272.00, 
2273.00, 
2274.00, 
2275.00, 
2276.00, 
2277.00, 
2278.00, 
2279.00, 
2280.00, 
2281.00, 
2282.00, 
2283.00, 
2284.00, 
2285.00, 
2286.00, 
2287.00, 
2288.00, 
2289.00, 
2290.00, 
2291.00, 
2292.00, 
2293.00, 
2294.00, 
2295.00, 
2296.00, 
2297.00, 
2298.00, 
2299.00, 
2300.00, 
2301.00, 
2302.00, 
2303.00, 
2304.00, 
2305.00, 
2306.00, 
2307.00, 
2308.00, 
2309.00, 
2310.00, 
2311.00, 
2312.00, 
2313.00, 
2314.00, 
2315.00, 
2316.00, 
2317.00, 
2318.00, 
2319.00, 
2320.00, 
2321.00, 
2322.00, 
2323.00, 
2324.00, 
2325.00, 
2326.00, 
2327.00, 
2328.00, 
2329.00, 
2330.00, 
2331.00, 
2332.00, 
2333.00, 
2334.00, 
2335.00, 
2336.00, 
2337.00, 
2338.00, 
2339.00, 
2340.00, 
2341.00, 
2342.00, 
2343.00, 
2344.00, 
2345.00, 
2346.00, 
2347.00, 
2348.00, 
2349.00, 
2350.00, 
2351.00, 
2352.00, 
2353.00, 
2354.00, 
2355.00, 
2356.00, 
2357.00, 
2358.00, 
2359.00, 
2360.00, 
2361.00, 
2362.00, 
2363.00, 
2364.00, 
2365.00, 
2366.00, 
2367.00, 
2368.00, 
2369.00, 
2370.00, 
2371.00, 
2372.00, 
2373.00, 
2374.00, 
2375.00, 
2376.00, 
2377.00, 
2378.00, 
2379.00, 
2380.00, 
2381.00, 
2382.00, 
2383.00, 
2384.00, 
2385.00, 
2386.00, 
2387.00, 
2388.00, 
2389.00, 
2390.00, 
2391.00, 
2392.00, 
2393.00, 
2394.00, 
2395.00, 
2396.00, 
2397.00, 
2398.00, 
2399.00, 
2400.00, 
2401.00, 
2402.00, 
2403.00, 
2404.00, 
2405.00, 
2406.00, 
2407.00, 
2408.00, 
2409.00, 
2410.00, 
2411.00, 
2412.00, 
2413.00, 
2414.00, 
2415.00, 
2416.00, 
2417.00, 
2418.00, 
2419.00, 
2420.00, 
2421.00, 
2422.00, 
2423.00, 
2424.00, 
2425.00, 
2426.00, 
2427.00, 
2428.00, 
2429.00, 
2430.00, 
2431.00, 
2432.00, 
2433.00, 
2434.00, 
2435.00, 
2436.00, 
2437.00, 
2438.00, 
2439.00, 
2440.00, 
2441.00, 
2442.00, 
2443.00, 
2444.00, 
2445.00, 
2446.00, 
2447.00, 
2448.00, 
2449.00, 
2450.00, 
2451.00, 
2452.00, 
2453.00, 
2454.00, 
2455.00, 
2456.00, 
2457.00, 
2458.00, 
2459.00, 
2460.00, 
2461.00, 
2462.00, 
2463.00, 
2464.00, 
2465.00, 
2466.00, 
2467.00, 
2468.00, 
2469.00, 
2470.00, 
2471.00, 
2472.00, 
2473.00, 
2474.00, 
2475.00, 
2476.00, 
2477.00, 
2478.00, 
2479.00, 
2480.00, 
2481.00, 
2482.00, 
2483.00, 
2484.00, 
2485.00, 
2486.00, 
2487.00, 
2488.00, 
2489.00, 
2490.00, 
2491.00, 
2492.00, 
2493.00, 
2494.00, 
2495.00, 
2496.00, 
2497.00, 
2498.00, 
2499.00, 
2500.00, 
2501.00, 
2502.00, 
2503.00, 
2504.00, 
2505.00, 
2506.00, 
2507.00, 
2508.00, 
2509.00, 
2510.00, 
2511.00, 
2512.00, 
2513.00, 
2514.00, 
2515.00, 
2516.00, 
2517.00, 
2518.00, 
2519.00, 
2520.00, 
2521.00, 
2522.00, 
2523.00, 
2524.00, 
2525.00, 
2526.00, 
2527.00, 
2528.00, 
2529.00, 
2530.00, 
2531.00, 
2532.00, 
2533.00, 
2534.00, 
2535.00, 
2536.00, 
2537.00, 
2538.00, 
2539.00, 
2540.00, 
2541.00, 
2542.00, 
2543.00, 
2544.00, 
2545.00, 
2546.00, 
2547.00, 
2548.00, 
2549.00, 
2550.00, 
2551.00, 
2552.00, 
2553.00, 
2554.00, 
2555.00, 
2556.00, 
2557.00, 
2558.00, 
2559.00, 
2560.00, 
2561.00, 
2562.00, 
2563.00, 
2564.00, 
2565.00, 
2566.00, 
2567.00, 
2568.00, 
2569.00, 
2570.00, 
2571.00, 
2572.00, 
2573.00, 
2574.00, 
2575.00, 
2576.00, 
2577.00, 
2578.00, 
2579.00, 
2580.00, 
2581.00, 
2582.00, 
2583.00, 
2584.00, 
2585.00, 
2586.00, 
2587.00, 
2588.00, 
2589.00, 
2590.00, 
2591.00, 
2592.00, 
2593.00, 
2594.00, 
2595.00, 
2596.00, 
2597.00, 
2598.00, 
2599.00, 
2600.00, 
