"2bP2 - RawData"
"Wavelength nm.","T%"
200.00,-0.002
201.00,0.001
202.00,0.003
203.00,0.002
204.00,-0.002
205.00,0.004
206.00,0.004
207.00,0.000
208.00,-0.001
209.00,-0.001
210.00,0.002
211.00,0.001
212.00,0.000
213.00,-0.001
214.00,0.003
215.00,0.001
216.00,-0.001
217.00,-0.001
218.00,0.001
219.00,0.000
220.00,0.002
221.00,0.003
222.00,0.003
223.00,-0.000
224.00,0.001
225.00,-0.001
226.00,-0.002
227.00,0.001
228.00,0.003
229.00,-0.001
230.00,0.001
231.00,0.000
232.00,-0.001
233.00,-0.001
234.00,0.002
235.00,0.002
236.00,0.000
237.00,0.001
238.00,-0.000
239.00,-0.001
240.00,0.000
241.00,0.002
242.00,0.002
243.00,0.003
244.00,0.000
245.00,0.002
246.00,-0.001
247.00,-0.001
248.00,0.001
249.00,-0.002
250.00,0.001
251.00,-0.001
252.00,0.000
253.00,0.001
254.00,0.001
255.00,-0.000
256.00,0.001
257.00,-0.002
258.00,0.002
259.00,-0.001
260.00,0.000
261.00,0.001
262.00,-0.000
263.00,0.001
264.00,-0.000
265.00,-0.001
266.00,-0.001
267.00,0.000
268.00,0.001
269.00,0.001
270.00,0.001
271.00,0.002
272.00,0.001
273.00,0.001
274.00,0.000
275.00,-0.001
276.00,0.001
277.00,0.000
278.00,0.001
279.00,0.000
280.00,-0.000
281.00,0.000
282.00,-0.001
283.00,0.001
284.00,-0.000
285.00,-0.001
286.00,0.001
287.00,0.001
288.00,-0.002
289.00,0.001
290.00,0.001
291.00,0.001
292.00,-0.000
293.00,-0.000
294.00,0.001
295.00,0.001
296.00,0.002
297.00,-0.000
298.00,0.002
299.00,0.002
300.00,0.002
301.00,0.003
302.00,0.007
303.00,0.010
304.00,0.014
305.00,0.021
306.00,0.035
307.00,0.054
308.00,0.080
309.00,0.123
310.00,0.168
311.00,0.223
312.00,0.305
313.00,0.407
314.00,0.546
315.00,0.697
316.00,0.886
317.00,1.108
318.00,1.368
319.00,1.665
320.00,2.003
321.00,2.387
322.00,2.814
323.00,3.318
324.00,3.833
325.00,4.322
326.00,4.852
327.00,5.465
328.00,6.102
329.00,6.728
330.00,7.362
331.00,8.007
332.00,8.610
333.00,9.391
334.00,10.063
335.00,10.744
336.00,11.444
337.00,12.103
338.00,12.789
339.00,13.355
340.00,13.996
341.00,14.623
342.00,15.147
343.00,15.686
344.00,16.210
345.00,16.745
346.00,17.224
347.00,17.656
348.00,18.045
349.00,18.483
350.00,18.894
351.00,19.140
352.00,19.489
353.00,19.744
354.00,20.086
355.00,20.371
356.00,20.611
357.00,20.848
358.00,21.054
359.00,21.275
360.00,21.506
361.00,21.611
362.00,21.796
363.00,21.925
364.00,22.038
365.00,22.086
366.00,22.173
367.00,22.311
368.00,22.373
369.00,22.375
370.00,22.394
371.00,22.468
372.00,22.370
373.00,22.463
374.00,22.454
375.00,22.427
376.00,22.353
377.00,22.340
378.00,22.246
379.00,22.224
380.00,22.200
381.00,22.120
382.00,22.147
383.00,22.130
384.00,22.185
385.00,22.191
386.00,22.201
387.00,22.295
388.00,22.290
389.00,22.323
390.00,22.347
391.00,22.354
392.00,22.339
393.00,22.361
394.00,22.358
395.00,22.397
396.00,22.371
397.00,22.395
398.00,22.394
399.00,22.373
400.00,22.381
401.00,22.399
402.00,22.380
403.00,22.372
404.00,22.377
405.00,22.396
406.00,22.312
407.00,22.322
408.00,22.303
409.00,22.252
410.00,22.211
411.00,22.200
412.00,22.192
413.00,22.208
414.00,22.160
415.00,22.161
416.00,22.212
417.00,22.205
418.00,22.246
419.00,22.321
420.00,22.348
421.00,22.363
422.00,22.383
423.00,22.443
424.00,22.453
425.00,22.467
426.00,22.506
427.00,22.530
428.00,22.636
429.00,22.659
430.00,22.700
431.00,22.739
432.00,22.817
433.00,22.830
434.00,22.930
435.00,22.976
436.00,23.042
437.00,23.095
438.00,23.189
439.00,23.240
440.00,23.285
441.00,23.375
442.00,23.470
443.00,23.569
444.00,23.645
445.00,23.751
446.00,23.819
447.00,23.929
448.00,24.026
449.00,24.148
450.00,24.238
451.00,24.330
452.00,24.418
453.00,24.566
454.00,24.643
455.00,24.764
456.00,24.882
457.00,24.984
458.00,25.094
459.00,25.243
460.00,25.366
461.00,25.467
462.00,25.616
463.00,25.740
464.00,25.832
465.00,25.948
466.00,26.072
467.00,26.205
468.00,26.303
469.00,26.428
470.00,26.497
471.00,26.624
472.00,26.811
473.00,26.842
474.00,27.036
475.00,27.125
476.00,27.248
477.00,27.357
478.00,27.486
479.00,27.628
480.00,27.769
481.00,27.894
482.00,28.054
483.00,28.217
484.00,28.383
485.00,28.538
486.00,28.667
487.00,28.825
488.00,28.980
489.00,29.135
490.00,29.288
491.00,29.437
492.00,29.648
493.00,29.788
494.00,29.772
495.00,29.935
496.00,30.097
497.00,30.203
498.00,30.383
499.00,30.557
500.00,30.599
501.00,30.764
502.00,30.881
503.00,30.962
504.00,31.064
505.00,31.193
506.00,31.363
507.00,31.439
508.00,31.513
509.00,31.712
510.00,31.872
511.00,31.931
512.00,32.054
513.00,32.205
514.00,32.306
515.00,32.479
516.00,32.573
517.00,32.681
518.00,32.818
519.00,32.873
520.00,32.900
521.00,33.049
522.00,33.138
523.00,33.195
524.00,33.278
525.00,33.418
526.00,33.507
527.00,33.558
528.00,33.631
529.00,33.795
530.00,33.954
531.00,34.128
532.00,34.182
533.00,34.248
534.00,34.369
535.00,34.409
536.00,34.494
537.00,34.572
538.00,34.621
539.00,34.698
540.00,34.783
541.00,34.849
542.00,34.887
543.00,34.967
544.00,35.026
545.00,35.103
546.00,35.118
547.00,35.284
548.00,35.365
549.00,35.379
550.00,35.487
551.00,35.590
552.00,35.677
553.00,35.682
554.00,35.767
555.00,35.795
556.00,35.858
557.00,35.940
558.00,36.023
559.00,36.071
560.00,36.131
561.00,36.217
562.00,36.298
563.00,36.297
564.00,36.333
565.00,36.376
566.00,36.416
567.00,36.411
568.00,36.470
569.00,36.535
570.00,36.566
571.00,36.648
572.00,36.656
573.00,36.638
574.00,36.711
575.00,36.705
576.00,36.753
577.00,36.765
578.00,36.905
579.00,36.959
580.00,36.948
581.00,37.112
582.00,37.188
583.00,37.156
584.00,37.234
585.00,37.403
586.00,37.478
587.00,37.516
588.00,37.493
589.00,37.475
590.00,37.572
591.00,37.605
592.00,37.541
593.00,37.637
594.00,37.795
595.00,37.804
596.00,37.835
597.00,37.958
598.00,37.969
599.00,37.952
600.00,38.024
601.00,38.007
602.00,37.979
603.00,38.162
604.00,38.256
605.00,38.226
606.00,38.273
607.00,38.279
608.00,38.439
609.00,38.607
610.00,38.450
611.00,38.513
612.00,38.544
613.00,38.598
614.00,38.609
615.00,38.707
616.00,38.824
617.00,38.844
618.00,38.790
619.00,38.895
620.00,39.018
621.00,39.078
622.00,39.100
623.00,39.190
624.00,39.265
625.00,39.285
626.00,39.368
627.00,39.442
628.00,39.379
629.00,39.475
630.00,39.546
631.00,39.676
632.00,39.708
633.00,39.811
634.00,39.913
635.00,39.961
636.00,40.017
637.00,40.072
638.00,40.187
639.00,40.252
640.00,40.293
641.00,40.331
642.00,40.413
643.00,40.481
644.00,40.609
645.00,40.602
646.00,40.792
647.00,40.848
648.00,40.948
649.00,40.941
650.00,40.942
651.00,41.150
652.00,41.167
653.00,41.263
654.00,41.333
655.00,41.534
656.00,41.755
657.00,41.658
658.00,41.758
659.00,41.806
660.00,41.909
661.00,41.934
662.00,42.047
663.00,42.087
664.00,42.407
665.00,42.569
666.00,42.320
667.00,42.511
668.00,42.761
669.00,42.823
670.00,43.033
671.00,43.032
672.00,43.056
673.00,43.051
674.00,43.174
675.00,43.289
676.00,43.544
677.00,43.642
678.00,43.477
679.00,43.691
680.00,43.778
681.00,43.968
682.00,43.987
683.00,44.069
684.00,44.253
685.00,44.286
686.00,44.136
687.00,44.281
688.00,44.487
689.00,44.479
690.00,44.821
691.00,45.006
692.00,44.815
693.00,44.798
694.00,44.971
695.00,45.182
696.00,45.301
697.00,45.331
698.00,45.253
699.00,45.583
700.00,45.712
701.00,45.565
702.00,45.729
703.00,45.937
704.00,46.043
705.00,45.977
706.00,46.078
707.00,46.176
708.00,46.058
709.00,46.390
710.00,46.718
711.00,46.204
712.00,46.510
713.00,46.704
714.00,46.743
715.00,46.754
716.00,46.760
717.00,46.963
718.00,47.071
719.00,47.081
720.00,47.045
721.00,51.586
722.00,51.603
723.00,51.648
724.00,51.605
725.00,51.651
726.00,51.697
727.00,51.568
728.00,51.699
729.00,51.744
730.00,51.800
731.00,51.866
732.00,51.873
733.00,51.871
734.00,51.957
735.00,52.067
736.00,52.082
737.00,52.033
738.00,52.077
739.00,52.132
740.00,52.115
741.00,52.166
742.00,52.289
743.00,52.229
744.00,52.247
745.00,52.343
746.00,52.256
747.00,52.301
748.00,52.333
749.00,52.293
750.00,52.345
751.00,52.254
752.00,52.267
753.00,52.441
754.00,52.329
755.00,52.393
756.00,52.478
757.00,52.399
758.00,52.453
759.00,52.397
760.00,52.398
761.00,52.434
762.00,52.403
763.00,52.492
764.00,52.453
765.00,52.547
766.00,52.536
767.00,52.612
768.00,52.587
769.00,52.533
770.00,52.625
771.00,52.552
772.00,52.651
773.00,52.592
774.00,52.685
775.00,52.625
776.00,52.632
777.00,52.605
778.00,52.635
779.00,52.804
780.00,52.624
781.00,52.707
782.00,52.716
783.00,52.701
784.00,52.700
785.00,52.715
786.00,52.765
787.00,52.644
788.00,52.715
789.00,52.707
790.00,52.662
791.00,52.690
792.00,52.618
793.00,52.675
794.00,52.597
795.00,52.602
796.00,52.730
797.00,52.631
798.00,52.589
799.00,52.646
800.00,52.571
801.00,52.562
802.00,52.595
803.00,52.585
804.00,52.552
805.00,52.568
806.00,52.519
807.00,52.502
808.00,52.575
809.00,52.537
810.00,52.535
811.00,52.579
812.00,52.552
813.00,52.388
814.00,52.442
815.00,52.417
816.00,52.478
817.00,52.495
818.00,52.326
819.00,52.434
820.00,52.413
821.00,52.446
822.00,52.418
823.00,52.351
824.00,52.341
825.00,52.342
826.00,52.410
827.00,52.379
828.00,52.333
829.00,52.350
830.00,52.269
831.00,54.685
832.00,54.713
833.00,54.686
834.00,54.658
835.00,54.650
836.00,54.682
837.00,54.598
838.00,54.622
839.00,54.598
840.00,54.541
841.00,54.534
842.00,54.512
843.00,54.524
844.00,54.515
845.00,54.442
846.00,54.468
847.00,54.452
848.00,54.425
849.00,54.386
850.00,54.362
851.00,54.295
852.00,54.344
853.00,54.258
854.00,54.250
855.00,54.209
856.00,54.216
857.00,54.157
858.00,54.155
859.00,54.126
860.00,54.113
861.00,54.106
862.00,54.084
863.00,54.084
864.00,54.009
865.00,54.084
866.00,54.047
867.00,54.075
868.00,54.037
869.00,54.024
870.00,54.015
871.00,54.025
872.00,54.030
873.00,53.972
874.00,53.993
875.00,53.961
876.00,53.943
877.00,53.927
878.00,53.924
879.00,53.912
880.00,53.863
881.00,53.864
882.00,53.891
883.00,53.874
884.00,53.868
885.00,53.830
886.00,53.855
887.00,53.804
888.00,53.792
889.00,53.781
890.00,53.745
891.00,53.640
892.00,53.720
893.00,53.693
894.00,53.699
895.00,53.665
896.00,53.627
897.00,53.615
898.00,53.595
899.00,53.597
900.00,53.592
901.00,53.596
902.00,53.568
903.00,53.448
904.00,53.504
905.00,53.513
906.00,53.486
907.00,53.458
908.00,53.426
909.00,53.441
910.00,53.386
911.00,53.404
912.00,53.391
913.00,53.333
914.00,53.306
915.00,53.284
916.00,53.267
917.00,53.258
918.00,53.270
919.00,53.206
920.00,53.221
921.00,53.198
922.00,53.184
923.00,53.177
924.00,53.138
925.00,53.159
926.00,53.146
927.00,53.130
928.00,53.095
929.00,53.068
930.00,53.029
931.00,53.049
932.00,52.921
933.00,53.009
934.00,52.990
935.00,52.946
936.00,52.926
937.00,52.927
938.00,52.891
939.00,52.888
940.00,52.875
941.00,52.850
942.00,52.845
943.00,52.827
944.00,52.776
945.00,52.779
946.00,52.777
947.00,52.726
948.00,52.721
949.00,52.699
950.00,52.684
951.00,52.660
952.00,52.640
953.00,52.612
954.00,52.589
955.00,52.536
956.00,52.539
957.00,52.500
958.00,52.502
959.00,52.460
960.00,52.459
961.00,52.441
962.00,52.457
963.00,52.405
964.00,52.416
965.00,52.418
966.00,52.385
967.00,52.382
968.00,52.357
969.00,52.388
970.00,52.367
971.00,52.380
972.00,52.334
973.00,52.386
974.00,52.386
975.00,52.378
976.00,52.391
977.00,52.337
978.00,52.439
979.00,52.346
980.00,52.360
981.00,52.370
982.00,52.331
983.00,52.365
984.00,52.352
985.00,52.366
986.00,52.328
987.00,52.335
988.00,52.310
989.00,52.311
990.00,52.290
991.00,52.261
992.00,52.297
993.00,52.262
994.00,52.236
995.00,52.234
996.00,52.217
997.00,52.214
998.00,52.194
999.00,52.206
1000.00,52.160
1001.00,52.153
1002.00,52.143
1003.00,52.153
1004.00,52.105
1005.00,52.069
1006.00,52.130
1007.00,52.073
1008.00,52.071
1009.00,52.049
1010.00,52.032
1011.00,52.044
1012.00,52.008
1013.00,52.014
1014.00,51.989
1015.00,51.987
1016.00,51.938
1017.00,51.946
1018.00,51.950
1019.00,51.911
1020.00,51.912
1021.00,51.894
1022.00,51.879
1023.00,51.818
1024.00,51.845
1025.00,51.815
1026.00,51.795
1027.00,51.776
1028.00,51.775
1029.00,51.751
1030.00,51.741
1031.00,51.755
1032.00,51.703
1033.00,51.718
1034.00,51.682
1035.00,51.642
1036.00,51.635
1037.00,51.611
1038.00,51.597
1039.00,51.570
1040.00,51.543
1041.00,51.518
1042.00,51.513
1043.00,51.482
1044.00,51.529
1045.00,51.499
1046.00,51.480
1047.00,51.521
1048.00,51.524
1049.00,51.533
1050.00,51.541
1051.00,51.575
1052.00,51.581
1053.00,51.574
1054.00,51.577
1055.00,51.591
1056.00,51.598
1057.00,51.588
1058.00,51.585
1059.00,51.569
1060.00,51.587
1061.00,51.563
1062.00,51.544
1063.00,51.577
1064.00,51.570
1065.00,51.543
1066.00,51.547
1067.00,51.530
1068.00,51.550
1069.00,51.521
1070.00,51.497
1071.00,51.478
1072.00,51.503
1073.00,51.472
1074.00,51.486
1075.00,51.472
1076.00,51.459
1077.00,51.446
1078.00,51.419
1079.00,51.415
1080.00,51.426
1081.00,51.400
1082.00,51.392
1083.00,51.398
1084.00,51.382
1085.00,51.389
1086.00,51.369
1087.00,51.365
1088.00,51.348
1089.00,51.354
1090.00,51.340
1091.00,51.355
1092.00,51.340
1093.00,51.315
1094.00,51.287
1095.00,51.274
1096.00,51.257
1097.00,51.255
1098.00,51.246
1099.00,51.256
1100.00,51.259
1101.00,51.227
1102.00,51.225
1103.00,51.216
1104.00,51.201
1105.00,51.189
1106.00,51.182
1107.00,51.186
1108.00,51.175
1109.00,51.153
1110.00,51.154
1111.00,51.147
1112.00,51.119
1113.00,51.125
1114.00,51.109
1115.00,51.132
1116.00,51.135
1117.00,51.089
1118.00,51.088
1119.00,51.080
1120.00,51.061
1121.00,51.073
1122.00,51.056
1123.00,51.038
1124.00,51.050
1125.00,51.039
1126.00,51.032
1127.00,51.043
1128.00,51.006
1129.00,51.007
1130.00,50.988
1131.00,50.983
1132.00,50.992
1133.00,50.989
1134.00,50.950
1135.00,50.952
1136.00,50.936
1137.00,50.939
1138.00,50.949
1139.00,50.944
1140.00,50.945
1141.00,50.951
1142.00,50.931
1143.00,50.958
1144.00,50.930
1145.00,50.932
1146.00,50.965
1147.00,50.910
1148.00,50.902
1149.00,50.924
1150.00,50.902
1151.00,50.916
1152.00,50.909
1153.00,50.889
1154.00,50.894
1155.00,50.908
1156.00,50.886
1157.00,50.887
1158.00,50.877
1159.00,50.877
1160.00,50.884
1161.00,50.888
1162.00,50.887
1163.00,50.869
1164.00,50.854
1165.00,50.866
1166.00,50.862
1167.00,50.836
1168.00,50.869
1169.00,50.848
1170.00,50.834
1171.00,50.817
1172.00,50.824
1173.00,50.831
1174.00,50.851
1175.00,50.851
1176.00,50.848
1177.00,50.829
1178.00,50.824
1179.00,50.861
1180.00,50.826
1181.00,50.843
1182.00,50.832
1183.00,50.818
1184.00,50.824
1185.00,50.831
1186.00,50.811
1187.00,50.822
1188.00,50.821
1189.00,50.817
1190.00,50.810
1191.00,50.810
1192.00,50.835
1193.00,50.812
1194.00,50.819
1195.00,50.800
1196.00,50.823
1197.00,50.815
1198.00,50.803
1199.00,50.796
1200.00,50.796
1201.00,50.822
1202.00,50.798
1203.00,50.796
1204.00,50.788
1205.00,50.803
1206.00,50.791
1207.00,50.790
1208.00,50.778
1209.00,50.797
1210.00,50.788
1211.00,50.775
1212.00,50.801
1213.00,50.755
1214.00,50.778
1215.00,50.760
1216.00,50.762
1217.00,50.775
1218.00,50.760
1219.00,50.765
1220.00,50.778
1221.00,50.803
1222.00,50.771
1223.00,50.790
1224.00,50.774
1225.00,50.753
1226.00,50.777
1227.00,50.765
1228.00,50.790
1229.00,50.777
1230.00,50.803
1231.00,50.821
1232.00,50.844
1233.00,50.838
1234.00,50.838
1235.00,50.827
1236.00,50.813
1237.00,50.815
1238.00,50.819
1239.00,50.827
1240.00,50.810
1241.00,50.810
1242.00,50.826
1243.00,50.825
1244.00,50.793
1245.00,50.842
1246.00,50.833
1247.00,50.821
1248.00,50.827
1249.00,50.832
1250.00,50.844
1251.00,50.839
1252.00,50.843
1253.00,50.845
1254.00,50.856
1255.00,50.842
1256.00,50.833
1257.00,50.815
1258.00,50.861
1259.00,50.872
1260.00,50.886
1261.00,50.890
1262.00,50.876
1263.00,50.877
1264.00,50.903
1265.00,50.894
1266.00,50.884
1267.00,50.894
1268.00,50.908
1269.00,50.924
1270.00,50.909
1271.00,50.891
1272.00,50.904
1273.00,50.922
1274.00,50.907
1275.00,50.927
1276.00,50.923
1277.00,50.909
1278.00,50.948
1279.00,50.927
1280.00,50.926
1281.00,50.958
1282.00,50.950
1283.00,50.982
1284.00,50.945
1285.00,50.928
1286.00,50.960
1287.00,50.963
1288.00,50.961
1289.00,50.975
1290.00,50.991
1291.00,50.992
1292.00,50.988
1293.00,50.968
1294.00,50.994
1295.00,50.996
1296.00,50.971
1297.00,50.998
1298.00,51.020
1299.00,50.987
1300.00,51.018
1301.00,51.017
1302.00,51.031
1303.00,51.044
1304.00,51.017
1305.00,51.051
1306.00,51.067
1307.00,51.052
1308.00,51.080
1309.00,51.084
1310.00,51.044
1311.00,51.054
1312.00,51.061
1313.00,51.055
1314.00,51.101
1315.00,51.115
1316.00,51.088
1317.00,51.124
1318.00,51.096
1319.00,51.115
1320.00,51.113
1321.00,51.275
1322.00,51.282
1323.00,51.267
1324.00,51.242
1325.00,51.242
1326.00,51.256
1327.00,51.238
1328.00,51.274
1329.00,51.180
1330.00,51.238
1331.00,51.268
1332.00,51.246
1333.00,51.224
1334.00,51.307
1335.00,51.293
1336.00,51.335
1337.00,51.364
1338.00,51.403
1339.00,51.464
1340.00,51.494
1341.00,51.602
1342.00,51.642
1343.00,51.657
1344.00,51.729
1345.00,51.801
1346.00,51.819
1347.00,51.851
1348.00,51.901
1349.00,51.885
1350.00,51.919
1351.00,51.924
1352.00,51.946
1353.00,51.946
1354.00,51.938
1355.00,51.940
1356.00,51.994
1357.00,51.953
1358.00,52.014
1359.00,52.005
1360.00,51.942
1361.00,52.079
1362.00,52.000
1363.00,52.010
1364.00,52.102
1365.00,51.975
1366.00,52.056
1367.00,52.004
1368.00,51.935
1369.00,52.016
1370.00,51.952
1371.00,51.933
1372.00,51.946
1373.00,51.958
1374.00,51.974
1375.00,51.953
1376.00,51.928
1377.00,51.931
1378.00,51.947
1379.00,51.951
1380.00,51.961
1381.00,51.956
1382.00,51.976
1383.00,51.961
1384.00,51.871
1385.00,51.904
1386.00,51.947
1387.00,51.943
1388.00,51.877
1389.00,51.880
1390.00,51.855
1391.00,51.946
1392.00,51.899
1393.00,51.967
1394.00,51.989
1395.00,52.030
1396.00,51.787
1397.00,51.823
1398.00,51.875
1399.00,51.961
1400.00,51.910
1401.00,51.846
1402.00,51.854
1403.00,51.966
1404.00,51.920
1405.00,51.952
1406.00,51.953
1407.00,51.955
1408.00,51.998
1409.00,51.961
1410.00,51.984
1411.00,51.954
1412.00,52.011
1413.00,52.025
1414.00,51.993
1415.00,51.973
1416.00,52.026
1417.00,52.014
1418.00,52.037
1419.00,52.025
1420.00,52.034
1421.00,52.078
1422.00,52.094
1423.00,52.089
1424.00,52.094
1425.00,52.114
1426.00,52.112
1427.00,52.156
1428.00,52.140
1429.00,52.158
1430.00,52.172
1431.00,52.163
1432.00,52.198
1433.00,52.214
1434.00,52.187
1435.00,52.253
1436.00,52.280
1437.00,52.254
1438.00,52.281
1439.00,52.305
1440.00,52.325
1441.00,52.304
1442.00,52.312
1443.00,52.363
1444.00,52.456
1445.00,52.406
1446.00,52.390
1447.00,52.412
1448.00,52.427
1449.00,52.454
1450.00,52.445
1451.00,52.478
1452.00,52.482
1453.00,52.496
1454.00,52.516
1455.00,52.532
1456.00,52.527
1457.00,52.537
1458.00,52.573
1459.00,52.576
1460.00,52.614
1461.00,52.615
1462.00,52.638
1463.00,52.668
1464.00,52.655
1465.00,52.696
1466.00,52.691
1467.00,52.676
1468.00,52.747
1469.00,52.724
1470.00,52.727
1471.00,52.762
1472.00,52.771
1473.00,52.773
1474.00,52.796
1475.00,52.811
1476.00,52.840
1477.00,52.811
1478.00,52.803
1479.00,52.854
1480.00,52.853
1481.00,52.854
1482.00,52.906
1483.00,52.896
1484.00,52.925
1485.00,52.920
1486.00,52.924
1487.00,52.947
1488.00,52.978
1489.00,52.948
1490.00,52.995
1491.00,52.980
1492.00,52.984
1493.00,52.985
1494.00,53.001
1495.00,53.010
1496.00,53.032
1497.00,53.011
1498.00,53.040
1499.00,53.055
1500.00,53.070
1501.00, 
1502.00, 
1503.00, 
1504.00, 
1505.00, 
1506.00, 
1507.00, 
1508.00, 
1509.00, 
1510.00, 
1511.00, 
1512.00, 
1513.00, 
1514.00, 
1515.00, 
1516.00, 
1517.00, 
1518.00, 
1519.00, 
1520.00, 
1521.00, 
1522.00, 
1523.00, 
1524.00, 
1525.00, 
1526.00, 
1527.00, 
1528.00, 
1529.00, 
1530.00, 
1531.00, 
1532.00, 
1533.00, 
1534.00, 
1535.00, 
1536.00, 
1537.00, 
1538.00, 
1539.00, 
1540.00, 
1541.00, 
1542.00, 
1543.00, 
1544.00, 
1545.00, 
1546.00, 
1547.00, 
1548.00, 
1549.00, 
1550.00, 
1551.00, 
1552.00, 
1553.00, 
1554.00, 
1555.00, 
1556.00, 
1557.00, 
1558.00, 
1559.00, 
1560.00, 
1561.00, 
1562.00, 
1563.00, 
1564.00, 
1565.00, 
1566.00, 
1567.00, 
1568.00, 
1569.00, 
1570.00, 
1571.00, 
1572.00, 
1573.00, 
1574.00, 
1575.00, 
1576.00, 
1577.00, 
1578.00, 
1579.00, 
1580.00, 
1581.00, 
1582.00, 
1583.00, 
1584.00, 
1585.00, 
1586.00, 
1587.00, 
1588.00, 
1589.00, 
1590.00, 
1591.00, 
1592.00, 
1593.00, 
1594.00, 
1595.00, 
1596.00, 
1597.00, 
1598.00, 
1599.00, 
1600.00, 
1601.00, 
1602.00, 
1603.00, 
1604.00, 
1605.00, 
1606.00, 
1607.00, 
1608.00, 
1609.00, 
1610.00, 
1611.00, 
1612.00, 
1613.00, 
1614.00, 
1615.00, 
1616.00, 
1617.00, 
1618.00, 
1619.00, 
1620.00, 
1621.00, 
1622.00, 
1623.00, 
1624.00, 
1625.00, 
1626.00, 
1627.00, 
1628.00, 
1629.00, 
1630.00, 
1631.00, 
1632.00, 
1633.00, 
1634.00, 
1635.00, 
1636.00, 
1637.00, 
1638.00, 
1639.00, 
1640.00, 
1641.00, 
1642.00, 
1643.00, 
1644.00, 
1645.00, 
1646.00, 
1647.00, 
1648.00, 
1649.00, 
1650.00, 
1651.00, 
1652.00, 
1653.00, 
1654.00, 
1655.00, 
1656.00, 
1657.00, 
1658.00, 
1659.00, 
1660.00, 
1661.00, 
1662.00, 
1663.00, 
1664.00, 
1665.00, 
1666.00, 
1667.00, 
1668.00, 
1669.00, 
1670.00, 
1671.00, 
1672.00, 
1673.00, 
1674.00, 
1675.00, 
1676.00, 
1677.00, 
1678.00, 
1679.00, 
1680.00, 
1681.00, 
1682.00, 
1683.00, 
1684.00, 
1685.00, 
1686.00, 
1687.00, 
1688.00, 
1689.00, 
1690.00, 
1691.00, 
1692.00, 
1693.00, 
1694.00, 
1695.00, 
1696.00, 
1697.00, 
1698.00, 
1699.00, 
1700.00, 
1701.00, 
1702.00, 
1703.00, 
1704.00, 
1705.00, 
1706.00, 
1707.00, 
1708.00, 
1709.00, 
1710.00, 
1711.00, 
1712.00, 
1713.00, 
1714.00, 
1715.00, 
1716.00, 
1717.00, 
1718.00, 
1719.00, 
1720.00, 
1721.00, 
1722.00, 
1723.00, 
1724.00, 
1725.00, 
1726.00, 
1727.00, 
1728.00, 
1729.00, 
1730.00, 
1731.00, 
1732.00, 
1733.00, 
1734.00, 
1735.00, 
1736.00, 
1737.00, 
1738.00, 
1739.00, 
1740.00, 
1741.00, 
1742.00, 
1743.00, 
1744.00, 
1745.00, 
1746.00, 
1747.00, 
1748.00, 
1749.00, 
1750.00, 
1751.00, 
1752.00, 
1753.00, 
1754.00, 
1755.00, 
1756.00, 
1757.00, 
1758.00, 
1759.00, 
1760.00, 
1761.00, 
1762.00, 
1763.00, 
1764.00, 
1765.00, 
1766.00, 
1767.00, 
1768.00, 
1769.00, 
1770.00, 
1771.00, 
1772.00, 
1773.00, 
1774.00, 
1775.00, 
1776.00, 
1777.00, 
1778.00, 
1779.00, 
1780.00, 
1781.00, 
1782.00, 
1783.00, 
1784.00, 
1785.00, 
1786.00, 
1787.00, 
1788.00, 
1789.00, 
1790.00, 
1791.00, 
1792.00, 
1793.00, 
1794.00, 
1795.00, 
1796.00, 
1797.00, 
1798.00, 
1799.00, 
1800.00, 
1801.00, 
1802.00, 
1803.00, 
1804.00, 
1805.00, 
1806.00, 
1807.00, 
1808.00, 
1809.00, 
1810.00, 
1811.00, 
1812.00, 
1813.00, 
1814.00, 
1815.00, 
1816.00, 
1817.00, 
1818.00, 
1819.00, 
1820.00, 
1821.00, 
1822.00, 
1823.00, 
1824.00, 
1825.00, 
1826.00, 
1827.00, 
1828.00, 
1829.00, 
1830.00, 
1831.00, 
1832.00, 
1833.00, 
1834.00, 
1835.00, 
1836.00, 
1837.00, 
1838.00, 
1839.00, 
1840.00, 
1841.00, 
1842.00, 
1843.00, 
1844.00, 
1845.00, 
1846.00, 
1847.00, 
1848.00, 
1849.00, 
1850.00, 
1851.00, 
1852.00, 
1853.00, 
1854.00, 
1855.00, 
1856.00, 
1857.00, 
1858.00, 
1859.00, 
1860.00, 
1861.00, 
1862.00, 
1863.00, 
1864.00, 
1865.00, 
1866.00, 
1867.00, 
1868.00, 
1869.00, 
1870.00, 
1871.00, 
1872.00, 
1873.00, 
1874.00, 
1875.00, 
1876.00, 
1877.00, 
1878.00, 
1879.00, 
1880.00, 
1881.00, 
1882.00, 
1883.00, 
1884.00, 
1885.00, 
1886.00, 
1887.00, 
1888.00, 
1889.00, 
1890.00, 
1891.00, 
1892.00, 
1893.00, 
1894.00, 
1895.00, 
1896.00, 
1897.00, 
1898.00, 
1899.00, 
1900.00, 
1901.00, 
1902.00, 
1903.00, 
1904.00, 
1905.00, 
1906.00, 
1907.00, 
1908.00, 
1909.00, 
1910.00, 
1911.00, 
1912.00, 
1913.00, 
1914.00, 
1915.00, 
1916.00, 
1917.00, 
1918.00, 
1919.00, 
1920.00, 
1921.00, 
1922.00, 
1923.00, 
1924.00, 
1925.00, 
1926.00, 
1927.00, 
1928.00, 
1929.00, 
1930.00, 
1931.00, 
1932.00, 
1933.00, 
1934.00, 
1935.00, 
1936.00, 
1937.00, 
1938.00, 
1939.00, 
1940.00, 
1941.00, 
1942.00, 
1943.00, 
1944.00, 
1945.00, 
1946.00, 
1947.00, 
1948.00, 
1949.00, 
1950.00, 
1951.00, 
1952.00, 
1953.00, 
1954.00, 
1955.00, 
1956.00, 
1957.00, 
1958.00, 
1959.00, 
1960.00, 
1961.00, 
1962.00, 
1963.00, 
1964.00, 
1965.00, 
1966.00, 
1967.00, 
1968.00, 
1969.00, 
1970.00, 
1971.00, 
1972.00, 
1973.00, 
1974.00, 
1975.00, 
1976.00, 
1977.00, 
1978.00, 
1979.00, 
1980.00, 
1981.00, 
1982.00, 
1983.00, 
1984.00, 
1985.00, 
1986.00, 
1987.00, 
1988.00, 
1989.00, 
1990.00, 
1991.00, 
1992.00, 
1993.00, 
1994.00, 
1995.00, 
1996.00, 
1997.00, 
1998.00, 
1999.00, 
2000.00, 
2001.00, 
2002.00, 
2003.00, 
2004.00, 
2005.00, 
2006.00, 
2007.00, 
2008.00, 
2009.00, 
2010.00, 
2011.00, 
2012.00, 
2013.00, 
2014.00, 
2015.00, 
2016.00, 
2017.00, 
2018.00, 
2019.00, 
2020.00, 
2021.00, 
2022.00, 
2023.00, 
2024.00, 
2025.00, 
2026.00, 
2027.00, 
2028.00, 
2029.00, 
2030.00, 
2031.00, 
2032.00, 
2033.00, 
2034.00, 
2035.00, 
2036.00, 
2037.00, 
2038.00, 
2039.00, 
2040.00, 
2041.00, 
2042.00, 
2043.00, 
2044.00, 
2045.00, 
2046.00, 
2047.00, 
2048.00, 
2049.00, 
2050.00, 
2051.00, 
2052.00, 
2053.00, 
2054.00, 
2055.00, 
2056.00, 
2057.00, 
2058.00, 
2059.00, 
2060.00, 
2061.00, 
2062.00, 
2063.00, 
2064.00, 
2065.00, 
2066.00, 
2067.00, 
2068.00, 
2069.00, 
2070.00, 
2071.00, 
2072.00, 
2073.00, 
2074.00, 
2075.00, 
2076.00, 
2077.00, 
2078.00, 
2079.00, 
2080.00, 
2081.00, 
2082.00, 
2083.00, 
2084.00, 
2085.00, 
2086.00, 
2087.00, 
2088.00, 
2089.00, 
2090.00, 
2091.00, 
2092.00, 
2093.00, 
2094.00, 
2095.00, 
2096.00, 
2097.00, 
2098.00, 
2099.00, 
2100.00, 
2101.00, 
2102.00, 
2103.00, 
2104.00, 
2105.00, 
2106.00, 
2107.00, 
2108.00, 
2109.00, 
2110.00, 
2111.00, 
2112.00, 
2113.00, 
2114.00, 
2115.00, 
2116.00, 
2117.00, 
2118.00, 
2119.00, 
2120.00, 
2121.00, 
2122.00, 
2123.00, 
2124.00, 
2125.00, 
2126.00, 
2127.00, 
2128.00, 
2129.00, 
2130.00, 
2131.00, 
2132.00, 
2133.00, 
2134.00, 
2135.00, 
2136.00, 
2137.00, 
2138.00, 
2139.00, 
2140.00, 
2141.00, 
2142.00, 
2143.00, 
2144.00, 
2145.00, 
2146.00, 
2147.00, 
2148.00, 
2149.00, 
2150.00, 
2151.00, 
2152.00, 
2153.00, 
2154.00, 
2155.00, 
2156.00, 
2157.00, 
2158.00, 
2159.00, 
2160.00, 
2161.00, 
2162.00, 
2163.00, 
2164.00, 
2165.00, 
2166.00, 
2167.00, 
2168.00, 
2169.00, 
2170.00, 
2171.00, 
2172.00, 
2173.00, 
2174.00, 
2175.00, 
2176.00, 
2177.00, 
2178.00, 
2179.00, 
2180.00, 
2181.00, 
2182.00, 
2183.00, 
2184.00, 
2185.00, 
2186.00, 
2187.00, 
2188.00, 
2189.00, 
2190.00, 
2191.00, 
2192.00, 
2193.00, 
2194.00, 
2195.00, 
2196.00, 
2197.00, 
2198.00, 
2199.00, 
2200.00, 
2201.00, 
2202.00, 
2203.00, 
2204.00, 
2205.00, 
2206.00, 
2207.00, 
2208.00, 
2209.00, 
2210.00, 
2211.00, 
2212.00, 
2213.00, 
2214.00, 
2215.00, 
2216.00, 
2217.00, 
2218.00, 
2219.00, 
2220.00, 
2221.00, 
2222.00, 
2223.00, 
2224.00, 
2225.00, 
2226.00, 
2227.00, 
2228.00, 
2229.00, 
2230.00, 
2231.00, 
2232.00, 
2233.00, 
2234.00, 
2235.00, 
2236.00, 
2237.00, 
2238.00, 
2239.00, 
2240.00, 
2241.00, 
2242.00, 
2243.00, 
2244.00, 
2245.00, 
2246.00, 
2247.00, 
2248.00, 
2249.00, 
2250.00, 
2251.00, 
2252.00, 
2253.00, 
2254.00, 
2255.00, 
2256.00, 
2257.00, 
2258.00, 
2259.00, 
2260.00, 
2261.00, 
2262.00, 
2263.00, 
2264.00, 
2265.00, 
2266.00, 
2267.00, 
2268.00, 
2269.00, 
2270.00, 
2271.00, 
2272.00, 
2273.00, 
2274.00, 
2275.00, 
2276.00, 
2277.00, 
2278.00, 
2279.00, 
2280.00, 
2281.00, 
2282.00, 
2283.00, 
2284.00, 
2285.00, 
2286.00, 
2287.00, 
2288.00, 
2289.00, 
2290.00, 
2291.00, 
2292.00, 
2293.00, 
2294.00, 
2295.00, 
2296.00, 
2297.00, 
2298.00, 
2299.00, 
2300.00, 
2301.00, 
2302.00, 
2303.00, 
2304.00, 
2305.00, 
2306.00, 
2307.00, 
2308.00, 
2309.00, 
2310.00, 
2311.00, 
2312.00, 
2313.00, 
2314.00, 
2315.00, 
2316.00, 
2317.00, 
2318.00, 
2319.00, 
2320.00, 
2321.00, 
2322.00, 
2323.00, 
2324.00, 
2325.00, 
2326.00, 
2327.00, 
2328.00, 
2329.00, 
2330.00, 
2331.00, 
2332.00, 
2333.00, 
2334.00, 
2335.00, 
2336.00, 
2337.00, 
2338.00, 
2339.00, 
2340.00, 
2341.00, 
2342.00, 
2343.00, 
2344.00, 
2345.00, 
2346.00, 
2347.00, 
2348.00, 
2349.00, 
2350.00, 
2351.00, 
2352.00, 
2353.00, 
2354.00, 
2355.00, 
2356.00, 
2357.00, 
2358.00, 
2359.00, 
2360.00, 
2361.00, 
2362.00, 
2363.00, 
2364.00, 
2365.00, 
2366.00, 
2367.00, 
2368.00, 
2369.00, 
2370.00, 
2371.00, 
2372.00, 
2373.00, 
2374.00, 
2375.00, 
2376.00, 
2377.00, 
2378.00, 
2379.00, 
2380.00, 
2381.00, 
2382.00, 
2383.00, 
2384.00, 
2385.00, 
2386.00, 
2387.00, 
2388.00, 
2389.00, 
2390.00, 
2391.00, 
2392.00, 
2393.00, 
2394.00, 
2395.00, 
2396.00, 
2397.00, 
2398.00, 
2399.00, 
2400.00, 
2401.00, 
2402.00, 
2403.00, 
2404.00, 
2405.00, 
2406.00, 
2407.00, 
2408.00, 
2409.00, 
2410.00, 
2411.00, 
2412.00, 
2413.00, 
2414.00, 
2415.00, 
2416.00, 
2417.00, 
2418.00, 
2419.00, 
2420.00, 
2421.00, 
2422.00, 
2423.00, 
2424.00, 
2425.00, 
2426.00, 
2427.00, 
2428.00, 
2429.00, 
2430.00, 
2431.00, 
2432.00, 
2433.00, 
2434.00, 
2435.00, 
2436.00, 
2437.00, 
2438.00, 
2439.00, 
2440.00, 
2441.00, 
2442.00, 
2443.00, 
2444.00, 
2445.00, 
2446.00, 
2447.00, 
2448.00, 
2449.00, 
2450.00, 
2451.00, 
2452.00, 
2453.00, 
2454.00, 
2455.00, 
2456.00, 
2457.00, 
2458.00, 
2459.00, 
2460.00, 
2461.00, 
2462.00, 
2463.00, 
2464.00, 
2465.00, 
2466.00, 
2467.00, 
2468.00, 
2469.00, 
2470.00, 
2471.00, 
2472.00, 
2473.00, 
2474.00, 
2475.00, 
2476.00, 
2477.00, 
2478.00, 
2479.00, 
2480.00, 
2481.00, 
2482.00, 
2483.00, 
2484.00, 
2485.00, 
2486.00, 
2487.00, 
2488.00, 
2489.00, 
2490.00, 
2491.00, 
2492.00, 
2493.00, 
2494.00, 
2495.00, 
2496.00, 
2497.00, 
2498.00, 
2499.00, 
2500.00, 
2501.00, 
2502.00, 
2503.00, 
2504.00, 
2505.00, 
2506.00, 
2507.00, 
2508.00, 
2509.00, 
2510.00, 
2511.00, 
2512.00, 
2513.00, 
2514.00, 
2515.00, 
2516.00, 
2517.00, 
2518.00, 
2519.00, 
2520.00, 
2521.00, 
2522.00, 
2523.00, 
2524.00, 
2525.00, 
2526.00, 
2527.00, 
2528.00, 
2529.00, 
2530.00, 
2531.00, 
2532.00, 
2533.00, 
2534.00, 
2535.00, 
2536.00, 
2537.00, 
2538.00, 
2539.00, 
2540.00, 
2541.00, 
2542.00, 
2543.00, 
2544.00, 
2545.00, 
2546.00, 
2547.00, 
2548.00, 
2549.00, 
2550.00, 
2551.00, 
2552.00, 
2553.00, 
2554.00, 
2555.00, 
2556.00, 
2557.00, 
2558.00, 
2559.00, 
2560.00, 
2561.00, 
2562.00, 
2563.00, 
2564.00, 
2565.00, 
2566.00, 
2567.00, 
2568.00, 
2569.00, 
2570.00, 
2571.00, 
2572.00, 
2573.00, 
2574.00, 
2575.00, 
2576.00, 
2577.00, 
2578.00, 
2579.00, 
2580.00, 
2581.00, 
2582.00, 
2583.00, 
2584.00, 
2585.00, 
2586.00, 
2587.00, 
2588.00, 
2589.00, 
2590.00, 
2591.00, 
2592.00, 
2593.00, 
2594.00, 
2595.00, 
2596.00, 
2597.00, 
2598.00, 
2599.00, 
2600.00, 
