"2cP2 - RawData"
"Wavelength nm.","T%"
200.00,0.002
201.00,0.002
202.00,0.004
203.00,0.002
204.00,-0.001
205.00,0.002
206.00,0.003
207.00,-0.000
208.00,0.004
209.00,0.005
210.00,0.001
211.00,0.003
212.00,0.001
213.00,0.003
214.00,0.001
215.00,0.002
216.00,0.001
217.00,0.002
218.00,0.001
219.00,-0.003
220.00,0.003
221.00,0.003
222.00,0.003
223.00,0.001
224.00,0.001
225.00,0.002
226.00,0.002
227.00,0.002
228.00,0.002
229.00,-0.001
230.00,0.002
231.00,0.000
232.00,-0.000
233.00,-0.002
234.00,0.002
235.00,0.001
236.00,-0.001
237.00,0.001
238.00,-0.001
239.00,0.002
240.00,-0.000
241.00,0.001
242.00,0.002
243.00,0.000
244.00,-0.001
245.00,-0.000
246.00,0.002
247.00,0.001
248.00,0.002
249.00,-0.001
250.00,0.001
251.00,0.000
252.00,0.002
253.00,0.002
254.00,0.002
255.00,0.002
256.00,0.003
257.00,0.001
258.00,0.000
259.00,0.001
260.00,0.001
261.00,0.000
262.00,0.002
263.00,0.001
264.00,-0.000
265.00,-0.001
266.00,-0.001
267.00,0.001
268.00,0.000
269.00,-0.001
270.00,-0.000
271.00,0.000
272.00,0.001
273.00,0.001
274.00,0.000
275.00,0.001
276.00,0.001
277.00,0.002
278.00,0.001
279.00,-0.000
280.00,0.000
281.00,-0.002
282.00,0.001
283.00,0.001
284.00,-0.001
285.00,0.001
286.00,-0.002
287.00,-0.000
288.00,0.001
289.00,0.000
290.00,0.001
291.00,-0.000
292.00,-0.001
293.00,-0.001
294.00,0.001
295.00,0.001
296.00,-0.001
297.00,0.001
298.00,0.001
299.00,0.003
300.00,0.004
301.00,0.006
302.00,0.010
303.00,0.013
304.00,0.019
305.00,0.034
306.00,0.050
307.00,0.077
308.00,0.119
309.00,0.181
310.00,0.255
311.00,0.345
312.00,0.480
313.00,0.652
314.00,0.855
315.00,1.118
316.00,1.428
317.00,1.812
318.00,2.227
319.00,2.734
320.00,3.323
321.00,3.979
322.00,4.728
323.00,5.605
324.00,6.461
325.00,7.367
326.00,8.281
327.00,9.350
328.00,10.469
329.00,11.529
330.00,12.742
331.00,13.928
332.00,15.139
333.00,16.405
334.00,17.620
335.00,18.887
336.00,20.143
337.00,21.396
338.00,22.567
339.00,23.749
340.00,24.929
341.00,26.086
342.00,27.093
343.00,28.134
344.00,29.212
345.00,30.111
346.00,31.006
347.00,31.889
348.00,32.725
349.00,33.485
350.00,34.235
351.00,34.981
352.00,35.641
353.00,36.260
354.00,36.887
355.00,37.497
356.00,37.998
357.00,38.538
358.00,38.968
359.00,39.439
360.00,39.851
361.00,40.168
362.00,40.641
363.00,40.971
364.00,41.320
365.00,41.596
366.00,41.834
367.00,42.071
368.00,42.308
369.00,42.418
370.00,42.649
371.00,42.768
372.00,42.777
373.00,42.922
374.00,42.985
375.00,42.998
376.00,42.979
377.00,43.035
378.00,43.003
379.00,43.003
380.00,43.013
381.00,43.109
382.00,43.158
383.00,43.267
384.00,43.333
385.00,43.560
386.00,43.647
387.00,43.823
388.00,43.945
389.00,44.083
390.00,44.225
391.00,44.333
392.00,44.380
393.00,44.542
394.00,44.634
395.00,44.664
396.00,44.776
397.00,44.850
398.00,44.923
399.00,44.972
400.00,45.000
401.00,45.100
402.00,45.096
403.00,45.156
404.00,45.168
405.00,45.270
406.00,45.139
407.00,45.167
408.00,45.188
409.00,45.101
410.00,44.988
411.00,45.007
412.00,45.023
413.00,44.996
414.00,44.998
415.00,44.994
416.00,45.055
417.00,45.005
418.00,45.083
419.00,45.095
420.00,45.112
421.00,45.263
422.00,45.260
423.00,45.245
424.00,45.291
425.00,45.276
426.00,45.316
427.00,45.331
428.00,45.434
429.00,45.416
430.00,45.394
431.00,45.452
432.00,45.429
433.00,45.474
434.00,45.538
435.00,45.562
436.00,45.588
437.00,45.600
438.00,45.672
439.00,45.665
440.00,45.686
441.00,45.744
442.00,45.803
443.00,45.778
444.00,45.874
445.00,45.919
446.00,45.943
447.00,46.066
448.00,46.083
449.00,46.177
450.00,46.199
451.00,46.239
452.00,46.326
453.00,46.348
454.00,46.437
455.00,46.460
456.00,46.513
457.00,46.542
458.00,46.616
459.00,46.675
460.00,46.753
461.00,46.787
462.00,46.862
463.00,46.977
464.00,46.988
465.00,47.033
466.00,47.079
467.00,47.142
468.00,47.106
469.00,47.163
470.00,47.160
471.00,47.209
472.00,47.241
473.00,47.254
474.00,47.260
475.00,47.343
476.00,47.285
477.00,47.393
478.00,47.391
479.00,47.445
480.00,47.591
481.00,47.553
482.00,47.641
483.00,47.606
484.00,47.764
485.00,47.970
486.00,47.951
487.00,48.039
488.00,48.028
489.00,48.196
490.00,48.274
491.00,48.311
492.00,48.419
493.00,48.458
494.00,48.351
495.00,48.431
496.00,48.541
497.00,48.532
498.00,48.665
499.00,48.782
500.00,48.559
501.00,48.806
502.00,48.858
503.00,48.932
504.00,48.951
505.00,48.977
506.00,49.071
507.00,49.050
508.00,49.135
509.00,49.139
510.00,49.207
511.00,49.240
512.00,49.237
513.00,49.332
514.00,49.438
515.00,49.337
516.00,49.519
517.00,49.605
518.00,49.688
519.00,49.624
520.00,49.655
521.00,49.636
522.00,49.667
523.00,49.702
524.00,49.690
525.00,49.829
526.00,49.828
527.00,49.813
528.00,49.831
529.00,49.902
530.00,49.909
531.00,50.106
532.00,50.087
533.00,50.129
534.00,50.205
535.00,50.190
536.00,50.284
537.00,50.266
538.00,50.318
539.00,50.378
540.00,50.335
541.00,50.377
542.00,50.323
543.00,50.353
544.00,50.331
545.00,50.514
546.00,50.524
547.00,50.572
548.00,50.614
549.00,50.619
550.00,50.707
551.00,50.728
552.00,50.809
553.00,50.873
554.00,50.819
555.00,50.876
556.00,50.867
557.00,50.889
558.00,50.899
559.00,50.915
560.00,50.996
561.00,51.026
562.00,51.027
563.00,51.068
564.00,51.042
565.00,51.048
566.00,51.021
567.00,50.998
568.00,51.059
569.00,51.007
570.00,50.998
571.00,51.036
572.00,51.018
573.00,51.072
574.00,51.150
575.00,51.113
576.00,51.087
577.00,51.140
578.00,51.200
579.00,51.196
580.00,51.227
581.00,51.296
582.00,51.358
583.00,51.407
584.00,51.532
585.00,51.543
586.00,51.516
587.00,51.618
588.00,51.590
589.00,51.592
590.00,51.612
591.00,51.614
592.00,51.533
593.00,51.557
594.00,51.674
595.00,51.611
596.00,51.558
597.00,51.701
598.00,51.750
599.00,51.637
600.00,51.723
601.00,51.688
602.00,51.773
603.00,51.583
604.00,51.576
605.00,51.803
606.00,51.891
607.00,51.803
608.00,51.870
609.00,51.837
610.00,51.679
611.00,51.813
612.00,51.907
613.00,51.813
614.00,51.742
615.00,51.720
616.00,51.904
617.00,51.916
618.00,51.937
619.00,51.914
620.00,51.906
621.00,51.918
622.00,51.875
623.00,51.938
624.00,52.007
625.00,51.871
626.00,51.938
627.00,51.962
628.00,51.854
629.00,51.850
630.00,51.790
631.00,51.974
632.00,51.975
633.00,51.950
634.00,52.046
635.00,52.054
636.00,52.033
637.00,52.120
638.00,52.076
639.00,52.060
640.00,52.047
641.00,52.052
642.00,52.013
643.00,52.075
644.00,52.101
645.00,52.052
646.00,52.138
647.00,52.114
648.00,52.110
649.00,52.131
650.00,52.112
651.00,52.079
652.00,52.107
653.00,52.092
654.00,52.140
655.00,52.128
656.00,52.175
657.00,52.262
658.00,52.246
659.00,52.244
660.00,52.165
661.00,52.056
662.00,52.226
663.00,52.211
664.00,52.236
665.00,52.201
666.00,52.201
667.00,52.238
668.00,52.204
669.00,52.271
670.00,52.252
671.00,52.283
672.00,52.168
673.00,52.251
674.00,52.219
675.00,52.201
676.00,52.313
677.00,52.254
678.00,52.179
679.00,52.141
680.00,52.179
681.00,52.219
682.00,52.203
683.00,52.180
684.00,52.309
685.00,52.223
686.00,52.125
687.00,52.150
688.00,52.217
689.00,52.112
690.00,52.303
691.00,52.251
692.00,52.177
693.00,52.099
694.00,52.158
695.00,52.245
696.00,52.161
697.00,52.209
698.00,52.134
699.00,52.205
700.00,52.265
701.00,52.134
702.00,52.161
703.00,52.173
704.00,52.215
705.00,52.172
706.00,52.159
707.00,52.206
708.00,52.041
709.00,52.173
710.00,52.293
711.00,51.993
712.00,52.010
713.00,52.038
714.00,52.010
715.00,51.997
716.00,52.043
717.00,52.006
718.00,51.988
719.00,51.929
720.00,51.885
721.00,56.320
722.00,56.255
723.00,56.252
724.00,56.107
725.00,56.060
726.00,55.919
727.00,55.822
728.00,55.853
729.00,55.769
730.00,55.798
731.00,55.686
732.00,55.590
733.00,55.589
734.00,55.583
735.00,55.583
736.00,55.559
737.00,55.478
738.00,55.445
739.00,55.436
740.00,55.391
741.00,55.312
742.00,55.331
743.00,55.296
744.00,55.199
745.00,55.198
746.00,55.033
747.00,55.003
748.00,54.953
749.00,54.840
750.00,54.855
751.00,54.747
752.00,54.748
753.00,54.709
754.00,54.604
755.00,54.570
756.00,54.624
757.00,54.522
758.00,54.529
759.00,54.414
760.00,54.348
761.00,54.314
762.00,54.239
763.00,54.225
764.00,54.320
765.00,54.246
766.00,54.179
767.00,54.197
768.00,54.173
769.00,54.039
770.00,54.085
771.00,54.001
772.00,53.946
773.00,53.887
774.00,53.935
775.00,53.870
776.00,53.847
777.00,53.782
778.00,53.800
779.00,53.845
780.00,53.696
781.00,53.668
782.00,53.678
783.00,53.604
784.00,53.561
785.00,53.490
786.00,53.518
787.00,53.510
788.00,53.419
789.00,53.422
790.00,53.354
791.00,53.343
792.00,53.249
793.00,53.203
794.00,53.092
795.00,53.153
796.00,53.167
797.00,53.084
798.00,53.088
799.00,53.054
800.00,52.936
801.00,52.946
802.00,52.933
803.00,52.956
804.00,52.878
805.00,52.931
806.00,52.740
807.00,52.785
808.00,52.682
809.00,52.754
810.00,52.685
811.00,52.589
812.00,52.668
813.00,52.488
814.00,52.523
815.00,52.458
816.00,52.533
817.00,52.440
818.00,52.318
819.00,52.346
820.00,52.314
821.00,52.214
822.00,52.296
823.00,52.236
824.00,52.226
825.00,52.184
826.00,52.258
827.00,52.125
828.00,52.080
829.00,52.052
830.00,51.955
831.00,54.620
832.00,54.580
833.00,54.558
834.00,54.554
835.00,54.497
836.00,54.522
837.00,54.399
838.00,54.422
839.00,54.399
840.00,54.324
841.00,54.298
842.00,54.256
843.00,54.253
844.00,54.232
845.00,54.153
846.00,54.165
847.00,54.121
848.00,54.106
849.00,54.035
850.00,54.017
851.00,53.928
852.00,53.928
853.00,53.869
854.00,53.847
855.00,53.793
856.00,53.778
857.00,53.696
858.00,53.702
859.00,53.667
860.00,53.645
861.00,53.613
862.00,53.536
863.00,53.625
864.00,53.517
865.00,53.542
866.00,53.478
867.00,53.493
868.00,53.462
869.00,53.430
870.00,53.444
871.00,53.394
872.00,53.382
873.00,53.361
874.00,53.386
875.00,53.316
876.00,53.312
877.00,53.293
878.00,53.267
879.00,53.239
880.00,53.218
881.00,53.197
882.00,53.185
883.00,53.172
884.00,53.161
885.00,53.089
886.00,53.076
887.00,53.032
888.00,53.030
889.00,53.002
890.00,53.002
891.00,52.940
892.00,52.917
893.00,53.007
894.00,52.900
895.00,52.879
896.00,52.842
897.00,52.821
898.00,52.798
899.00,52.803
900.00,52.777
901.00,52.763
902.00,52.733
903.00,52.705
904.00,52.687
905.00,52.619
906.00,52.682
907.00,52.606
908.00,52.584
909.00,52.584
910.00,52.519
911.00,52.529
912.00,52.537
913.00,52.457
914.00,52.435
915.00,52.411
916.00,52.399
917.00,52.356
918.00,52.346
919.00,52.314
920.00,52.308
921.00,52.281
922.00,52.253
923.00,52.247
924.00,52.225
925.00,52.228
926.00,52.221
927.00,52.197
928.00,52.141
929.00,52.124
930.00,52.068
931.00,52.093
932.00,51.981
933.00,52.052
934.00,52.033
935.00,52.002
936.00,51.981
937.00,51.961
938.00,51.920
939.00,51.935
940.00,51.908
941.00,51.884
942.00,51.840
943.00,51.855
944.00,51.795
945.00,51.787
946.00,51.781
947.00,51.738
948.00,51.718
949.00,51.702
950.00,51.674
951.00,51.660
952.00,51.615
953.00,51.605
954.00,51.579
955.00,51.534
956.00,51.518
957.00,51.582
958.00,51.494
959.00,51.450
960.00,51.453
961.00,51.417
962.00,51.422
963.00,51.399
964.00,51.380
965.00,51.364
966.00,51.356
967.00,51.337
968.00,51.315
969.00,51.361
970.00,51.308
971.00,51.323
972.00,51.278
973.00,51.331
974.00,51.314
975.00,51.272
976.00,51.337
977.00,51.270
978.00,51.320
979.00,51.279
980.00,51.306
981.00,51.310
982.00,51.282
983.00,51.289
984.00,51.263
985.00,51.275
986.00,51.228
987.00,51.248
988.00,51.224
989.00,51.203
990.00,51.216
991.00,51.178
992.00,51.199
993.00,51.167
994.00,51.143
995.00,51.134
996.00,51.122
997.00,51.135
998.00,51.099
999.00,51.111
1000.00,51.064
1001.00,51.071
1002.00,51.055
1003.00,51.050
1004.00,51.039
1005.00,50.995
1006.00,51.016
1007.00,50.983
1008.00,50.981
1009.00,50.953
1010.00,50.934
1011.00,50.936
1012.00,50.925
1013.00,50.926
1014.00,50.884
1015.00,50.899
1016.00,50.856
1017.00,50.859
1018.00,50.846
1019.00,50.801
1020.00,50.800
1021.00,50.770
1022.00,50.770
1023.00,50.731
1024.00,50.718
1025.00,50.711
1026.00,50.706
1027.00,50.683
1028.00,50.681
1029.00,50.659
1030.00,50.628
1031.00,50.644
1032.00,50.595
1033.00,50.600
1034.00,50.573
1035.00,50.535
1036.00,50.521
1037.00,50.498
1038.00,50.493
1039.00,50.459
1040.00,50.443
1041.00,50.406
1042.00,50.409
1043.00,50.371
1044.00,50.403
1045.00,50.388
1046.00,50.371
1047.00,50.383
1048.00,50.402
1049.00,50.402
1050.00,50.410
1051.00,50.424
1052.00,50.433
1053.00,50.453
1054.00,50.440
1055.00,50.481
1056.00,50.474
1057.00,50.479
1058.00,50.474
1059.00,50.470
1060.00,50.469
1061.00,50.460
1062.00,50.425
1063.00,50.443
1064.00,50.426
1065.00,50.418
1066.00,50.403
1067.00,50.394
1068.00,50.411
1069.00,50.389
1070.00,50.367
1071.00,50.348
1072.00,50.372
1073.00,50.330
1074.00,50.343
1075.00,50.329
1076.00,50.307
1077.00,50.302
1078.00,50.293
1079.00,50.279
1080.00,50.289
1081.00,50.260
1082.00,50.271
1083.00,50.251
1084.00,50.252
1085.00,50.283
1086.00,50.245
1087.00,50.229
1088.00,50.219
1089.00,50.219
1090.00,50.209
1091.00,50.200
1092.00,50.188
1093.00,50.172
1094.00,50.149
1095.00,50.146
1096.00,50.125
1097.00,50.122
1098.00,50.121
1099.00,50.113
1100.00,50.106
1101.00,50.086
1102.00,50.094
1103.00,50.081
1104.00,50.061
1105.00,50.044
1106.00,50.048
1107.00,50.043
1108.00,50.037
1109.00,50.018
1110.00,50.024
1111.00,50.020
1112.00,49.999
1113.00,49.983
1114.00,49.982
1115.00,49.974
1116.00,49.967
1117.00,49.952
1118.00,49.953
1119.00,49.945
1120.00,49.939
1121.00,49.943
1122.00,49.940
1123.00,49.918
1124.00,49.920
1125.00,49.912
1126.00,49.915
1127.00,49.892
1128.00,49.868
1129.00,49.848
1130.00,49.860
1131.00,49.848
1132.00,49.855
1133.00,49.862
1134.00,49.828
1135.00,49.831
1136.00,49.820
1137.00,49.819
1138.00,49.827
1139.00,49.821
1140.00,49.805
1141.00,49.800
1142.00,49.803
1143.00,49.814
1144.00,49.792
1145.00,49.782
1146.00,49.784
1147.00,49.770
1148.00,49.758
1149.00,49.778
1150.00,49.767
1151.00,49.767
1152.00,49.761
1153.00,49.741
1154.00,49.746
1155.00,49.757
1156.00,49.733
1157.00,49.743
1158.00,49.729
1159.00,49.741
1160.00,49.730
1161.00,49.724
1162.00,49.730
1163.00,49.721
1164.00,49.706
1165.00,49.703
1166.00,49.716
1167.00,49.704
1168.00,49.718
1169.00,49.715
1170.00,49.719
1171.00,49.691
1172.00,49.690
1173.00,49.684
1174.00,49.700
1175.00,49.681
1176.00,49.690
1177.00,49.689
1178.00,49.682
1179.00,49.703
1180.00,49.691
1181.00,49.696
1182.00,49.706
1183.00,49.691
1184.00,49.678
1185.00,49.691
1186.00,49.666
1187.00,49.681
1188.00,49.671
1189.00,49.653
1190.00,49.661
1191.00,49.676
1192.00,49.685
1193.00,49.670
1194.00,49.679
1195.00,49.641
1196.00,49.665
1197.00,49.664
1198.00,49.663
1199.00,49.659
1200.00,49.642
1201.00,49.684
1202.00,49.667
1203.00,49.657
1204.00,49.637
1205.00,49.660
1206.00,49.641
1207.00,49.654
1208.00,49.640
1209.00,49.643
1210.00,49.645
1211.00,49.634
1212.00,49.652
1213.00,49.621
1214.00,49.645
1215.00,49.635
1216.00,49.635
1217.00,49.646
1218.00,49.652
1219.00,49.643
1220.00,49.637
1221.00,49.652
1222.00,49.634
1223.00,49.660
1224.00,49.643
1225.00,49.623
1226.00,49.629
1227.00,49.614
1228.00,49.635
1229.00,49.643
1230.00,49.676
1231.00,49.675
1232.00,49.692
1233.00,49.692
1234.00,49.698
1235.00,49.685
1236.00,49.687
1237.00,49.691
1238.00,49.700
1239.00,49.686
1240.00,49.690
1241.00,49.682
1242.00,49.679
1243.00,49.709
1244.00,49.682
1245.00,49.715
1246.00,49.717
1247.00,49.712
1248.00,49.702
1249.00,49.710
1250.00,49.712
1251.00,49.714
1252.00,49.728
1253.00,49.716
1254.00,49.742
1255.00,49.731
1256.00,49.712
1257.00,49.698
1258.00,49.731
1259.00,49.720
1260.00,49.739
1261.00,49.739
1262.00,49.753
1263.00,49.739
1264.00,49.764
1265.00,49.770
1266.00,49.751
1267.00,49.763
1268.00,49.781
1269.00,49.768
1270.00,49.772
1271.00,49.769
1272.00,49.770
1273.00,49.789
1274.00,49.779
1275.00,49.777
1276.00,49.797
1277.00,49.800
1278.00,49.827
1279.00,49.806
1280.00,49.804
1281.00,49.812
1282.00,49.825
1283.00,49.846
1284.00,49.816
1285.00,49.807
1286.00,49.827
1287.00,49.828
1288.00,49.836
1289.00,49.831
1290.00,49.851
1291.00,49.845
1292.00,49.860
1293.00,49.843
1294.00,49.870
1295.00,49.887
1296.00,49.861
1297.00,49.893
1298.00,49.941
1299.00,49.901
1300.00,49.913
1301.00,49.919
1302.00,49.913
1303.00,49.934
1304.00,49.907
1305.00,49.925
1306.00,49.935
1307.00,49.941
1308.00,49.944
1309.00,49.952
1310.00,49.936
1311.00,49.954
1312.00,49.946
1313.00,49.952
1314.00,49.977
1315.00,49.977
1316.00,49.973
1317.00,50.001
1318.00,49.993
1319.00,49.999
1320.00,50.011
1321.00,50.158
1322.00,50.191
1323.00,50.178
1324.00,50.161
1325.00,50.158
1326.00,50.207
1327.00,50.148
1328.00,50.157
1329.00,50.144
1330.00,50.142
1331.00,50.177
1332.00,50.160
1333.00,50.133
1334.00,50.225
1335.00,50.196
1336.00,50.233
1337.00,50.270
1338.00,50.327
1339.00,50.372
1340.00,50.427
1341.00,50.486
1342.00,50.576
1343.00,50.604
1344.00,50.647
1345.00,50.722
1346.00,50.737
1347.00,50.765
1348.00,50.812
1349.00,50.812
1350.00,50.824
1351.00,50.845
1352.00,50.852
1353.00,50.870
1354.00,50.854
1355.00,50.826
1356.00,50.886
1357.00,50.865
1358.00,50.890
1359.00,50.946
1360.00,50.918
1361.00,50.828
1362.00,50.873
1363.00,50.964
1364.00,50.984
1365.00,50.883
1366.00,50.983
1367.00,50.865
1368.00,50.791
1369.00,50.922
1370.00,50.849
1371.00,50.798
1372.00,50.840
1373.00,50.865
1374.00,50.883
1375.00,50.864
1376.00,50.855
1377.00,50.896
1378.00,50.927
1379.00,50.840
1380.00,50.877
1381.00,50.705
1382.00,50.795
1383.00,50.840
1384.00,50.769
1385.00,50.826
1386.00,50.864
1387.00,50.707
1388.00,50.802
1389.00,50.877
1390.00,50.841
1391.00,50.815
1392.00,50.858
1393.00,50.987
1394.00,50.856
1395.00,50.857
1396.00,50.696
1397.00,50.825
1398.00,50.849
1399.00,50.818
1400.00,50.756
1401.00,50.788
1402.00,50.661
1403.00,51.000
1404.00,50.829
1405.00,50.886
1406.00,50.866
1407.00,50.906
1408.00,50.860
1409.00,50.838
1410.00,50.908
1411.00,50.916
1412.00,50.950
1413.00,50.860
1414.00,50.904
1415.00,50.931
1416.00,50.971
1417.00,50.981
1418.00,50.965
1419.00,50.958
1420.00,50.989
1421.00,51.031
1422.00,51.017
1423.00,51.003
1424.00,51.038
1425.00,51.044
1426.00,51.063
1427.00,51.067
1428.00,51.067
1429.00,51.098
1430.00,51.113
1431.00,51.100
1432.00,51.144
1433.00,51.181
1434.00,51.170
1435.00,51.198
1436.00,51.223
1437.00,51.196
1438.00,51.213
1439.00,51.256
1440.00,51.244
1441.00,51.256
1442.00,51.274
1443.00,51.326
1444.00,51.337
1445.00,51.307
1446.00,51.329
1447.00,51.369
1448.00,51.379
1449.00,51.419
1450.00,51.436
1451.00,51.393
1452.00,51.407
1453.00,51.448
1454.00,51.439
1455.00,51.467
1456.00,51.465
1457.00,51.481
1458.00,51.512
1459.00,51.515
1460.00,51.529
1461.00,51.538
1462.00,51.554
1463.00,51.585
1464.00,51.586
1465.00,51.604
1466.00,51.610
1467.00,51.604
1468.00,51.669
1469.00,51.675
1470.00,51.663
1471.00,51.688
1472.00,51.701
1473.00,51.704
1474.00,51.735
1475.00,51.729
1476.00,51.746
1477.00,51.737
1478.00,51.734
1479.00,51.780
1480.00,51.790
1481.00,51.767
1482.00,51.800
1483.00,51.805
1484.00,51.829
1485.00,51.852
1486.00,51.843
1487.00,51.859
1488.00,51.895
1489.00,51.863
1490.00,51.899
1491.00,51.913
1492.00,51.912
1493.00,51.922
1494.00,51.933
1495.00,51.946
1496.00,51.955
1497.00,51.969
1498.00,51.970
1499.00,51.997
1500.00,52.016
1501.00, 
1502.00, 
1503.00, 
1504.00, 
1505.00, 
1506.00, 
1507.00, 
1508.00, 
1509.00, 
1510.00, 
1511.00, 
1512.00, 
1513.00, 
1514.00, 
1515.00, 
1516.00, 
1517.00, 
1518.00, 
1519.00, 
1520.00, 
1521.00, 
1522.00, 
1523.00, 
1524.00, 
1525.00, 
1526.00, 
1527.00, 
1528.00, 
1529.00, 
1530.00, 
1531.00, 
1532.00, 
1533.00, 
1534.00, 
1535.00, 
1536.00, 
1537.00, 
1538.00, 
1539.00, 
1540.00, 
1541.00, 
1542.00, 
1543.00, 
1544.00, 
1545.00, 
1546.00, 
1547.00, 
1548.00, 
1549.00, 
1550.00, 
1551.00, 
1552.00, 
1553.00, 
1554.00, 
1555.00, 
1556.00, 
1557.00, 
1558.00, 
1559.00, 
1560.00, 
1561.00, 
1562.00, 
1563.00, 
1564.00, 
1565.00, 
1566.00, 
1567.00, 
1568.00, 
1569.00, 
1570.00, 
1571.00, 
1572.00, 
1573.00, 
1574.00, 
1575.00, 
1576.00, 
1577.00, 
1578.00, 
1579.00, 
1580.00, 
1581.00, 
1582.00, 
1583.00, 
1584.00, 
1585.00, 
1586.00, 
1587.00, 
1588.00, 
1589.00, 
1590.00, 
1591.00, 
1592.00, 
1593.00, 
1594.00, 
1595.00, 
1596.00, 
1597.00, 
1598.00, 
1599.00, 
1600.00, 
1601.00, 
1602.00, 
1603.00, 
1604.00, 
1605.00, 
1606.00, 
1607.00, 
1608.00, 
1609.00, 
1610.00, 
1611.00, 
1612.00, 
1613.00, 
1614.00, 
1615.00, 
1616.00, 
1617.00, 
1618.00, 
1619.00, 
1620.00, 
1621.00, 
1622.00, 
1623.00, 
1624.00, 
1625.00, 
1626.00, 
1627.00, 
1628.00, 
1629.00, 
1630.00, 
1631.00, 
1632.00, 
1633.00, 
1634.00, 
1635.00, 
1636.00, 
1637.00, 
1638.00, 
1639.00, 
1640.00, 
1641.00, 
1642.00, 
1643.00, 
1644.00, 
1645.00, 
1646.00, 
1647.00, 
1648.00, 
1649.00, 
1650.00, 
1651.00, 
1652.00, 
1653.00, 
1654.00, 
1655.00, 
1656.00, 
1657.00, 
1658.00, 
1659.00, 
1660.00, 
1661.00, 
1662.00, 
1663.00, 
1664.00, 
1665.00, 
1666.00, 
1667.00, 
1668.00, 
1669.00, 
1670.00, 
1671.00, 
1672.00, 
1673.00, 
1674.00, 
1675.00, 
1676.00, 
1677.00, 
1678.00, 
1679.00, 
1680.00, 
1681.00, 
1682.00, 
1683.00, 
1684.00, 
1685.00, 
1686.00, 
1687.00, 
1688.00, 
1689.00, 
1690.00, 
1691.00, 
1692.00, 
1693.00, 
1694.00, 
1695.00, 
1696.00, 
1697.00, 
1698.00, 
1699.00, 
1700.00, 
1701.00, 
1702.00, 
1703.00, 
1704.00, 
1705.00, 
1706.00, 
1707.00, 
1708.00, 
1709.00, 
1710.00, 
1711.00, 
1712.00, 
1713.00, 
1714.00, 
1715.00, 
1716.00, 
1717.00, 
1718.00, 
1719.00, 
1720.00, 
1721.00, 
1722.00, 
1723.00, 
1724.00, 
1725.00, 
1726.00, 
1727.00, 
1728.00, 
1729.00, 
1730.00, 
1731.00, 
1732.00, 
1733.00, 
1734.00, 
1735.00, 
1736.00, 
1737.00, 
1738.00, 
1739.00, 
1740.00, 
1741.00, 
1742.00, 
1743.00, 
1744.00, 
1745.00, 
1746.00, 
1747.00, 
1748.00, 
1749.00, 
1750.00, 
1751.00, 
1752.00, 
1753.00, 
1754.00, 
1755.00, 
1756.00, 
1757.00, 
1758.00, 
1759.00, 
1760.00, 
1761.00, 
1762.00, 
1763.00, 
1764.00, 
1765.00, 
1766.00, 
1767.00, 
1768.00, 
1769.00, 
1770.00, 
1771.00, 
1772.00, 
1773.00, 
1774.00, 
1775.00, 
1776.00, 
1777.00, 
1778.00, 
1779.00, 
1780.00, 
1781.00, 
1782.00, 
1783.00, 
1784.00, 
1785.00, 
1786.00, 
1787.00, 
1788.00, 
1789.00, 
1790.00, 
1791.00, 
1792.00, 
1793.00, 
1794.00, 
1795.00, 
1796.00, 
1797.00, 
1798.00, 
1799.00, 
1800.00, 
1801.00, 
1802.00, 
1803.00, 
1804.00, 
1805.00, 
1806.00, 
1807.00, 
1808.00, 
1809.00, 
1810.00, 
1811.00, 
1812.00, 
1813.00, 
1814.00, 
1815.00, 
1816.00, 
1817.00, 
1818.00, 
1819.00, 
1820.00, 
1821.00, 
1822.00, 
1823.00, 
1824.00, 
1825.00, 
1826.00, 
1827.00, 
1828.00, 
1829.00, 
1830.00, 
1831.00, 
1832.00, 
1833.00, 
1834.00, 
1835.00, 
1836.00, 
1837.00, 
1838.00, 
1839.00, 
1840.00, 
1841.00, 
1842.00, 
1843.00, 
1844.00, 
1845.00, 
1846.00, 
1847.00, 
1848.00, 
1849.00, 
1850.00, 
1851.00, 
1852.00, 
1853.00, 
1854.00, 
1855.00, 
1856.00, 
1857.00, 
1858.00, 
1859.00, 
1860.00, 
1861.00, 
1862.00, 
1863.00, 
1864.00, 
1865.00, 
1866.00, 
1867.00, 
1868.00, 
1869.00, 
1870.00, 
1871.00, 
1872.00, 
1873.00, 
1874.00, 
1875.00, 
1876.00, 
1877.00, 
1878.00, 
1879.00, 
1880.00, 
1881.00, 
1882.00, 
1883.00, 
1884.00, 
1885.00, 
1886.00, 
1887.00, 
1888.00, 
1889.00, 
1890.00, 
1891.00, 
1892.00, 
1893.00, 
1894.00, 
1895.00, 
1896.00, 
1897.00, 
1898.00, 
1899.00, 
1900.00, 
1901.00, 
1902.00, 
1903.00, 
1904.00, 
1905.00, 
1906.00, 
1907.00, 
1908.00, 
1909.00, 
1910.00, 
1911.00, 
1912.00, 
1913.00, 
1914.00, 
1915.00, 
1916.00, 
1917.00, 
1918.00, 
1919.00, 
1920.00, 
1921.00, 
1922.00, 
1923.00, 
1924.00, 
1925.00, 
1926.00, 
1927.00, 
1928.00, 
1929.00, 
1930.00, 
1931.00, 
1932.00, 
1933.00, 
1934.00, 
1935.00, 
1936.00, 
1937.00, 
1938.00, 
1939.00, 
1940.00, 
1941.00, 
1942.00, 
1943.00, 
1944.00, 
1945.00, 
1946.00, 
1947.00, 
1948.00, 
1949.00, 
1950.00, 
1951.00, 
1952.00, 
1953.00, 
1954.00, 
1955.00, 
1956.00, 
1957.00, 
1958.00, 
1959.00, 
1960.00, 
1961.00, 
1962.00, 
1963.00, 
1964.00, 
1965.00, 
1966.00, 
1967.00, 
1968.00, 
1969.00, 
1970.00, 
1971.00, 
1972.00, 
1973.00, 
1974.00, 
1975.00, 
1976.00, 
1977.00, 
1978.00, 
1979.00, 
1980.00, 
1981.00, 
1982.00, 
1983.00, 
1984.00, 
1985.00, 
1986.00, 
1987.00, 
1988.00, 
1989.00, 
1990.00, 
1991.00, 
1992.00, 
1993.00, 
1994.00, 
1995.00, 
1996.00, 
1997.00, 
1998.00, 
1999.00, 
2000.00, 
2001.00, 
2002.00, 
2003.00, 
2004.00, 
2005.00, 
2006.00, 
2007.00, 
2008.00, 
2009.00, 
2010.00, 
2011.00, 
2012.00, 
2013.00, 
2014.00, 
2015.00, 
2016.00, 
2017.00, 
2018.00, 
2019.00, 
2020.00, 
2021.00, 
2022.00, 
2023.00, 
2024.00, 
2025.00, 
2026.00, 
2027.00, 
2028.00, 
2029.00, 
2030.00, 
2031.00, 
2032.00, 
2033.00, 
2034.00, 
2035.00, 
2036.00, 
2037.00, 
2038.00, 
2039.00, 
2040.00, 
2041.00, 
2042.00, 
2043.00, 
2044.00, 
2045.00, 
2046.00, 
2047.00, 
2048.00, 
2049.00, 
2050.00, 
2051.00, 
2052.00, 
2053.00, 
2054.00, 
2055.00, 
2056.00, 
2057.00, 
2058.00, 
2059.00, 
2060.00, 
2061.00, 
2062.00, 
2063.00, 
2064.00, 
2065.00, 
2066.00, 
2067.00, 
2068.00, 
2069.00, 
2070.00, 
2071.00, 
2072.00, 
2073.00, 
2074.00, 
2075.00, 
2076.00, 
2077.00, 
2078.00, 
2079.00, 
2080.00, 
2081.00, 
2082.00, 
2083.00, 
2084.00, 
2085.00, 
2086.00, 
2087.00, 
2088.00, 
2089.00, 
2090.00, 
2091.00, 
2092.00, 
2093.00, 
2094.00, 
2095.00, 
2096.00, 
2097.00, 
2098.00, 
2099.00, 
2100.00, 
2101.00, 
2102.00, 
2103.00, 
2104.00, 
2105.00, 
2106.00, 
2107.00, 
2108.00, 
2109.00, 
2110.00, 
2111.00, 
2112.00, 
2113.00, 
2114.00, 
2115.00, 
2116.00, 
2117.00, 
2118.00, 
2119.00, 
2120.00, 
2121.00, 
2122.00, 
2123.00, 
2124.00, 
2125.00, 
2126.00, 
2127.00, 
2128.00, 
2129.00, 
2130.00, 
2131.00, 
2132.00, 
2133.00, 
2134.00, 
2135.00, 
2136.00, 
2137.00, 
2138.00, 
2139.00, 
2140.00, 
2141.00, 
2142.00, 
2143.00, 
2144.00, 
2145.00, 
2146.00, 
2147.00, 
2148.00, 
2149.00, 
2150.00, 
2151.00, 
2152.00, 
2153.00, 
2154.00, 
2155.00, 
2156.00, 
2157.00, 
2158.00, 
2159.00, 
2160.00, 
2161.00, 
2162.00, 
2163.00, 
2164.00, 
2165.00, 
2166.00, 
2167.00, 
2168.00, 
2169.00, 
2170.00, 
2171.00, 
2172.00, 
2173.00, 
2174.00, 
2175.00, 
2176.00, 
2177.00, 
2178.00, 
2179.00, 
2180.00, 
2181.00, 
2182.00, 
2183.00, 
2184.00, 
2185.00, 
2186.00, 
2187.00, 
2188.00, 
2189.00, 
2190.00, 
2191.00, 
2192.00, 
2193.00, 
2194.00, 
2195.00, 
2196.00, 
2197.00, 
2198.00, 
2199.00, 
2200.00, 
2201.00, 
2202.00, 
2203.00, 
2204.00, 
2205.00, 
2206.00, 
2207.00, 
2208.00, 
2209.00, 
2210.00, 
2211.00, 
2212.00, 
2213.00, 
2214.00, 
2215.00, 
2216.00, 
2217.00, 
2218.00, 
2219.00, 
2220.00, 
2221.00, 
2222.00, 
2223.00, 
2224.00, 
2225.00, 
2226.00, 
2227.00, 
2228.00, 
2229.00, 
2230.00, 
2231.00, 
2232.00, 
2233.00, 
2234.00, 
2235.00, 
2236.00, 
2237.00, 
2238.00, 
2239.00, 
2240.00, 
2241.00, 
2242.00, 
2243.00, 
2244.00, 
2245.00, 
2246.00, 
2247.00, 
2248.00, 
2249.00, 
2250.00, 
2251.00, 
2252.00, 
2253.00, 
2254.00, 
2255.00, 
2256.00, 
2257.00, 
2258.00, 
2259.00, 
2260.00, 
2261.00, 
2262.00, 
2263.00, 
2264.00, 
2265.00, 
2266.00, 
2267.00, 
2268.00, 
2269.00, 
2270.00, 
2271.00, 
2272.00, 
2273.00, 
2274.00, 
2275.00, 
2276.00, 
2277.00, 
2278.00, 
2279.00, 
2280.00, 
2281.00, 
2282.00, 
2283.00, 
2284.00, 
2285.00, 
2286.00, 
2287.00, 
2288.00, 
2289.00, 
2290.00, 
2291.00, 
2292.00, 
2293.00, 
2294.00, 
2295.00, 
2296.00, 
2297.00, 
2298.00, 
2299.00, 
2300.00, 
2301.00, 
2302.00, 
2303.00, 
2304.00, 
2305.00, 
2306.00, 
2307.00, 
2308.00, 
2309.00, 
2310.00, 
2311.00, 
2312.00, 
2313.00, 
2314.00, 
2315.00, 
2316.00, 
2317.00, 
2318.00, 
2319.00, 
2320.00, 
2321.00, 
2322.00, 
2323.00, 
2324.00, 
2325.00, 
2326.00, 
2327.00, 
2328.00, 
2329.00, 
2330.00, 
2331.00, 
2332.00, 
2333.00, 
2334.00, 
2335.00, 
2336.00, 
2337.00, 
2338.00, 
2339.00, 
2340.00, 
2341.00, 
2342.00, 
2343.00, 
2344.00, 
2345.00, 
2346.00, 
2347.00, 
2348.00, 
2349.00, 
2350.00, 
2351.00, 
2352.00, 
2353.00, 
2354.00, 
2355.00, 
2356.00, 
2357.00, 
2358.00, 
2359.00, 
2360.00, 
2361.00, 
2362.00, 
2363.00, 
2364.00, 
2365.00, 
2366.00, 
2367.00, 
2368.00, 
2369.00, 
2370.00, 
2371.00, 
2372.00, 
2373.00, 
2374.00, 
2375.00, 
2376.00, 
2377.00, 
2378.00, 
2379.00, 
2380.00, 
2381.00, 
2382.00, 
2383.00, 
2384.00, 
2385.00, 
2386.00, 
2387.00, 
2388.00, 
2389.00, 
2390.00, 
2391.00, 
2392.00, 
2393.00, 
2394.00, 
2395.00, 
2396.00, 
2397.00, 
2398.00, 
2399.00, 
2400.00, 
2401.00, 
2402.00, 
2403.00, 
2404.00, 
2405.00, 
2406.00, 
2407.00, 
2408.00, 
2409.00, 
2410.00, 
2411.00, 
2412.00, 
2413.00, 
2414.00, 
2415.00, 
2416.00, 
2417.00, 
2418.00, 
2419.00, 
2420.00, 
2421.00, 
2422.00, 
2423.00, 
2424.00, 
2425.00, 
2426.00, 
2427.00, 
2428.00, 
2429.00, 
2430.00, 
2431.00, 
2432.00, 
2433.00, 
2434.00, 
2435.00, 
2436.00, 
2437.00, 
2438.00, 
2439.00, 
2440.00, 
2441.00, 
2442.00, 
2443.00, 
2444.00, 
2445.00, 
2446.00, 
2447.00, 
2448.00, 
2449.00, 
2450.00, 
2451.00, 
2452.00, 
2453.00, 
2454.00, 
2455.00, 
2456.00, 
2457.00, 
2458.00, 
2459.00, 
2460.00, 
2461.00, 
2462.00, 
2463.00, 
2464.00, 
2465.00, 
2466.00, 
2467.00, 
2468.00, 
2469.00, 
2470.00, 
2471.00, 
2472.00, 
2473.00, 
2474.00, 
2475.00, 
2476.00, 
2477.00, 
2478.00, 
2479.00, 
2480.00, 
2481.00, 
2482.00, 
2483.00, 
2484.00, 
2485.00, 
2486.00, 
2487.00, 
2488.00, 
2489.00, 
2490.00, 
2491.00, 
2492.00, 
2493.00, 
2494.00, 
2495.00, 
2496.00, 
2497.00, 
2498.00, 
2499.00, 
2500.00, 
2501.00, 
2502.00, 
2503.00, 
2504.00, 
2505.00, 
2506.00, 
2507.00, 
2508.00, 
2509.00, 
2510.00, 
2511.00, 
2512.00, 
2513.00, 
2514.00, 
2515.00, 
2516.00, 
2517.00, 
2518.00, 
2519.00, 
2520.00, 
2521.00, 
2522.00, 
2523.00, 
2524.00, 
2525.00, 
2526.00, 
2527.00, 
2528.00, 
2529.00, 
2530.00, 
2531.00, 
2532.00, 
2533.00, 
2534.00, 
2535.00, 
2536.00, 
2537.00, 
2538.00, 
2539.00, 
2540.00, 
2541.00, 
2542.00, 
2543.00, 
2544.00, 
2545.00, 
2546.00, 
2547.00, 
2548.00, 
2549.00, 
2550.00, 
2551.00, 
2552.00, 
2553.00, 
2554.00, 
2555.00, 
2556.00, 
2557.00, 
2558.00, 
2559.00, 
2560.00, 
2561.00, 
2562.00, 
2563.00, 
2564.00, 
2565.00, 
2566.00, 
2567.00, 
2568.00, 
2569.00, 
2570.00, 
2571.00, 
2572.00, 
2573.00, 
2574.00, 
2575.00, 
2576.00, 
2577.00, 
2578.00, 
2579.00, 
2580.00, 
2581.00, 
2582.00, 
2583.00, 
2584.00, 
2585.00, 
2586.00, 
2587.00, 
2588.00, 
2589.00, 
2590.00, 
2591.00, 
2592.00, 
2593.00, 
2594.00, 
2595.00, 
2596.00, 
2597.00, 
2598.00, 
2599.00, 
2600.00, 
