"2cP3 - RawData"
"Wavelength nm.","T%"
200.00,0.004
201.00,-0.001
202.00,-0.001
203.00,0.001
204.00,0.002
205.00,0.003
206.00,0.001
207.00,0.003
208.00,0.004
209.00,0.001
210.00,0.001
211.00,0.001
212.00,0.000
213.00,0.000
214.00,-0.002
215.00,0.001
216.00,0.004
217.00,0.000
218.00,-0.002
219.00,-0.001
220.00,0.002
221.00,0.002
222.00,-0.001
223.00,0.004
224.00,0.003
225.00,0.001
226.00,0.000
227.00,0.000
228.00,0.003
229.00,-0.001
230.00,-0.001
231.00,0.000
232.00,-0.000
233.00,0.000
234.00,-0.000
235.00,0.002
236.00,-0.001
237.00,0.001
238.00,-0.002
239.00,-0.001
240.00,-0.000
241.00,-0.000
242.00,0.001
243.00,0.000
244.00,0.001
245.00,0.002
246.00,-0.001
247.00,0.001
248.00,-0.001
249.00,0.000
250.00,0.000
251.00,0.000
252.00,-0.001
253.00,0.000
254.00,0.000
255.00,0.000
256.00,0.000
257.00,0.001
258.00,-0.000
259.00,0.001
260.00,0.001
261.00,0.003
262.00,0.001
263.00,0.002
264.00,-0.001
265.00,0.001
266.00,-0.001
267.00,-0.001
268.00,0.000
269.00,0.002
270.00,-0.001
271.00,0.000
272.00,-0.000
273.00,0.000
274.00,-0.001
275.00,0.001
276.00,0.000
277.00,-0.000
278.00,-0.000
279.00,-0.001
280.00,0.002
281.00,0.000
282.00,0.001
283.00,0.000
284.00,-0.001
285.00,0.000
286.00,-0.000
287.00,-0.002
288.00,0.001
289.00,0.001
290.00,0.000
291.00,0.002
292.00,0.001
293.00,0.001
294.00,-0.001
295.00,-0.001
296.00,0.001
297.00,-0.001
298.00,0.001
299.00,0.001
300.00,0.003
301.00,0.004
302.00,0.006
303.00,0.009
304.00,0.015
305.00,0.021
306.00,0.036
307.00,0.049
308.00,0.077
309.00,0.121
310.00,0.173
311.00,0.230
312.00,0.311
313.00,0.431
314.00,0.563
315.00,0.738
316.00,0.935
317.00,1.193
318.00,1.462
319.00,1.817
320.00,2.224
321.00,2.669
322.00,3.152
323.00,3.699
324.00,4.294
325.00,4.906
326.00,5.524
327.00,6.256
328.00,6.998
329.00,7.750
330.00,8.545
331.00,9.354
332.00,10.157
333.00,11.011
334.00,11.807
335.00,12.626
336.00,13.476
337.00,14.307
338.00,15.204
339.00,15.961
340.00,16.803
341.00,17.550
342.00,18.212
343.00,18.934
344.00,19.625
345.00,20.264
346.00,20.853
347.00,21.476
348.00,22.051
349.00,22.541
350.00,23.055
351.00,23.513
352.00,23.922
353.00,24.347
354.00,24.809
355.00,25.158
356.00,25.511
357.00,25.900
358.00,26.162
359.00,26.473
360.00,26.732
361.00,26.933
362.00,27.192
363.00,27.420
364.00,27.636
365.00,27.806
366.00,27.936
367.00,28.095
368.00,28.247
369.00,28.299
370.00,28.366
371.00,28.402
372.00,28.490
373.00,28.573
374.00,28.595
375.00,28.582
376.00,28.583
377.00,28.571
378.00,28.530
379.00,28.494
380.00,28.499
381.00,28.548
382.00,28.521
383.00,28.553
384.00,28.621
385.00,28.692
386.00,28.741
387.00,28.837
388.00,28.902
389.00,28.954
390.00,29.057
391.00,29.093
392.00,29.109
393.00,29.186
394.00,29.226
395.00,29.242
396.00,29.255
397.00,29.318
398.00,29.337
399.00,29.318
400.00,29.376
401.00,29.445
402.00,29.441
403.00,29.447
404.00,29.465
405.00,29.478
406.00,29.384
407.00,29.430
408.00,29.427
409.00,29.331
410.00,29.304
411.00,29.286
412.00,29.266
413.00,29.269
414.00,29.258
415.00,29.264
416.00,29.315
417.00,29.322
418.00,29.341
419.00,29.402
420.00,29.423
421.00,29.491
422.00,29.529
423.00,29.545
424.00,29.603
425.00,29.574
426.00,29.654
427.00,29.679
428.00,29.740
429.00,29.781
430.00,29.789
431.00,29.856
432.00,29.870
433.00,29.948
434.00,29.993
435.00,30.045
436.00,30.110
437.00,30.123
438.00,30.204
439.00,30.267
440.00,30.295
441.00,30.377
442.00,30.464
443.00,30.522
444.00,30.615
445.00,30.646
446.00,30.749
447.00,30.847
448.00,30.927
449.00,31.026
450.00,31.076
451.00,31.190
452.00,31.270
453.00,31.378
454.00,31.455
455.00,31.542
456.00,31.637
457.00,31.735
458.00,31.833
459.00,31.916
460.00,32.053
461.00,32.107
462.00,32.261
463.00,32.329
464.00,32.460
465.00,32.551
466.00,32.640
467.00,32.769
468.00,32.843
469.00,32.961
470.00,33.049
471.00,33.108
472.00,33.129
473.00,33.283
474.00,33.405
475.00,33.474
476.00,33.537
477.00,33.640
478.00,33.734
479.00,33.869
480.00,34.015
481.00,34.123
482.00,34.224
483.00,34.349
484.00,34.460
485.00,34.614
486.00,34.731
487.00,34.814
488.00,34.985
489.00,35.148
490.00,35.237
491.00,35.377
492.00,35.581
493.00,35.672
494.00,35.623
495.00,35.768
496.00,35.910
497.00,36.023
498.00,36.184
499.00,36.355
500.00,36.338
501.00,36.411
502.00,36.546
503.00,36.662
504.00,36.692
505.00,36.802
506.00,36.958
507.00,36.999
508.00,37.090
509.00,37.226
510.00,37.306
511.00,37.386
512.00,37.547
513.00,37.624
514.00,37.765
515.00,37.894
516.00,37.995
517.00,38.029
518.00,38.134
519.00,38.263
520.00,38.241
521.00,38.288
522.00,38.391
523.00,38.450
524.00,38.537
525.00,38.685
526.00,38.769
527.00,38.829
528.00,38.926
529.00,39.016
530.00,39.138
531.00,39.289
532.00,39.316
533.00,39.426
534.00,39.512
535.00,39.548
536.00,39.668
537.00,39.690
538.00,39.834
539.00,39.859
540.00,39.885
541.00,39.955
542.00,39.977
543.00,40.086
544.00,40.147
545.00,40.200
546.00,40.235
547.00,40.369
548.00,40.442
549.00,40.459
550.00,40.584
551.00,40.645
552.00,40.722
553.00,40.791
554.00,40.842
555.00,40.907
556.00,40.987
557.00,40.997
558.00,41.044
559.00,41.158
560.00,41.204
561.00,41.263
562.00,41.306
563.00,41.396
564.00,41.444
565.00,41.425
566.00,41.451
567.00,41.479
568.00,41.497
569.00,41.554
570.00,41.537
571.00,41.619
572.00,41.685
573.00,41.689
574.00,41.794
575.00,41.739
576.00,41.767
577.00,41.839
578.00,41.927
579.00,41.938
580.00,42.045
581.00,42.137
582.00,42.192
583.00,42.315
584.00,42.393
585.00,42.425
586.00,42.385
587.00,42.334
588.00,42.459
589.00,42.564
590.00,42.613
591.00,42.670
592.00,42.628
593.00,42.700
594.00,42.761
595.00,42.785
596.00,42.864
597.00,42.981
598.00,43.035
599.00,43.059
600.00,43.119
601.00,43.065
602.00,43.063
603.00,43.169
604.00,43.200
605.00,43.263
606.00,43.353
607.00,43.367
608.00,43.441
609.00,43.457
610.00,43.344
611.00,43.429
612.00,43.516
613.00,43.519
614.00,43.524
615.00,43.596
616.00,43.727
617.00,43.687
618.00,43.754
619.00,43.811
620.00,43.798
621.00,43.886
622.00,43.927
623.00,43.953
624.00,44.048
625.00,44.052
626.00,44.031
627.00,44.150
628.00,44.077
629.00,44.173
630.00,44.211
631.00,44.298
632.00,44.349
633.00,44.393
634.00,44.534
635.00,44.571
636.00,44.598
637.00,44.610
638.00,44.726
639.00,44.808
640.00,44.810
641.00,44.830
642.00,44.898
643.00,44.920
644.00,44.969
645.00,45.075
646.00,45.163
647.00,45.169
648.00,45.229
649.00,45.272
650.00,45.273
651.00,45.293
652.00,45.428
653.00,45.497
654.00,45.538
655.00,45.630
656.00,45.658
657.00,45.909
658.00,45.858
659.00,45.801
660.00,45.829
661.00,45.932
662.00,46.121
663.00,46.049
664.00,46.151
665.00,46.234
666.00,46.211
667.00,46.447
668.00,46.186
669.00,46.377
670.00,46.582
671.00,46.207
672.00,46.422
673.00,46.776
674.00,46.708
675.00,46.708
676.00,46.840
677.00,46.929
678.00,46.809
679.00,46.866
680.00,46.949
681.00,47.020
682.00,47.097
683.00,47.098
684.00,47.275
685.00,47.287
686.00,47.175
687.00,47.224
688.00,47.357
689.00,47.363
690.00,47.552
691.00,47.580
692.00,47.445
693.00,47.527
694.00,47.552
695.00,47.488
696.00,47.604
697.00,47.701
698.00,47.627
699.00,47.724
700.00,47.997
701.00,48.232
702.00,48.144
703.00,48.186
704.00,48.195
705.00,48.163
706.00,48.153
707.00,48.368
708.00,48.180
709.00,48.453
710.00,48.622
711.00,48.306
712.00,48.430
713.00,48.350
714.00,48.438
715.00,48.553
716.00,48.465
717.00,48.568
718.00,48.640
719.00,48.622
720.00,48.543
721.00,53.134
722.00,53.086
723.00,53.050
724.00,53.029
725.00,52.941
726.00,52.990
727.00,52.858
728.00,52.952
729.00,52.958
730.00,52.987
731.00,53.029
732.00,52.990
733.00,52.978
734.00,53.001
735.00,53.014
736.00,53.019
737.00,53.041
738.00,53.052
739.00,52.983
740.00,52.999
741.00,53.045
742.00,53.074
743.00,52.985
744.00,52.960
745.00,53.070
746.00,52.971
747.00,52.920
748.00,52.875
749.00,52.886
750.00,52.807
751.00,52.761
752.00,52.799
753.00,52.789
754.00,52.796
755.00,52.809
756.00,52.825
757.00,52.776
758.00,52.776
759.00,52.768
760.00,52.698
761.00,52.724
762.00,52.629
763.00,52.748
764.00,52.798
765.00,52.730
766.00,52.690
767.00,52.732
768.00,52.710
769.00,52.680
770.00,52.692
771.00,52.603
772.00,52.614
773.00,52.627
774.00,52.637
775.00,52.576
776.00,52.588
777.00,52.612
778.00,52.630
779.00,52.685
780.00,52.581
781.00,52.624
782.00,52.597
783.00,52.538
784.00,52.562
785.00,52.501
786.00,52.541
787.00,52.482
788.00,52.463
789.00,52.515
790.00,52.445
791.00,52.353
792.00,52.338
793.00,52.345
794.00,52.201
795.00,52.299
796.00,52.286
797.00,52.268
798.00,52.234
799.00,52.267
800.00,52.159
801.00,52.165
802.00,52.188
803.00,52.186
804.00,52.103
805.00,52.094
806.00,52.072
807.00,52.059
808.00,52.069
809.00,52.040
810.00,52.043
811.00,51.986
812.00,52.043
813.00,51.892
814.00,51.960
815.00,51.881
816.00,51.898
817.00,51.833
818.00,51.843
819.00,51.778
820.00,51.808
821.00,51.720
822.00,51.834
823.00,51.757
824.00,51.821
825.00,51.613
826.00,51.764
827.00,51.719
828.00,51.547
829.00,51.643
830.00,51.503
831.00,54.170
832.00,54.127
833.00,54.129
834.00,54.149
835.00,54.071
836.00,54.093
837.00,53.965
838.00,53.981
839.00,53.983
840.00,53.975
841.00,53.894
842.00,53.890
843.00,53.881
844.00,53.850
845.00,53.810
846.00,53.806
847.00,53.790
848.00,53.739
849.00,53.707
850.00,53.679
851.00,53.590
852.00,53.614
853.00,53.565
854.00,53.557
855.00,53.510
856.00,53.519
857.00,53.465
858.00,53.464
859.00,53.372
860.00,53.501
861.00,53.360
862.00,53.336
863.00,53.366
864.00,53.290
865.00,53.329
866.00,53.270
867.00,53.298
868.00,53.272
869.00,53.230
870.00,53.240
871.00,53.242
872.00,53.225
873.00,53.187
874.00,53.190
875.00,53.167
876.00,53.146
877.00,53.127
878.00,53.110
879.00,53.121
880.00,53.082
881.00,53.041
882.00,53.038
883.00,53.056
884.00,53.014
885.00,52.991
886.00,52.954
887.00,52.929
888.00,52.927
889.00,52.874
890.00,52.872
891.00,52.836
892.00,52.840
893.00,52.805
894.00,52.804
895.00,52.795
896.00,52.735
897.00,52.718
898.00,52.716
899.00,52.694
900.00,52.693
901.00,52.700
902.00,52.668
903.00,52.641
904.00,52.642
905.00,52.605
906.00,52.592
907.00,52.570
908.00,52.517
909.00,52.533
910.00,52.491
911.00,52.476
912.00,52.485
913.00,52.434
914.00,52.359
915.00,52.461
916.00,52.361
917.00,52.345
918.00,52.323
919.00,52.293
920.00,52.286
921.00,52.227
922.00,52.237
923.00,52.226
924.00,52.183
925.00,52.173
926.00,52.173
927.00,52.150
928.00,52.125
929.00,52.085
930.00,52.210
931.00,52.084
932.00,51.993
933.00,52.044
934.00,52.041
935.00,51.992
936.00,51.983
937.00,51.957
938.00,51.929
939.00,51.933
940.00,51.909
941.00,51.878
942.00,51.854
943.00,51.846
944.00,51.796
945.00,51.810
946.00,51.787
947.00,51.743
948.00,51.748
949.00,51.724
950.00,51.702
951.00,51.684
952.00,51.647
953.00,51.621
954.00,51.598
955.00,51.567
956.00,51.545
957.00,51.519
958.00,51.532
959.00,51.481
960.00,51.462
961.00,51.452
962.00,51.457
963.00,51.410
964.00,51.411
965.00,51.391
966.00,51.388
967.00,51.380
968.00,51.362
969.00,51.396
970.00,51.364
971.00,51.356
972.00,51.333
973.00,51.374
974.00,51.378
975.00,51.343
976.00,51.380
977.00,51.332
978.00,51.387
979.00,51.342
980.00,51.356
981.00,51.355
982.00,51.319
983.00,51.337
984.00,51.313
985.00,51.330
986.00,51.294
987.00,51.297
988.00,51.292
989.00,51.280
990.00,51.265
991.00,51.261
992.00,51.256
993.00,51.208
994.00,51.210
995.00,51.201
996.00,51.184
997.00,51.181
998.00,51.143
999.00,51.163
1000.00,51.119
1001.00,51.117
1002.00,51.112
1003.00,51.097
1004.00,51.080
1005.00,51.057
1006.00,51.082
1007.00,51.035
1008.00,51.035
1009.00,51.025
1010.00,51.002
1011.00,50.999
1012.00,50.966
1013.00,50.969
1014.00,50.927
1015.00,50.943
1016.00,50.905
1017.00,50.896
1018.00,50.878
1019.00,50.860
1020.00,50.848
1021.00,50.822
1022.00,50.838
1023.00,50.791
1024.00,50.793
1025.00,50.782
1026.00,50.768
1027.00,50.750
1028.00,50.736
1029.00,50.714
1030.00,50.694
1031.00,50.694
1032.00,50.649
1033.00,50.660
1034.00,50.623
1035.00,50.580
1036.00,50.576
1037.00,50.549
1038.00,50.537
1039.00,50.506
1040.00,50.501
1041.00,50.469
1042.00,50.470
1043.00,50.429
1044.00,50.459
1045.00,50.425
1046.00,50.427
1047.00,50.444
1048.00,50.456
1049.00,50.461
1050.00,50.466
1051.00,50.513
1052.00,50.522
1053.00,50.509
1054.00,50.506
1055.00,50.531
1056.00,50.526
1057.00,50.530
1058.00,50.528
1059.00,50.510
1060.00,50.512
1061.00,50.513
1062.00,50.477
1063.00,50.503
1064.00,50.505
1065.00,50.497
1066.00,50.494
1067.00,50.489
1068.00,50.467
1069.00,50.447
1070.00,50.418
1071.00,50.406
1072.00,50.423
1073.00,50.392
1074.00,50.393
1075.00,50.380
1076.00,50.369
1077.00,50.360
1078.00,50.352
1079.00,50.342
1080.00,50.350
1081.00,50.318
1082.00,50.340
1083.00,50.358
1084.00,50.307
1085.00,50.296
1086.00,50.289
1087.00,50.281
1088.00,50.272
1089.00,50.249
1090.00,50.248
1091.00,50.247
1092.00,50.245
1093.00,50.219
1094.00,50.200
1095.00,50.180
1096.00,50.162
1097.00,50.169
1098.00,50.187
1099.00,50.159
1100.00,50.148
1101.00,50.138
1102.00,50.147
1103.00,50.128
1104.00,50.125
1105.00,50.119
1106.00,50.111
1107.00,50.098
1108.00,50.092
1109.00,50.073
1110.00,50.079
1111.00,50.060
1112.00,50.053
1113.00,50.048
1114.00,50.036
1115.00,50.040
1116.00,50.031
1117.00,49.999
1118.00,50.009
1119.00,49.998
1120.00,49.990
1121.00,49.987
1122.00,49.969
1123.00,49.957
1124.00,49.958
1125.00,49.934
1126.00,49.947
1127.00,49.935
1128.00,49.910
1129.00,49.898
1130.00,49.895
1131.00,49.883
1132.00,49.878
1133.00,49.873
1134.00,49.860
1135.00,49.856
1136.00,49.848
1137.00,49.855
1138.00,49.859
1139.00,49.844
1140.00,49.845
1141.00,49.834
1142.00,49.824
1143.00,49.840
1144.00,49.825
1145.00,49.823
1146.00,49.819
1147.00,49.802
1148.00,49.804
1149.00,49.803
1150.00,49.790
1151.00,49.816
1152.00,49.801
1153.00,49.773
1154.00,49.779
1155.00,49.784
1156.00,49.780
1157.00,49.776
1158.00,49.780
1159.00,49.796
1160.00,49.765
1161.00,49.770
1162.00,49.762
1163.00,49.753
1164.00,49.752
1165.00,49.750
1166.00,49.744
1167.00,49.735
1168.00,49.746
1169.00,49.739
1170.00,49.736
1171.00,49.726
1172.00,49.727
1173.00,49.731
1174.00,49.737
1175.00,49.727
1176.00,49.734
1177.00,49.716
1178.00,49.712
1179.00,49.724
1180.00,49.703
1181.00,49.726
1182.00,49.717
1183.00,49.704
1184.00,49.698
1185.00,49.719
1186.00,49.688
1187.00,49.708
1188.00,49.695
1189.00,49.685
1190.00,49.686
1191.00,49.685
1192.00,49.705
1193.00,49.681
1194.00,49.691
1195.00,49.668
1196.00,49.690
1197.00,49.686
1198.00,49.682
1199.00,49.676
1200.00,49.672
1201.00,49.686
1202.00,49.654
1203.00,49.677
1204.00,49.645
1205.00,49.672
1206.00,49.667
1207.00,49.677
1208.00,49.662
1209.00,49.657
1210.00,49.670
1211.00,49.662
1212.00,49.680
1213.00,49.634
1214.00,49.666
1215.00,49.639
1216.00,49.631
1217.00,49.659
1218.00,49.646
1219.00,49.645
1220.00,49.638
1221.00,49.660
1222.00,49.640
1223.00,49.660
1224.00,49.651
1225.00,49.636
1226.00,49.642
1227.00,49.627
1228.00,49.647
1229.00,49.637
1230.00,49.674
1231.00,49.672
1232.00,49.685
1233.00,49.680
1234.00,49.694
1235.00,49.670
1236.00,49.685
1237.00,49.684
1238.00,49.680
1239.00,49.681
1240.00,49.666
1241.00,49.673
1242.00,49.684
1243.00,49.696
1244.00,49.672
1245.00,49.709
1246.00,49.698
1247.00,49.701
1248.00,49.696
1249.00,49.697
1250.00,49.699
1251.00,49.699
1252.00,49.714
1253.00,49.717
1254.00,49.729
1255.00,49.723
1256.00,49.707
1257.00,49.693
1258.00,49.737
1259.00,49.727
1260.00,49.736
1261.00,49.733
1262.00,49.737
1263.00,49.730
1264.00,49.749
1265.00,49.729
1266.00,49.728
1267.00,49.747
1268.00,49.762
1269.00,49.764
1270.00,49.769
1271.00,49.768
1272.00,49.771
1273.00,49.778
1274.00,49.766
1275.00,49.773
1276.00,49.784
1277.00,49.777
1278.00,49.800
1279.00,49.780
1280.00,49.813
1281.00,49.827
1282.00,49.816
1283.00,49.803
1284.00,49.824
1285.00,49.796
1286.00,49.826
1287.00,49.815
1288.00,49.822
1289.00,49.821
1290.00,49.838
1291.00,49.842
1292.00,49.847
1293.00,49.835
1294.00,49.863
1295.00,49.865
1296.00,49.855
1297.00,49.873
1298.00,49.880
1299.00,49.865
1300.00,49.883
1301.00,49.875
1302.00,49.887
1303.00,49.898
1304.00,49.881
1305.00,49.903
1306.00,49.909
1307.00,49.915
1308.00,49.928
1309.00,49.910
1310.00,49.902
1311.00,49.939
1312.00,49.911
1313.00,49.922
1314.00,49.941
1315.00,49.932
1316.00,49.939
1317.00,49.954
1318.00,49.946
1319.00,49.964
1320.00,49.978
1321.00,50.133
1322.00,50.157
1323.00,50.138
1324.00,50.128
1325.00,50.110
1326.00,50.146
1327.00,50.122
1328.00,50.129
1329.00,50.102
1330.00,50.108
1331.00,50.126
1332.00,50.127
1333.00,50.106
1334.00,50.182
1335.00,50.162
1336.00,50.203
1337.00,50.227
1338.00,50.286
1339.00,50.323
1340.00,50.380
1341.00,50.428
1342.00,50.504
1343.00,50.555
1344.00,50.601
1345.00,50.658
1346.00,50.688
1347.00,50.720
1348.00,50.744
1349.00,50.758
1350.00,50.789
1351.00,50.796
1352.00,50.798
1353.00,50.820
1354.00,50.826
1355.00,50.933
1356.00,50.838
1357.00,50.817
1358.00,50.833
1359.00,50.875
1360.00,50.931
1361.00,50.823
1362.00,50.842
1363.00,50.882
1364.00,50.851
1365.00,50.842
1366.00,50.950
1367.00,50.788
1368.00,50.807
1369.00,50.862
1370.00,50.798
1371.00,50.770
1372.00,50.789
1373.00,50.797
1374.00,50.834
1375.00,50.808
1376.00,50.818
1377.00,50.814
1378.00,50.858
1379.00,50.797
1380.00,50.833
1381.00,50.742
1382.00,50.659
1383.00,50.795
1384.00,50.678
1385.00,50.758
1386.00,50.814
1387.00,50.674
1388.00,50.707
1389.00,50.834
1390.00,50.765
1391.00,50.710
1392.00,50.771
1393.00,50.938
1394.00,50.802
1395.00,50.799
1396.00,50.613
1397.00,50.824
1398.00,50.809
1399.00,50.739
1400.00,50.675
1401.00,50.751
1402.00,50.839
1403.00,50.768
1404.00,50.771
1405.00,50.828
1406.00,50.792
1407.00,50.833
1408.00,50.787
1409.00,50.777
1410.00,50.848
1411.00,50.841
1412.00,50.898
1413.00,50.800
1414.00,50.836
1415.00,50.867
1416.00,50.920
1417.00,50.979
1418.00,50.961
1419.00,50.885
1420.00,50.920
1421.00,50.976
1422.00,50.962
1423.00,50.951
1424.00,50.968
1425.00,50.973
1426.00,50.986
1427.00,51.002
1428.00,50.996
1429.00,51.037
1430.00,51.029
1431.00,51.032
1432.00,51.073
1433.00,51.100
1434.00,51.072
1435.00,51.128
1436.00,51.133
1437.00,51.131
1438.00,51.143
1439.00,51.179
1440.00,51.187
1441.00,51.193
1442.00,51.190
1443.00,51.241
1444.00,51.273
1445.00,51.233
1446.00,51.252
1447.00,51.284
1448.00,51.303
1449.00,51.324
1450.00,51.308
1451.00,51.336
1452.00,51.338
1453.00,51.376
1454.00,51.382
1455.00,51.404
1456.00,51.399
1457.00,51.414
1458.00,51.449
1459.00,51.470
1460.00,51.483
1461.00,51.491
1462.00,51.512
1463.00,51.518
1464.00,51.532
1465.00,51.558
1466.00,51.549
1467.00,51.561
1468.00,51.597
1469.00,51.581
1470.00,51.603
1471.00,51.622
1472.00,51.631
1473.00,51.630
1474.00,51.660
1475.00,51.670
1476.00,51.683
1477.00,51.679
1478.00,51.692
1479.00,51.723
1480.00,51.730
1481.00,51.723
1482.00,51.750
1483.00,51.756
1484.00,51.773
1485.00,51.771
1486.00,51.776
1487.00,51.789
1488.00,51.811
1489.00,51.808
1490.00,51.834
1491.00,51.835
1492.00,51.870
1493.00,51.856
1494.00,51.868
1495.00,51.881
1496.00,51.873
1497.00,51.885
1498.00,51.893
1499.00,51.927
1500.00,51.951
1501.00, 
1502.00, 
1503.00, 
1504.00, 
1505.00, 
1506.00, 
1507.00, 
1508.00, 
1509.00, 
1510.00, 
1511.00, 
1512.00, 
1513.00, 
1514.00, 
1515.00, 
1516.00, 
1517.00, 
1518.00, 
1519.00, 
1520.00, 
1521.00, 
1522.00, 
1523.00, 
1524.00, 
1525.00, 
1526.00, 
1527.00, 
1528.00, 
1529.00, 
1530.00, 
1531.00, 
1532.00, 
1533.00, 
1534.00, 
1535.00, 
1536.00, 
1537.00, 
1538.00, 
1539.00, 
1540.00, 
1541.00, 
1542.00, 
1543.00, 
1544.00, 
1545.00, 
1546.00, 
1547.00, 
1548.00, 
1549.00, 
1550.00, 
1551.00, 
1552.00, 
1553.00, 
1554.00, 
1555.00, 
1556.00, 
1557.00, 
1558.00, 
1559.00, 
1560.00, 
1561.00, 
1562.00, 
1563.00, 
1564.00, 
1565.00, 
1566.00, 
1567.00, 
1568.00, 
1569.00, 
1570.00, 
1571.00, 
1572.00, 
1573.00, 
1574.00, 
1575.00, 
1576.00, 
1577.00, 
1578.00, 
1579.00, 
1580.00, 
1581.00, 
1582.00, 
1583.00, 
1584.00, 
1585.00, 
1586.00, 
1587.00, 
1588.00, 
1589.00, 
1590.00, 
1591.00, 
1592.00, 
1593.00, 
1594.00, 
1595.00, 
1596.00, 
1597.00, 
1598.00, 
1599.00, 
1600.00, 
1601.00, 
1602.00, 
1603.00, 
1604.00, 
1605.00, 
1606.00, 
1607.00, 
1608.00, 
1609.00, 
1610.00, 
1611.00, 
1612.00, 
1613.00, 
1614.00, 
1615.00, 
1616.00, 
1617.00, 
1618.00, 
1619.00, 
1620.00, 
1621.00, 
1622.00, 
1623.00, 
1624.00, 
1625.00, 
1626.00, 
1627.00, 
1628.00, 
1629.00, 
1630.00, 
1631.00, 
1632.00, 
1633.00, 
1634.00, 
1635.00, 
1636.00, 
1637.00, 
1638.00, 
1639.00, 
1640.00, 
1641.00, 
1642.00, 
1643.00, 
1644.00, 
1645.00, 
1646.00, 
1647.00, 
1648.00, 
1649.00, 
1650.00, 
1651.00, 
1652.00, 
1653.00, 
1654.00, 
1655.00, 
1656.00, 
1657.00, 
1658.00, 
1659.00, 
1660.00, 
1661.00, 
1662.00, 
1663.00, 
1664.00, 
1665.00, 
1666.00, 
1667.00, 
1668.00, 
1669.00, 
1670.00, 
1671.00, 
1672.00, 
1673.00, 
1674.00, 
1675.00, 
1676.00, 
1677.00, 
1678.00, 
1679.00, 
1680.00, 
1681.00, 
1682.00, 
1683.00, 
1684.00, 
1685.00, 
1686.00, 
1687.00, 
1688.00, 
1689.00, 
1690.00, 
1691.00, 
1692.00, 
1693.00, 
1694.00, 
1695.00, 
1696.00, 
1697.00, 
1698.00, 
1699.00, 
1700.00, 
1701.00, 
1702.00, 
1703.00, 
1704.00, 
1705.00, 
1706.00, 
1707.00, 
1708.00, 
1709.00, 
1710.00, 
1711.00, 
1712.00, 
1713.00, 
1714.00, 
1715.00, 
1716.00, 
1717.00, 
1718.00, 
1719.00, 
1720.00, 
1721.00, 
1722.00, 
1723.00, 
1724.00, 
1725.00, 
1726.00, 
1727.00, 
1728.00, 
1729.00, 
1730.00, 
1731.00, 
1732.00, 
1733.00, 
1734.00, 
1735.00, 
1736.00, 
1737.00, 
1738.00, 
1739.00, 
1740.00, 
1741.00, 
1742.00, 
1743.00, 
1744.00, 
1745.00, 
1746.00, 
1747.00, 
1748.00, 
1749.00, 
1750.00, 
1751.00, 
1752.00, 
1753.00, 
1754.00, 
1755.00, 
1756.00, 
1757.00, 
1758.00, 
1759.00, 
1760.00, 
1761.00, 
1762.00, 
1763.00, 
1764.00, 
1765.00, 
1766.00, 
1767.00, 
1768.00, 
1769.00, 
1770.00, 
1771.00, 
1772.00, 
1773.00, 
1774.00, 
1775.00, 
1776.00, 
1777.00, 
1778.00, 
1779.00, 
1780.00, 
1781.00, 
1782.00, 
1783.00, 
1784.00, 
1785.00, 
1786.00, 
1787.00, 
1788.00, 
1789.00, 
1790.00, 
1791.00, 
1792.00, 
1793.00, 
1794.00, 
1795.00, 
1796.00, 
1797.00, 
1798.00, 
1799.00, 
1800.00, 
1801.00, 
1802.00, 
1803.00, 
1804.00, 
1805.00, 
1806.00, 
1807.00, 
1808.00, 
1809.00, 
1810.00, 
1811.00, 
1812.00, 
1813.00, 
1814.00, 
1815.00, 
1816.00, 
1817.00, 
1818.00, 
1819.00, 
1820.00, 
1821.00, 
1822.00, 
1823.00, 
1824.00, 
1825.00, 
1826.00, 
1827.00, 
1828.00, 
1829.00, 
1830.00, 
1831.00, 
1832.00, 
1833.00, 
1834.00, 
1835.00, 
1836.00, 
1837.00, 
1838.00, 
1839.00, 
1840.00, 
1841.00, 
1842.00, 
1843.00, 
1844.00, 
1845.00, 
1846.00, 
1847.00, 
1848.00, 
1849.00, 
1850.00, 
1851.00, 
1852.00, 
1853.00, 
1854.00, 
1855.00, 
1856.00, 
1857.00, 
1858.00, 
1859.00, 
1860.00, 
1861.00, 
1862.00, 
1863.00, 
1864.00, 
1865.00, 
1866.00, 
1867.00, 
1868.00, 
1869.00, 
1870.00, 
1871.00, 
1872.00, 
1873.00, 
1874.00, 
1875.00, 
1876.00, 
1877.00, 
1878.00, 
1879.00, 
1880.00, 
1881.00, 
1882.00, 
1883.00, 
1884.00, 
1885.00, 
1886.00, 
1887.00, 
1888.00, 
1889.00, 
1890.00, 
1891.00, 
1892.00, 
1893.00, 
1894.00, 
1895.00, 
1896.00, 
1897.00, 
1898.00, 
1899.00, 
1900.00, 
1901.00, 
1902.00, 
1903.00, 
1904.00, 
1905.00, 
1906.00, 
1907.00, 
1908.00, 
1909.00, 
1910.00, 
1911.00, 
1912.00, 
1913.00, 
1914.00, 
1915.00, 
1916.00, 
1917.00, 
1918.00, 
1919.00, 
1920.00, 
1921.00, 
1922.00, 
1923.00, 
1924.00, 
1925.00, 
1926.00, 
1927.00, 
1928.00, 
1929.00, 
1930.00, 
1931.00, 
1932.00, 
1933.00, 
1934.00, 
1935.00, 
1936.00, 
1937.00, 
1938.00, 
1939.00, 
1940.00, 
1941.00, 
1942.00, 
1943.00, 
1944.00, 
1945.00, 
1946.00, 
1947.00, 
1948.00, 
1949.00, 
1950.00, 
1951.00, 
1952.00, 
1953.00, 
1954.00, 
1955.00, 
1956.00, 
1957.00, 
1958.00, 
1959.00, 
1960.00, 
1961.00, 
1962.00, 
1963.00, 
1964.00, 
1965.00, 
1966.00, 
1967.00, 
1968.00, 
1969.00, 
1970.00, 
1971.00, 
1972.00, 
1973.00, 
1974.00, 
1975.00, 
1976.00, 
1977.00, 
1978.00, 
1979.00, 
1980.00, 
1981.00, 
1982.00, 
1983.00, 
1984.00, 
1985.00, 
1986.00, 
1987.00, 
1988.00, 
1989.00, 
1990.00, 
1991.00, 
1992.00, 
1993.00, 
1994.00, 
1995.00, 
1996.00, 
1997.00, 
1998.00, 
1999.00, 
2000.00, 
2001.00, 
2002.00, 
2003.00, 
2004.00, 
2005.00, 
2006.00, 
2007.00, 
2008.00, 
2009.00, 
2010.00, 
2011.00, 
2012.00, 
2013.00, 
2014.00, 
2015.00, 
2016.00, 
2017.00, 
2018.00, 
2019.00, 
2020.00, 
2021.00, 
2022.00, 
2023.00, 
2024.00, 
2025.00, 
2026.00, 
2027.00, 
2028.00, 
2029.00, 
2030.00, 
2031.00, 
2032.00, 
2033.00, 
2034.00, 
2035.00, 
2036.00, 
2037.00, 
2038.00, 
2039.00, 
2040.00, 
2041.00, 
2042.00, 
2043.00, 
2044.00, 
2045.00, 
2046.00, 
2047.00, 
2048.00, 
2049.00, 
2050.00, 
2051.00, 
2052.00, 
2053.00, 
2054.00, 
2055.00, 
2056.00, 
2057.00, 
2058.00, 
2059.00, 
2060.00, 
2061.00, 
2062.00, 
2063.00, 
2064.00, 
2065.00, 
2066.00, 
2067.00, 
2068.00, 
2069.00, 
2070.00, 
2071.00, 
2072.00, 
2073.00, 
2074.00, 
2075.00, 
2076.00, 
2077.00, 
2078.00, 
2079.00, 
2080.00, 
2081.00, 
2082.00, 
2083.00, 
2084.00, 
2085.00, 
2086.00, 
2087.00, 
2088.00, 
2089.00, 
2090.00, 
2091.00, 
2092.00, 
2093.00, 
2094.00, 
2095.00, 
2096.00, 
2097.00, 
2098.00, 
2099.00, 
2100.00, 
2101.00, 
2102.00, 
2103.00, 
2104.00, 
2105.00, 
2106.00, 
2107.00, 
2108.00, 
2109.00, 
2110.00, 
2111.00, 
2112.00, 
2113.00, 
2114.00, 
2115.00, 
2116.00, 
2117.00, 
2118.00, 
2119.00, 
2120.00, 
2121.00, 
2122.00, 
2123.00, 
2124.00, 
2125.00, 
2126.00, 
2127.00, 
2128.00, 
2129.00, 
2130.00, 
2131.00, 
2132.00, 
2133.00, 
2134.00, 
2135.00, 
2136.00, 
2137.00, 
2138.00, 
2139.00, 
2140.00, 
2141.00, 
2142.00, 
2143.00, 
2144.00, 
2145.00, 
2146.00, 
2147.00, 
2148.00, 
2149.00, 
2150.00, 
2151.00, 
2152.00, 
2153.00, 
2154.00, 
2155.00, 
2156.00, 
2157.00, 
2158.00, 
2159.00, 
2160.00, 
2161.00, 
2162.00, 
2163.00, 
2164.00, 
2165.00, 
2166.00, 
2167.00, 
2168.00, 
2169.00, 
2170.00, 
2171.00, 
2172.00, 
2173.00, 
2174.00, 
2175.00, 
2176.00, 
2177.00, 
2178.00, 
2179.00, 
2180.00, 
2181.00, 
2182.00, 
2183.00, 
2184.00, 
2185.00, 
2186.00, 
2187.00, 
2188.00, 
2189.00, 
2190.00, 
2191.00, 
2192.00, 
2193.00, 
2194.00, 
2195.00, 
2196.00, 
2197.00, 
2198.00, 
2199.00, 
2200.00, 
2201.00, 
2202.00, 
2203.00, 
2204.00, 
2205.00, 
2206.00, 
2207.00, 
2208.00, 
2209.00, 
2210.00, 
2211.00, 
2212.00, 
2213.00, 
2214.00, 
2215.00, 
2216.00, 
2217.00, 
2218.00, 
2219.00, 
2220.00, 
2221.00, 
2222.00, 
2223.00, 
2224.00, 
2225.00, 
2226.00, 
2227.00, 
2228.00, 
2229.00, 
2230.00, 
2231.00, 
2232.00, 
2233.00, 
2234.00, 
2235.00, 
2236.00, 
2237.00, 
2238.00, 
2239.00, 
2240.00, 
2241.00, 
2242.00, 
2243.00, 
2244.00, 
2245.00, 
2246.00, 
2247.00, 
2248.00, 
2249.00, 
2250.00, 
2251.00, 
2252.00, 
2253.00, 
2254.00, 
2255.00, 
2256.00, 
2257.00, 
2258.00, 
2259.00, 
2260.00, 
2261.00, 
2262.00, 
2263.00, 
2264.00, 
2265.00, 
2266.00, 
2267.00, 
2268.00, 
2269.00, 
2270.00, 
2271.00, 
2272.00, 
2273.00, 
2274.00, 
2275.00, 
2276.00, 
2277.00, 
2278.00, 
2279.00, 
2280.00, 
2281.00, 
2282.00, 
2283.00, 
2284.00, 
2285.00, 
2286.00, 
2287.00, 
2288.00, 
2289.00, 
2290.00, 
2291.00, 
2292.00, 
2293.00, 
2294.00, 
2295.00, 
2296.00, 
2297.00, 
2298.00, 
2299.00, 
2300.00, 
2301.00, 
2302.00, 
2303.00, 
2304.00, 
2305.00, 
2306.00, 
2307.00, 
2308.00, 
2309.00, 
2310.00, 
2311.00, 
2312.00, 
2313.00, 
2314.00, 
2315.00, 
2316.00, 
2317.00, 
2318.00, 
2319.00, 
2320.00, 
2321.00, 
2322.00, 
2323.00, 
2324.00, 
2325.00, 
2326.00, 
2327.00, 
2328.00, 
2329.00, 
2330.00, 
2331.00, 
2332.00, 
2333.00, 
2334.00, 
2335.00, 
2336.00, 
2337.00, 
2338.00, 
2339.00, 
2340.00, 
2341.00, 
2342.00, 
2343.00, 
2344.00, 
2345.00, 
2346.00, 
2347.00, 
2348.00, 
2349.00, 
2350.00, 
2351.00, 
2352.00, 
2353.00, 
2354.00, 
2355.00, 
2356.00, 
2357.00, 
2358.00, 
2359.00, 
2360.00, 
2361.00, 
2362.00, 
2363.00, 
2364.00, 
2365.00, 
2366.00, 
2367.00, 
2368.00, 
2369.00, 
2370.00, 
2371.00, 
2372.00, 
2373.00, 
2374.00, 
2375.00, 
2376.00, 
2377.00, 
2378.00, 
2379.00, 
2380.00, 
2381.00, 
2382.00, 
2383.00, 
2384.00, 
2385.00, 
2386.00, 
2387.00, 
2388.00, 
2389.00, 
2390.00, 
2391.00, 
2392.00, 
2393.00, 
2394.00, 
2395.00, 
2396.00, 
2397.00, 
2398.00, 
2399.00, 
2400.00, 
2401.00, 
2402.00, 
2403.00, 
2404.00, 
2405.00, 
2406.00, 
2407.00, 
2408.00, 
2409.00, 
2410.00, 
2411.00, 
2412.00, 
2413.00, 
2414.00, 
2415.00, 
2416.00, 
2417.00, 
2418.00, 
2419.00, 
2420.00, 
2421.00, 
2422.00, 
2423.00, 
2424.00, 
2425.00, 
2426.00, 
2427.00, 
2428.00, 
2429.00, 
2430.00, 
2431.00, 
2432.00, 
2433.00, 
2434.00, 
2435.00, 
2436.00, 
2437.00, 
2438.00, 
2439.00, 
2440.00, 
2441.00, 
2442.00, 
2443.00, 
2444.00, 
2445.00, 
2446.00, 
2447.00, 
2448.00, 
2449.00, 
2450.00, 
2451.00, 
2452.00, 
2453.00, 
2454.00, 
2455.00, 
2456.00, 
2457.00, 
2458.00, 
2459.00, 
2460.00, 
2461.00, 
2462.00, 
2463.00, 
2464.00, 
2465.00, 
2466.00, 
2467.00, 
2468.00, 
2469.00, 
2470.00, 
2471.00, 
2472.00, 
2473.00, 
2474.00, 
2475.00, 
2476.00, 
2477.00, 
2478.00, 
2479.00, 
2480.00, 
2481.00, 
2482.00, 
2483.00, 
2484.00, 
2485.00, 
2486.00, 
2487.00, 
2488.00, 
2489.00, 
2490.00, 
2491.00, 
2492.00, 
2493.00, 
2494.00, 
2495.00, 
2496.00, 
2497.00, 
2498.00, 
2499.00, 
2500.00, 
2501.00, 
2502.00, 
2503.00, 
2504.00, 
2505.00, 
2506.00, 
2507.00, 
2508.00, 
2509.00, 
2510.00, 
2511.00, 
2512.00, 
2513.00, 
2514.00, 
2515.00, 
2516.00, 
2517.00, 
2518.00, 
2519.00, 
2520.00, 
2521.00, 
2522.00, 
2523.00, 
2524.00, 
2525.00, 
2526.00, 
2527.00, 
2528.00, 
2529.00, 
2530.00, 
2531.00, 
2532.00, 
2533.00, 
2534.00, 
2535.00, 
2536.00, 
2537.00, 
2538.00, 
2539.00, 
2540.00, 
2541.00, 
2542.00, 
2543.00, 
2544.00, 
2545.00, 
2546.00, 
2547.00, 
2548.00, 
2549.00, 
2550.00, 
2551.00, 
2552.00, 
2553.00, 
2554.00, 
2555.00, 
2556.00, 
2557.00, 
2558.00, 
2559.00, 
2560.00, 
2561.00, 
2562.00, 
2563.00, 
2564.00, 
2565.00, 
2566.00, 
2567.00, 
2568.00, 
2569.00, 
2570.00, 
2571.00, 
2572.00, 
2573.00, 
2574.00, 
2575.00, 
2576.00, 
2577.00, 
2578.00, 
2579.00, 
2580.00, 
2581.00, 
2582.00, 
2583.00, 
2584.00, 
2585.00, 
2586.00, 
2587.00, 
2588.00, 
2589.00, 
2590.00, 
2591.00, 
2592.00, 
2593.00, 
2594.00, 
2595.00, 
2596.00, 
2597.00, 
2598.00, 
2599.00, 
2600.00, 
