"1bP2 - RawData"
"Wavelength nm.","T%"
200.00,0.003
201.00,0.002
202.00,0.003
203.00,0.001
204.00,0.002
205.00,0.001
206.00,0.002
207.00,0.002
208.00,0.000
209.00,0.001
210.00,0.000
211.00,0.002
212.00,0.001
213.00,0.003
214.00,0.001
215.00,0.000
216.00,0.001
217.00,0.004
218.00,0.000
219.00,0.001
220.00,0.001
221.00,-0.003
222.00,0.004
223.00,0.000
224.00,0.002
225.00,-0.001
226.00,0.001
227.00,0.003
228.00,-0.000
229.00,0.003
230.00,0.000
231.00,0.001
232.00,0.001
233.00,0.000
234.00,0.002
235.00,0.002
236.00,-0.000
237.00,0.001
238.00,-0.001
239.00,0.002
240.00,0.000
241.00,0.002
242.00,0.000
243.00,0.001
244.00,0.002
245.00,0.000
246.00,0.002
247.00,-0.001
248.00,0.002
249.00,-0.001
250.00,-0.001
251.00,0.000
252.00,-0.000
253.00,0.001
254.00,-0.000
255.00,0.001
256.00,0.002
257.00,-0.001
258.00,0.000
259.00,0.001
260.00,-0.000
261.00,0.000
262.00,-0.001
263.00,0.001
264.00,-0.000
265.00,0.000
266.00,0.003
267.00,0.003
268.00,0.002
269.00,0.001
270.00,0.001
271.00,-0.000
272.00,-0.001
273.00,0.001
274.00,0.001
275.00,-0.001
276.00,0.000
277.00,0.001
278.00,0.001
279.00,-0.000
280.00,0.001
281.00,0.001
282.00,0.001
283.00,-0.000
284.00,-0.000
285.00,-0.000
286.00,0.001
287.00,0.001
288.00,-0.000
289.00,-0.001
290.00,-0.001
291.00,-0.001
292.00,0.001
293.00,-0.000
294.00,-0.001
295.00,-0.001
296.00,0.001
297.00,0.002
298.00,0.001
299.00,0.002
300.00,0.004
301.00,0.007
302.00,0.011
303.00,0.014
304.00,0.026
305.00,0.036
306.00,0.055
307.00,0.085
308.00,0.129
309.00,0.201
310.00,0.272
311.00,0.362
312.00,0.500
313.00,0.663
314.00,0.862
315.00,1.120
316.00,1.419
317.00,1.765
318.00,2.181
319.00,2.647
320.00,3.177
321.00,3.780
322.00,4.440
323.00,5.084
324.00,5.948
325.00,6.733
326.00,7.529
327.00,8.445
328.00,9.346
329.00,10.297
330.00,11.233
331.00,12.154
332.00,13.157
333.00,14.179
334.00,15.125
335.00,16.152
336.00,17.072
337.00,18.033
338.00,18.976
339.00,19.805
340.00,20.672
341.00,21.437
342.00,22.339
343.00,23.068
344.00,23.740
345.00,24.459
346.00,25.090
347.00,25.749
348.00,26.313
349.00,26.854
350.00,27.368
351.00,27.836
352.00,28.239
353.00,28.660
354.00,28.991
355.00,29.357
356.00,29.674
357.00,30.003
358.00,30.329
359.00,30.516
360.00,30.810
361.00,31.026
362.00,31.036
363.00,31.469
364.00,31.594
365.00,31.756
366.00,31.912
367.00,32.035
368.00,32.086
369.00,32.147
370.00,32.245
371.00,32.259
372.00,32.235
373.00,32.245
374.00,32.241
375.00,32.179
376.00,32.220
377.00,32.067
378.00,32.066
379.00,31.991
380.00,31.980
381.00,32.003
382.00,31.998
383.00,31.996
384.00,32.077
385.00,32.137
386.00,32.154
387.00,32.256
388.00,32.316
389.00,32.351
390.00,32.437
391.00,32.484
392.00,32.512
393.00,32.545
394.00,32.574
395.00,32.577
396.00,32.584
397.00,32.595
398.00,32.671
399.00,32.640
400.00,32.696
401.00,32.685
402.00,32.689
403.00,32.666
404.00,32.632
405.00,32.654
406.00,32.683
407.00,32.582
408.00,32.587
409.00,32.559
410.00,32.493
411.00,32.465
412.00,32.455
413.00,32.413
414.00,32.397
415.00,32.400
416.00,32.472
417.00,32.455
418.00,32.445
419.00,32.502
420.00,32.510
421.00,32.604
422.00,32.599
423.00,32.578
424.00,32.724
425.00,32.719
426.00,32.767
427.00,32.791
428.00,32.799
429.00,32.879
430.00,32.867
431.00,32.961
432.00,32.990
433.00,33.070
434.00,33.089
435.00,33.126
436.00,33.212
437.00,33.291
438.00,33.319
439.00,33.400
440.00,33.456
441.00,33.516
442.00,33.587
443.00,33.666
444.00,33.731
445.00,33.794
446.00,33.912
447.00,33.993
448.00,34.058
449.00,34.163
450.00,34.252
451.00,34.325
452.00,34.474
453.00,34.524
454.00,34.656
455.00,34.704
456.00,34.805
457.00,34.925
458.00,35.022
459.00,35.078
460.00,35.217
461.00,35.307
462.00,35.454
463.00,35.511
464.00,35.634
465.00,35.786
466.00,35.879
467.00,35.999
468.00,36.031
469.00,36.148
470.00,36.188
471.00,36.305
472.00,36.423
473.00,36.495
474.00,36.546
475.00,36.656
476.00,36.723
477.00,36.826
478.00,36.934
479.00,37.050
480.00,37.226
481.00,37.348
482.00,37.374
483.00,37.510
484.00,37.557
485.00,37.850
486.00,37.983
487.00,38.082
488.00,38.172
489.00,38.290
490.00,38.460
491.00,38.519
492.00,38.612
493.00,38.788
494.00,38.843
495.00,38.961
496.00,39.050
497.00,39.124
498.00,39.272
499.00,39.415
500.00,39.485
501.00,39.551
502.00,39.675
503.00,39.749
504.00,39.831
505.00,39.943
506.00,40.031
507.00,40.087
508.00,40.203
509.00,40.329
510.00,40.373
511.00,40.511
512.00,40.635
513.00,40.730
514.00,40.818
515.00,40.981
516.00,41.005
517.00,41.125
518.00,41.179
519.00,41.240
520.00,41.317
521.00,41.334
522.00,41.429
523.00,41.565
524.00,41.464
525.00,41.563
526.00,41.574
527.00,41.693
528.00,41.758
529.00,41.884
530.00,41.961
531.00,42.159
532.00,42.189
533.00,42.261
534.00,42.312
535.00,42.343
536.00,42.445
537.00,42.516
538.00,42.602
539.00,42.663
540.00,42.629
541.00,42.683
542.00,42.761
543.00,42.798
544.00,42.839
545.00,42.838
546.00,42.865
547.00,42.971
548.00,42.982
549.00,43.068
550.00,43.170
551.00,43.228
552.00,43.293
553.00,43.310
554.00,43.356
555.00,43.398
556.00,43.443
557.00,43.463
558.00,43.487
559.00,43.570
560.00,43.575
561.00,43.615
562.00,43.676
563.00,43.709
564.00,43.655
565.00,43.774
566.00,43.792
567.00,43.757
568.00,43.837
569.00,43.870
570.00,43.686
571.00,43.915
572.00,43.898
573.00,43.897
574.00,43.981
575.00,43.956
576.00,43.968
577.00,44.005
578.00,44.100
579.00,44.067
580.00,44.124
581.00,44.313
582.00,44.270
583.00,44.285
584.00,44.374
585.00,44.340
586.00,44.470
587.00,44.546
588.00,44.562
589.00,44.555
590.00,44.582
591.00,44.594
592.00,44.597
593.00,44.592
594.00,44.650
595.00,44.713
596.00,44.804
597.00,44.811
598.00,44.916
599.00,44.907
600.00,44.964
601.00,44.903
602.00,44.951
603.00,45.009
604.00,44.930
605.00,45.027
606.00,45.112
607.00,45.009
608.00,45.103
609.00,45.041
610.00,45.058
611.00,45.014
612.00,45.186
613.00,45.181
614.00,45.196
615.00,45.184
616.00,45.374
617.00,45.320
618.00,45.327
619.00,45.429
620.00,45.393
621.00,45.367
622.00,45.520
623.00,45.533
624.00,45.504
625.00,45.553
626.00,45.524
627.00,45.668
628.00,45.714
629.00,45.735
630.00,45.765
631.00,45.776
632.00,45.893
633.00,45.901
634.00,45.891
635.00,46.043
636.00,46.062
637.00,46.116
638.00,46.107
639.00,46.164
640.00,46.258
641.00,46.280
642.00,46.326
643.00,46.344
644.00,46.408
645.00,46.407
646.00,46.529
647.00,46.535
648.00,46.578
649.00,46.660
650.00,46.589
651.00,46.704
652.00,46.732
653.00,46.786
654.00,46.854
655.00,46.904
656.00,46.967
657.00,47.002
658.00,47.078
659.00,47.238
660.00,47.244
661.00,47.167
662.00,47.330
663.00,47.236
664.00,47.443
665.00,47.443
666.00,47.403
667.00,47.617
668.00,47.451
669.00,47.631
670.00,47.784
671.00,47.735
672.00,47.813
673.00,47.821
674.00,47.834
675.00,47.813
676.00,48.091
677.00,48.097
678.00,48.059
679.00,48.199
680.00,48.202
681.00,48.239
682.00,48.326
683.00,48.453
684.00,48.504
685.00,48.560
686.00,48.535
687.00,48.576
688.00,48.550
689.00,48.484
690.00,48.602
691.00,48.704
692.00,48.735
693.00,48.769
694.00,48.833
695.00,48.876
696.00,48.893
697.00,48.920
698.00,48.972
699.00,49.013
700.00,49.022
701.00,49.108
702.00,49.242
703.00,49.309
704.00,49.285
705.00,49.198
706.00,49.339
707.00,49.438
708.00,49.155
709.00,49.439
710.00,49.645
711.00,49.444
712.00,49.438
713.00,49.656
714.00,49.542
715.00,49.641
716.00,49.589
717.00,49.628
718.00,49.713
719.00,49.726
720.00,49.751
721.00,54.359
722.00,54.284
723.00,54.292
724.00,54.270
725.00,54.318
726.00,54.211
727.00,54.197
728.00,54.181
729.00,54.255
730.00,54.231
731.00,54.255
732.00,54.245
733.00,54.283
734.00,54.266
735.00,54.240
736.00,54.244
737.00,54.221
738.00,54.332
739.00,54.298
740.00,54.198
741.00,54.309
742.00,54.230
743.00,54.196
744.00,54.210
745.00,54.118
746.00,54.143
747.00,54.126
748.00,54.108
749.00,54.061
750.00,54.050
751.00,53.909
752.00,53.924
753.00,53.959
754.00,53.930
755.00,53.908
756.00,53.916
757.00,53.876
758.00,53.935
759.00,53.829
760.00,53.844
761.00,53.836
762.00,53.832
763.00,53.900
764.00,53.847
765.00,53.814
766.00,53.892
767.00,53.853
768.00,53.887
769.00,53.859
770.00,53.841
771.00,53.787
772.00,53.835
773.00,53.743
774.00,53.779
775.00,53.748
776.00,53.866
777.00,53.780
778.00,53.736
779.00,53.773
780.00,53.647
781.00,53.681
782.00,53.699
783.00,53.585
784.00,53.706
785.00,53.542
786.00,53.659
787.00,53.524
788.00,53.641
789.00,53.500
790.00,53.494
791.00,53.553
792.00,53.355
793.00,53.486
794.00,53.456
795.00,53.479
796.00,53.427
797.00,53.279
798.00,53.430
799.00,53.329
800.00,53.271
801.00,53.271
802.00,53.314
803.00,53.227
804.00,53.198
805.00,53.193
806.00,53.215
807.00,53.143
808.00,53.150
809.00,53.105
810.00,53.048
811.00,53.002
812.00,53.105
813.00,52.946
814.00,53.026
815.00,52.978
816.00,52.962
817.00,52.942
818.00,52.888
819.00,52.916
820.00,52.865
821.00,52.838
822.00,52.786
823.00,52.789
824.00,52.875
825.00,52.763
826.00,52.721
827.00,52.797
828.00,52.826
829.00,52.669
830.00,52.912
831.00,55.267
832.00,55.238
833.00,55.185
834.00,55.226
835.00,55.166
836.00,55.200
837.00,55.156
838.00,55.115
839.00,55.096
840.00,55.047
841.00,55.038
842.00,55.015
843.00,55.029
844.00,55.005
845.00,54.935
846.00,54.958
847.00,54.898
848.00,54.879
849.00,54.836
850.00,54.822
851.00,54.732
852.00,54.751
853.00,54.715
854.00,54.714
855.00,54.632
856.00,54.659
857.00,54.612
858.00,54.590
859.00,54.593
860.00,54.576
861.00,54.540
862.00,54.542
863.00,54.512
864.00,54.453
865.00,54.505
866.00,54.461
867.00,54.457
868.00,54.445
869.00,54.451
870.00,54.427
871.00,54.432
872.00,54.430
873.00,54.393
874.00,54.417
875.00,54.371
876.00,54.383
877.00,54.351
878.00,54.357
879.00,54.329
880.00,54.307
881.00,54.287
882.00,54.291
883.00,54.279
884.00,54.226
885.00,54.186
886.00,54.162
887.00,54.162
888.00,54.139
889.00,54.141
890.00,54.096
891.00,54.087
892.00,54.095
893.00,54.048
894.00,54.057
895.00,54.009
896.00,53.990
897.00,53.951
898.00,53.932
899.00,53.953
900.00,53.946
901.00,54.125
902.00,53.947
903.00,53.906
904.00,53.904
905.00,53.919
906.00,53.883
907.00,53.857
908.00,53.818
909.00,53.815
910.00,53.761
911.00,53.742
912.00,53.763
913.00,53.721
914.00,53.684
915.00,53.691
916.00,53.655
917.00,53.630
918.00,53.639
919.00,53.576
920.00,53.560
921.00,53.547
922.00,53.542
923.00,53.535
924.00,53.506
925.00,53.505
926.00,53.514
927.00,53.463
928.00,53.367
929.00,53.520
930.00,53.400
931.00,53.399
932.00,53.366
933.00,53.380
934.00,53.360
935.00,53.321
936.00,53.296
937.00,53.286
938.00,53.260
939.00,53.233
940.00,53.254
941.00,53.244
942.00,53.196
943.00,53.189
944.00,53.232
945.00,53.173
946.00,53.164
947.00,53.088
948.00,53.077
949.00,53.079
950.00,53.053
951.00,53.035
952.00,53.008
953.00,52.973
954.00,52.958
955.00,52.929
956.00,52.915
957.00,52.871
958.00,52.867
959.00,52.850
960.00,52.829
961.00,52.811
962.00,52.836
963.00,52.785
964.00,52.773
965.00,52.773
966.00,52.764
967.00,52.747
968.00,52.740
969.00,52.790
970.00,52.731
971.00,52.750
972.00,52.679
973.00,52.732
974.00,52.751
975.00,52.731
976.00,52.735
977.00,52.726
978.00,52.772
979.00,52.721
980.00,52.748
981.00,52.739
982.00,52.726
983.00,52.705
984.00,52.733
985.00,52.739
986.00,52.697
987.00,52.723
988.00,52.672
989.00,52.649
990.00,52.692
991.00,52.636
992.00,52.683
993.00,52.639
994.00,52.624
995.00,52.622
996.00,52.629
997.00,52.595
998.00,52.583
999.00,52.597
1000.00,52.554
1001.00,52.570
1002.00,52.529
1003.00,52.540
1004.00,52.505
1005.00,52.483
1006.00,52.492
1007.00,52.487
1008.00,52.486
1009.00,52.468
1010.00,52.455
1011.00,52.441
1012.00,52.412
1013.00,52.405
1014.00,52.378
1015.00,52.396
1016.00,52.340
1017.00,52.351
1018.00,52.342
1019.00,52.314
1020.00,52.304
1021.00,52.283
1022.00,52.279
1023.00,52.245
1024.00,52.227
1025.00,52.233
1026.00,52.231
1027.00,52.176
1028.00,52.207
1029.00,52.186
1030.00,52.154
1031.00,52.165
1032.00,52.116
1033.00,52.133
1034.00,52.085
1035.00,52.069
1036.00,52.078
1037.00,52.034
1038.00,52.003
1039.00,51.980
1040.00,51.984
1041.00,51.942
1042.00,51.944
1043.00,51.913
1044.00,51.956
1045.00,51.939
1046.00,51.916
1047.00,51.930
1048.00,51.968
1049.00,51.938
1050.00,51.977
1051.00,52.037
1052.00,52.006
1053.00,52.019
1054.00,52.017
1055.00,52.046
1056.00,52.053
1057.00,52.050
1058.00,52.044
1059.00,52.045
1060.00,52.033
1061.00,52.041
1062.00,52.010
1063.00,52.016
1064.00,52.010
1065.00,52.004
1066.00,51.998
1067.00,51.994
1068.00,52.000
1069.00,51.996
1070.00,51.976
1071.00,51.931
1072.00,51.961
1073.00,51.955
1074.00,51.929
1075.00,51.939
1076.00,51.951
1077.00,51.911
1078.00,51.914
1079.00,51.896
1080.00,51.903
1081.00,51.883
1082.00,51.879
1083.00,51.893
1084.00,51.905
1085.00,51.891
1086.00,51.895
1087.00,51.883
1088.00,51.875
1089.00,51.865
1090.00,51.849
1091.00,51.862
1092.00,51.843
1093.00,51.812
1094.00,51.822
1095.00,51.789
1096.00,51.784
1097.00,51.810
1098.00,51.769
1099.00,51.763
1100.00,51.751
1101.00,51.726
1102.00,51.744
1103.00,51.729
1104.00,51.714
1105.00,51.708
1106.00,51.681
1107.00,51.676
1108.00,51.697
1109.00,51.665
1110.00,51.662
1111.00,51.672
1112.00,51.657
1113.00,51.645
1114.00,51.649
1115.00,51.643
1116.00,51.648
1117.00,51.626
1118.00,51.618
1119.00,51.638
1120.00,51.621
1121.00,51.619
1122.00,51.606
1123.00,51.559
1124.00,51.605
1125.00,51.623
1126.00,51.563
1127.00,51.575
1128.00,51.554
1129.00,51.524
1130.00,51.533
1131.00,51.536
1132.00,51.526
1133.00,51.526
1134.00,51.496
1135.00,51.508
1136.00,51.515
1137.00,51.498
1138.00,51.523
1139.00,51.513
1140.00,51.500
1141.00,51.507
1142.00,51.502
1143.00,51.508
1144.00,51.474
1145.00,51.459
1146.00,51.472
1147.00,51.470
1148.00,51.460
1149.00,51.485
1150.00,51.497
1151.00,51.480
1152.00,51.484
1153.00,51.470
1154.00,51.466
1155.00,51.465
1156.00,51.449
1157.00,51.480
1158.00,51.465
1159.00,51.453
1160.00,51.457
1161.00,51.475
1162.00,51.450
1163.00,51.453
1164.00,51.437
1165.00,51.458
1166.00,51.466
1167.00,51.452
1168.00,51.474
1169.00,51.469
1170.00,51.454
1171.00,51.456
1172.00,51.462
1173.00,51.442
1174.00,51.450
1175.00,51.439
1176.00,51.445
1177.00,51.433
1178.00,51.424
1179.00,51.452
1180.00,51.455
1181.00,51.459
1182.00,51.460
1183.00,51.461
1184.00,51.433
1185.00,51.468
1186.00,51.437
1187.00,51.447
1188.00,51.428
1189.00,51.424
1190.00,51.421
1191.00,51.433
1192.00,51.429
1193.00,51.447
1194.00,51.457
1195.00,51.426
1196.00,51.467
1197.00,51.455
1198.00,51.465
1199.00,51.456
1200.00,51.450
1201.00,51.463
1202.00,51.432
1203.00,51.423
1204.00,51.427
1205.00,51.451
1206.00,51.428
1207.00,51.452
1208.00,51.414
1209.00,51.442
1210.00,51.431
1211.00,51.422
1212.00,51.449
1213.00,51.407
1214.00,51.421
1215.00,51.417
1216.00,51.459
1217.00,51.422
1218.00,51.449
1219.00,51.451
1220.00,51.429
1221.00,51.457
1222.00,51.418
1223.00,51.447
1224.00,51.443
1225.00,51.414
1226.00,51.436
1227.00,51.443
1228.00,51.444
1229.00,51.458
1230.00,51.490
1231.00,51.477
1232.00,51.490
1233.00,51.472
1234.00,51.489
1235.00,51.486
1236.00,51.484
1237.00,51.492
1238.00,51.500
1239.00,51.497
1240.00,51.494
1241.00,51.498
1242.00,51.502
1243.00,51.515
1244.00,51.467
1245.00,51.525
1246.00,51.533
1247.00,51.495
1248.00,51.504
1249.00,51.526
1250.00,51.518
1251.00,51.511
1252.00,51.510
1253.00,51.509
1254.00,51.524
1255.00,51.498
1256.00,51.511
1257.00,51.492
1258.00,51.531
1259.00,51.550
1260.00,51.587
1261.00,51.563
1262.00,51.565
1263.00,51.556
1264.00,51.571
1265.00,51.583
1266.00,51.567
1267.00,51.586
1268.00,51.593
1269.00,51.579
1270.00,51.630
1271.00,51.619
1272.00,51.622
1273.00,51.639
1274.00,51.628
1275.00,51.633
1276.00,51.634
1277.00,51.615
1278.00,51.647
1279.00,51.668
1280.00,51.648
1281.00,51.664
1282.00,51.678
1283.00,51.654
1284.00,51.680
1285.00,51.670
1286.00,51.683
1287.00,51.686
1288.00,51.663
1289.00,51.675
1290.00,51.696
1291.00,51.676
1292.00,51.706
1293.00,51.729
1294.00,51.708
1295.00,51.723
1296.00,51.712
1297.00,51.738
1298.00,51.756
1299.00,51.721
1300.00,51.745
1301.00,51.738
1302.00,51.743
1303.00,51.766
1304.00,51.758
1305.00,51.765
1306.00,51.753
1307.00,51.760
1308.00,51.775
1309.00,51.761
1310.00,51.753
1311.00,51.753
1312.00,51.769
1313.00,51.764
1314.00,51.806
1315.00,51.824
1316.00,51.814
1317.00,51.841
1318.00,51.833
1319.00,51.840
1320.00,51.845
1321.00,51.997
1322.00,52.012
1323.00,52.004
1324.00,51.955
1325.00,51.954
1326.00,51.995
1327.00,51.962
1328.00,51.982
1329.00,51.963
1330.00,51.973
1331.00,51.989
1332.00,51.984
1333.00,52.008
1334.00,52.038
1335.00,52.038
1336.00,52.044
1337.00,52.085
1338.00,52.158
1339.00,52.194
1340.00,52.265
1341.00,52.319
1342.00,52.377
1343.00,52.422
1344.00,52.484
1345.00,52.538
1346.00,52.551
1347.00,52.595
1348.00,52.603
1349.00,52.627
1350.00,52.637
1351.00,52.689
1352.00,52.644
1353.00,52.708
1354.00,52.655
1355.00,52.626
1356.00,52.819
1357.00,52.673
1358.00,52.639
1359.00,52.733
1360.00,52.763
1361.00,52.770
1362.00,52.594
1363.00,52.814
1364.00,52.931
1365.00,52.767
1366.00,52.882
1367.00,52.797
1368.00,52.622
1369.00,52.699
1370.00,52.688
1371.00,52.640
1372.00,52.683
1373.00,52.713
1374.00,52.715
1375.00,52.699
1376.00,52.674
1377.00,52.686
1378.00,52.794
1379.00,52.721
1380.00,52.717
1381.00,52.738
1382.00,52.786
1383.00,52.753
1384.00,52.692
1385.00,52.576
1386.00,52.700
1387.00,52.677
1388.00,52.622
1389.00,52.589
1390.00,52.603
1391.00,52.698
1392.00,52.678
1393.00,52.729
1394.00,52.711
1395.00,52.683
1396.00,52.654
1397.00,52.592
1398.00,52.609
1399.00,52.783
1400.00,53.097
1401.00,52.616
1402.00,52.695
1403.00,52.729
1404.00,52.646
1405.00,52.737
1406.00,52.742
1407.00,52.695
1408.00,52.727
1409.00,52.736
1410.00,52.767
1411.00,52.730
1412.00,52.772
1413.00,52.736
1414.00,52.762
1415.00,52.747
1416.00,52.798
1417.00,52.821
1418.00,52.791
1419.00,52.808
1420.00,52.804
1421.00,52.843
1422.00,52.814
1423.00,52.817
1424.00,52.861
1425.00,52.863
1426.00,52.853
1427.00,52.879
1428.00,52.887
1429.00,52.913
1430.00,52.883
1431.00,52.933
1432.00,52.952
1433.00,52.960
1434.00,52.962
1435.00,53.057
1436.00,53.010
1437.00,52.995
1438.00,53.027
1439.00,53.052
1440.00,53.030
1441.00,53.067
1442.00,53.065
1443.00,53.105
1444.00,53.146
1445.00,53.129
1446.00,53.144
1447.00,53.176
1448.00,53.175
1449.00,53.189
1450.00,53.204
1451.00,53.199
1452.00,53.226
1453.00,53.208
1454.00,53.238
1455.00,53.270
1456.00,53.251
1457.00,53.271
1458.00,53.304
1459.00,53.300
1460.00,53.327
1461.00,53.340
1462.00,53.358
1463.00,53.371
1464.00,53.376
1465.00,53.412
1466.00,53.399
1467.00,53.413
1468.00,53.481
1469.00,53.451
1470.00,53.456
1471.00,53.506
1472.00,53.509
1473.00,53.508
1474.00,53.514
1475.00,53.546
1476.00,53.567
1477.00,53.542
1478.00,53.552
1479.00,53.572
1480.00,53.550
1481.00,53.569
1482.00,53.616
1483.00,53.612
1484.00,53.616
1485.00,53.628
1486.00,53.613
1487.00,53.664
1488.00,53.668
1489.00,53.654
1490.00,53.693
1491.00,53.698
1492.00,53.702
1493.00,53.717
1494.00,53.743
1495.00,53.721
1496.00,53.746
1497.00,53.737
1498.00,53.756
1499.00,53.776
1500.00,53.756
1501.00, 
1502.00, 
1503.00, 
1504.00, 
1505.00, 
1506.00, 
1507.00, 
1508.00, 
1509.00, 
1510.00, 
1511.00, 
1512.00, 
1513.00, 
1514.00, 
1515.00, 
1516.00, 
1517.00, 
1518.00, 
1519.00, 
1520.00, 
1521.00, 
1522.00, 
1523.00, 
1524.00, 
1525.00, 
1526.00, 
1527.00, 
1528.00, 
1529.00, 
1530.00, 
1531.00, 
1532.00, 
1533.00, 
1534.00, 
1535.00, 
1536.00, 
1537.00, 
1538.00, 
1539.00, 
1540.00, 
1541.00, 
1542.00, 
1543.00, 
1544.00, 
1545.00, 
1546.00, 
1547.00, 
1548.00, 
1549.00, 
1550.00, 
1551.00, 
1552.00, 
1553.00, 
1554.00, 
1555.00, 
1556.00, 
1557.00, 
1558.00, 
1559.00, 
1560.00, 
1561.00, 
1562.00, 
1563.00, 
1564.00, 
1565.00, 
1566.00, 
1567.00, 
1568.00, 
1569.00, 
1570.00, 
1571.00, 
1572.00, 
1573.00, 
1574.00, 
1575.00, 
1576.00, 
1577.00, 
1578.00, 
1579.00, 
1580.00, 
1581.00, 
1582.00, 
1583.00, 
1584.00, 
1585.00, 
1586.00, 
1587.00, 
1588.00, 
1589.00, 
1590.00, 
1591.00, 
1592.00, 
1593.00, 
1594.00, 
1595.00, 
1596.00, 
1597.00, 
1598.00, 
1599.00, 
1600.00, 
1601.00, 
1602.00, 
1603.00, 
1604.00, 
1605.00, 
1606.00, 
1607.00, 
1608.00, 
1609.00, 
1610.00, 
1611.00, 
1612.00, 
1613.00, 
1614.00, 
1615.00, 
1616.00, 
1617.00, 
1618.00, 
1619.00, 
1620.00, 
1621.00, 
1622.00, 
1623.00, 
1624.00, 
1625.00, 
1626.00, 
1627.00, 
1628.00, 
1629.00, 
1630.00, 
1631.00, 
1632.00, 
1633.00, 
1634.00, 
1635.00, 
1636.00, 
1637.00, 
1638.00, 
1639.00, 
1640.00, 
1641.00, 
1642.00, 
1643.00, 
1644.00, 
1645.00, 
1646.00, 
1647.00, 
1648.00, 
1649.00, 
1650.00, 
1651.00, 
1652.00, 
1653.00, 
1654.00, 
1655.00, 
1656.00, 
1657.00, 
1658.00, 
1659.00, 
1660.00, 
1661.00, 
1662.00, 
1663.00, 
1664.00, 
1665.00, 
1666.00, 
1667.00, 
1668.00, 
1669.00, 
1670.00, 
1671.00, 
1672.00, 
1673.00, 
1674.00, 
1675.00, 
1676.00, 
1677.00, 
1678.00, 
1679.00, 
1680.00, 
1681.00, 
1682.00, 
1683.00, 
1684.00, 
1685.00, 
1686.00, 
1687.00, 
1688.00, 
1689.00, 
1690.00, 
1691.00, 
1692.00, 
1693.00, 
1694.00, 
1695.00, 
1696.00, 
1697.00, 
1698.00, 
1699.00, 
1700.00, 
1701.00, 
1702.00, 
1703.00, 
1704.00, 
1705.00, 
1706.00, 
1707.00, 
1708.00, 
1709.00, 
1710.00, 
1711.00, 
1712.00, 
1713.00, 
1714.00, 
1715.00, 
1716.00, 
1717.00, 
1718.00, 
1719.00, 
1720.00, 
1721.00, 
1722.00, 
1723.00, 
1724.00, 
1725.00, 
1726.00, 
1727.00, 
1728.00, 
1729.00, 
1730.00, 
1731.00, 
1732.00, 
1733.00, 
1734.00, 
1735.00, 
1736.00, 
1737.00, 
1738.00, 
1739.00, 
1740.00, 
1741.00, 
1742.00, 
1743.00, 
1744.00, 
1745.00, 
1746.00, 
1747.00, 
1748.00, 
1749.00, 
1750.00, 
1751.00, 
1752.00, 
1753.00, 
1754.00, 
1755.00, 
1756.00, 
1757.00, 
1758.00, 
1759.00, 
1760.00, 
1761.00, 
1762.00, 
1763.00, 
1764.00, 
1765.00, 
1766.00, 
1767.00, 
1768.00, 
1769.00, 
1770.00, 
1771.00, 
1772.00, 
1773.00, 
1774.00, 
1775.00, 
1776.00, 
1777.00, 
1778.00, 
1779.00, 
1780.00, 
1781.00, 
1782.00, 
1783.00, 
1784.00, 
1785.00, 
1786.00, 
1787.00, 
1788.00, 
1789.00, 
1790.00, 
1791.00, 
1792.00, 
1793.00, 
1794.00, 
1795.00, 
1796.00, 
1797.00, 
1798.00, 
1799.00, 
1800.00, 
1801.00, 
1802.00, 
1803.00, 
1804.00, 
1805.00, 
1806.00, 
1807.00, 
1808.00, 
1809.00, 
1810.00, 
1811.00, 
1812.00, 
1813.00, 
1814.00, 
1815.00, 
1816.00, 
1817.00, 
1818.00, 
1819.00, 
1820.00, 
1821.00, 
1822.00, 
1823.00, 
1824.00, 
1825.00, 
1826.00, 
1827.00, 
1828.00, 
1829.00, 
1830.00, 
1831.00, 
1832.00, 
1833.00, 
1834.00, 
1835.00, 
1836.00, 
1837.00, 
1838.00, 
1839.00, 
1840.00, 
1841.00, 
1842.00, 
1843.00, 
1844.00, 
1845.00, 
1846.00, 
1847.00, 
1848.00, 
1849.00, 
1850.00, 
1851.00, 
1852.00, 
1853.00, 
1854.00, 
1855.00, 
1856.00, 
1857.00, 
1858.00, 
1859.00, 
1860.00, 
1861.00, 
1862.00, 
1863.00, 
1864.00, 
1865.00, 
1866.00, 
1867.00, 
1868.00, 
1869.00, 
1870.00, 
1871.00, 
1872.00, 
1873.00, 
1874.00, 
1875.00, 
1876.00, 
1877.00, 
1878.00, 
1879.00, 
1880.00, 
1881.00, 
1882.00, 
1883.00, 
1884.00, 
1885.00, 
1886.00, 
1887.00, 
1888.00, 
1889.00, 
1890.00, 
1891.00, 
1892.00, 
1893.00, 
1894.00, 
1895.00, 
1896.00, 
1897.00, 
1898.00, 
1899.00, 
1900.00, 
1901.00, 
1902.00, 
1903.00, 
1904.00, 
1905.00, 
1906.00, 
1907.00, 
1908.00, 
1909.00, 
1910.00, 
1911.00, 
1912.00, 
1913.00, 
1914.00, 
1915.00, 
1916.00, 
1917.00, 
1918.00, 
1919.00, 
1920.00, 
1921.00, 
1922.00, 
1923.00, 
1924.00, 
1925.00, 
1926.00, 
1927.00, 
1928.00, 
1929.00, 
1930.00, 
1931.00, 
1932.00, 
1933.00, 
1934.00, 
1935.00, 
1936.00, 
1937.00, 
1938.00, 
1939.00, 
1940.00, 
1941.00, 
1942.00, 
1943.00, 
1944.00, 
1945.00, 
1946.00, 
1947.00, 
1948.00, 
1949.00, 
1950.00, 
1951.00, 
1952.00, 
1953.00, 
1954.00, 
1955.00, 
1956.00, 
1957.00, 
1958.00, 
1959.00, 
1960.00, 
1961.00, 
1962.00, 
1963.00, 
1964.00, 
1965.00, 
1966.00, 
1967.00, 
1968.00, 
1969.00, 
1970.00, 
1971.00, 
1972.00, 
1973.00, 
1974.00, 
1975.00, 
1976.00, 
1977.00, 
1978.00, 
1979.00, 
1980.00, 
1981.00, 
1982.00, 
1983.00, 
1984.00, 
1985.00, 
1986.00, 
1987.00, 
1988.00, 
1989.00, 
1990.00, 
1991.00, 
1992.00, 
1993.00, 
1994.00, 
1995.00, 
1996.00, 
1997.00, 
1998.00, 
1999.00, 
2000.00, 
2001.00, 
2002.00, 
2003.00, 
2004.00, 
2005.00, 
2006.00, 
2007.00, 
2008.00, 
2009.00, 
2010.00, 
2011.00, 
2012.00, 
2013.00, 
2014.00, 
2015.00, 
2016.00, 
2017.00, 
2018.00, 
2019.00, 
2020.00, 
2021.00, 
2022.00, 
2023.00, 
2024.00, 
2025.00, 
2026.00, 
2027.00, 
2028.00, 
2029.00, 
2030.00, 
2031.00, 
2032.00, 
2033.00, 
2034.00, 
2035.00, 
2036.00, 
2037.00, 
2038.00, 
2039.00, 
2040.00, 
2041.00, 
2042.00, 
2043.00, 
2044.00, 
2045.00, 
2046.00, 
2047.00, 
2048.00, 
2049.00, 
2050.00, 
2051.00, 
2052.00, 
2053.00, 
2054.00, 
2055.00, 
2056.00, 
2057.00, 
2058.00, 
2059.00, 
2060.00, 
2061.00, 
2062.00, 
2063.00, 
2064.00, 
2065.00, 
2066.00, 
2067.00, 
2068.00, 
2069.00, 
2070.00, 
2071.00, 
2072.00, 
2073.00, 
2074.00, 
2075.00, 
2076.00, 
2077.00, 
2078.00, 
2079.00, 
2080.00, 
2081.00, 
2082.00, 
2083.00, 
2084.00, 
2085.00, 
2086.00, 
2087.00, 
2088.00, 
2089.00, 
2090.00, 
2091.00, 
2092.00, 
2093.00, 
2094.00, 
2095.00, 
2096.00, 
2097.00, 
2098.00, 
2099.00, 
2100.00, 
2101.00, 
2102.00, 
2103.00, 
2104.00, 
2105.00, 
2106.00, 
2107.00, 
2108.00, 
2109.00, 
2110.00, 
2111.00, 
2112.00, 
2113.00, 
2114.00, 
2115.00, 
2116.00, 
2117.00, 
2118.00, 
2119.00, 
2120.00, 
2121.00, 
2122.00, 
2123.00, 
2124.00, 
2125.00, 
2126.00, 
2127.00, 
2128.00, 
2129.00, 
2130.00, 
2131.00, 
2132.00, 
2133.00, 
2134.00, 
2135.00, 
2136.00, 
2137.00, 
2138.00, 
2139.00, 
2140.00, 
2141.00, 
2142.00, 
2143.00, 
2144.00, 
2145.00, 
2146.00, 
2147.00, 
2148.00, 
2149.00, 
2150.00, 
2151.00, 
2152.00, 
2153.00, 
2154.00, 
2155.00, 
2156.00, 
2157.00, 
2158.00, 
2159.00, 
2160.00, 
2161.00, 
2162.00, 
2163.00, 
2164.00, 
2165.00, 
2166.00, 
2167.00, 
2168.00, 
2169.00, 
2170.00, 
2171.00, 
2172.00, 
2173.00, 
2174.00, 
2175.00, 
2176.00, 
2177.00, 
2178.00, 
2179.00, 
2180.00, 
2181.00, 
2182.00, 
2183.00, 
2184.00, 
2185.00, 
2186.00, 
2187.00, 
2188.00, 
2189.00, 
2190.00, 
2191.00, 
2192.00, 
2193.00, 
2194.00, 
2195.00, 
2196.00, 
2197.00, 
2198.00, 
2199.00, 
2200.00, 
2201.00, 
2202.00, 
2203.00, 
2204.00, 
2205.00, 
2206.00, 
2207.00, 
2208.00, 
2209.00, 
2210.00, 
2211.00, 
2212.00, 
2213.00, 
2214.00, 
2215.00, 
2216.00, 
2217.00, 
2218.00, 
2219.00, 
2220.00, 
2221.00, 
2222.00, 
2223.00, 
2224.00, 
2225.00, 
2226.00, 
2227.00, 
2228.00, 
2229.00, 
2230.00, 
2231.00, 
2232.00, 
2233.00, 
2234.00, 
2235.00, 
2236.00, 
2237.00, 
2238.00, 
2239.00, 
2240.00, 
2241.00, 
2242.00, 
2243.00, 
2244.00, 
2245.00, 
2246.00, 
2247.00, 
2248.00, 
2249.00, 
2250.00, 
2251.00, 
2252.00, 
2253.00, 
2254.00, 
2255.00, 
2256.00, 
2257.00, 
2258.00, 
2259.00, 
2260.00, 
2261.00, 
2262.00, 
2263.00, 
2264.00, 
2265.00, 
2266.00, 
2267.00, 
2268.00, 
2269.00, 
2270.00, 
2271.00, 
2272.00, 
2273.00, 
2274.00, 
2275.00, 
2276.00, 
2277.00, 
2278.00, 
2279.00, 
2280.00, 
2281.00, 
2282.00, 
2283.00, 
2284.00, 
2285.00, 
2286.00, 
2287.00, 
2288.00, 
2289.00, 
2290.00, 
2291.00, 
2292.00, 
2293.00, 
2294.00, 
2295.00, 
2296.00, 
2297.00, 
2298.00, 
2299.00, 
2300.00, 
2301.00, 
2302.00, 
2303.00, 
2304.00, 
2305.00, 
2306.00, 
2307.00, 
2308.00, 
2309.00, 
2310.00, 
2311.00, 
2312.00, 
2313.00, 
2314.00, 
2315.00, 
2316.00, 
2317.00, 
2318.00, 
2319.00, 
2320.00, 
2321.00, 
2322.00, 
2323.00, 
2324.00, 
2325.00, 
2326.00, 
2327.00, 
2328.00, 
2329.00, 
2330.00, 
2331.00, 
2332.00, 
2333.00, 
2334.00, 
2335.00, 
2336.00, 
2337.00, 
2338.00, 
2339.00, 
2340.00, 
2341.00, 
2342.00, 
2343.00, 
2344.00, 
2345.00, 
2346.00, 
2347.00, 
2348.00, 
2349.00, 
2350.00, 
2351.00, 
2352.00, 
2353.00, 
2354.00, 
2355.00, 
2356.00, 
2357.00, 
2358.00, 
2359.00, 
2360.00, 
2361.00, 
2362.00, 
2363.00, 
2364.00, 
2365.00, 
2366.00, 
2367.00, 
2368.00, 
2369.00, 
2370.00, 
2371.00, 
2372.00, 
2373.00, 
2374.00, 
2375.00, 
2376.00, 
2377.00, 
2378.00, 
2379.00, 
2380.00, 
2381.00, 
2382.00, 
2383.00, 
2384.00, 
2385.00, 
2386.00, 
2387.00, 
2388.00, 
2389.00, 
2390.00, 
2391.00, 
2392.00, 
2393.00, 
2394.00, 
2395.00, 
2396.00, 
2397.00, 
2398.00, 
2399.00, 
2400.00, 
2401.00, 
2402.00, 
2403.00, 
2404.00, 
2405.00, 
2406.00, 
2407.00, 
2408.00, 
2409.00, 
2410.00, 
2411.00, 
2412.00, 
2413.00, 
2414.00, 
2415.00, 
2416.00, 
2417.00, 
2418.00, 
2419.00, 
2420.00, 
2421.00, 
2422.00, 
2423.00, 
2424.00, 
2425.00, 
2426.00, 
2427.00, 
2428.00, 
2429.00, 
2430.00, 
2431.00, 
2432.00, 
2433.00, 
2434.00, 
2435.00, 
2436.00, 
2437.00, 
2438.00, 
2439.00, 
2440.00, 
2441.00, 
2442.00, 
2443.00, 
2444.00, 
2445.00, 
2446.00, 
2447.00, 
2448.00, 
2449.00, 
2450.00, 
2451.00, 
2452.00, 
2453.00, 
2454.00, 
2455.00, 
2456.00, 
2457.00, 
2458.00, 
2459.00, 
2460.00, 
2461.00, 
2462.00, 
2463.00, 
2464.00, 
2465.00, 
2466.00, 
2467.00, 
2468.00, 
2469.00, 
2470.00, 
2471.00, 
2472.00, 
2473.00, 
2474.00, 
2475.00, 
2476.00, 
2477.00, 
2478.00, 
2479.00, 
2480.00, 
2481.00, 
2482.00, 
2483.00, 
2484.00, 
2485.00, 
2486.00, 
2487.00, 
2488.00, 
2489.00, 
2490.00, 
2491.00, 
2492.00, 
2493.00, 
2494.00, 
2495.00, 
2496.00, 
2497.00, 
2498.00, 
2499.00, 
2500.00, 
2501.00, 
2502.00, 
2503.00, 
2504.00, 
2505.00, 
2506.00, 
2507.00, 
2508.00, 
2509.00, 
2510.00, 
2511.00, 
2512.00, 
2513.00, 
2514.00, 
2515.00, 
2516.00, 
2517.00, 
2518.00, 
2519.00, 
2520.00, 
2521.00, 
2522.00, 
2523.00, 
2524.00, 
2525.00, 
2526.00, 
2527.00, 
2528.00, 
2529.00, 
2530.00, 
2531.00, 
2532.00, 
2533.00, 
2534.00, 
2535.00, 
2536.00, 
2537.00, 
2538.00, 
2539.00, 
2540.00, 
2541.00, 
2542.00, 
2543.00, 
2544.00, 
2545.00, 
2546.00, 
2547.00, 
2548.00, 
2549.00, 
2550.00, 
2551.00, 
2552.00, 
2553.00, 
2554.00, 
2555.00, 
2556.00, 
2557.00, 
2558.00, 
2559.00, 
2560.00, 
2561.00, 
2562.00, 
2563.00, 
2564.00, 
2565.00, 
2566.00, 
2567.00, 
2568.00, 
2569.00, 
2570.00, 
2571.00, 
2572.00, 
2573.00, 
2574.00, 
2575.00, 
2576.00, 
2577.00, 
2578.00, 
2579.00, 
2580.00, 
2581.00, 
2582.00, 
2583.00, 
2584.00, 
2585.00, 
2586.00, 
2587.00, 
2588.00, 
2589.00, 
2590.00, 
2591.00, 
2592.00, 
2593.00, 
2594.00, 
2595.00, 
2596.00, 
2597.00, 
2598.00, 
2599.00, 
2600.00, 
