"1cP5 - RawData"
"Wavelength nm.","T%"
200.00,-0.001
201.00,0.001
202.00,0.000
203.00,0.005
204.00,0.002
205.00,-0.000
206.00,0.001
207.00,0.001
208.00,-0.001
209.00,-0.001
210.00,0.001
211.00,0.003
212.00,-0.002
213.00,0.000
214.00,0.003
215.00,-0.000
216.00,0.003
217.00,0.001
218.00,0.000
219.00,0.005
220.00,0.006
221.00,-0.001
222.00,-0.002
223.00,0.002
224.00,0.001
225.00,-0.001
226.00,-0.000
227.00,0.002
228.00,-0.001
229.00,-0.000
230.00,0.002
231.00,0.003
232.00,0.001
233.00,0.002
234.00,0.001
235.00,-0.001
236.00,0.001
237.00,0.001
238.00,0.001
239.00,0.001
240.00,-0.002
241.00,0.000
242.00,0.002
243.00,0.001
244.00,-0.001
245.00,-0.000
246.00,0.001
247.00,0.000
248.00,0.000
249.00,0.001
250.00,0.001
251.00,0.001
252.00,0.000
253.00,0.001
254.00,-0.000
255.00,0.002
256.00,0.001
257.00,0.001
258.00,0.001
259.00,0.001
260.00,-0.000
261.00,-0.001
262.00,-0.001
263.00,0.001
264.00,-0.002
265.00,0.000
266.00,-0.000
267.00,-0.001
268.00,-0.000
269.00,0.000
270.00,0.001
271.00,0.001
272.00,0.001
273.00,0.001
274.00,0.000
275.00,0.000
276.00,-0.000
277.00,-0.000
278.00,0.000
279.00,-0.000
280.00,0.000
281.00,-0.000
282.00,0.001
283.00,0.000
284.00,0.000
285.00,0.000
286.00,-0.000
287.00,-0.000
288.00,0.000
289.00,0.001
290.00,0.000
291.00,-0.000
292.00,-0.002
293.00,-0.000
294.00,0.000
295.00,0.001
296.00,0.000
297.00,-0.001
298.00,0.001
299.00,0.002
300.00,-0.000
301.00,0.001
302.00,0.001
303.00,0.001
304.00,0.001
305.00,0.001
306.00,0.001
307.00,0.004
308.00,0.006
309.00,0.011
310.00,0.018
311.00,0.027
312.00,0.048
313.00,0.068
314.00,0.100
315.00,0.147
316.00,0.216
317.00,0.299
318.00,0.412
319.00,0.551
320.00,0.734
321.00,0.951
322.00,1.192
323.00,1.537
324.00,1.900
325.00,2.299
326.00,2.715
327.00,3.233
328.00,3.768
329.00,4.356
330.00,4.985
331.00,5.630
332.00,6.328
333.00,7.094
334.00,7.812
335.00,8.599
336.00,9.337
337.00,10.001
338.00,10.938
339.00,11.659
340.00,12.463
341.00,13.189
342.00,13.907
343.00,14.604
344.00,15.266
345.00,15.918
346.00,16.522
347.00,17.131
348.00,17.711
349.00,18.237
350.00,18.725
351.00,19.203
352.00,19.627
353.00,20.052
354.00,20.452
355.00,20.831
356.00,21.139
357.00,21.344
358.00,21.743
359.00,22.005
360.00,22.253
361.00,22.527
362.00,22.579
363.00,22.929
364.00,23.065
365.00,23.214
366.00,23.398
367.00,23.453
368.00,23.543
369.00,23.594
370.00,23.650
371.00,23.609
372.00,23.655
373.00,23.614
374.00,23.643
375.00,23.529
376.00,23.513
377.00,23.430
378.00,23.371
379.00,23.262
380.00,23.226
381.00,23.262
382.00,23.271
383.00,23.297
384.00,23.386
385.00,23.480
386.00,23.448
387.00,23.589
388.00,23.562
389.00,23.678
390.00,23.755
391.00,23.835
392.00,23.896
393.00,23.902
394.00,23.930
395.00,23.964
396.00,23.970
397.00,24.039
398.00,24.011
399.00,23.998
400.00,24.016
401.00,24.042
402.00,24.058
403.00,24.037
404.00,24.011
405.00,24.007
406.00,24.001
407.00,23.924
408.00,23.960
409.00,23.900
410.00,23.861
411.00,23.863
412.00,23.799
413.00,23.789
414.00,23.792
415.00,23.802
416.00,23.854
417.00,23.834
418.00,23.820
419.00,23.898
420.00,23.893
421.00,23.986
422.00,24.005
423.00,24.036
424.00,24.072
425.00,24.121
426.00,24.149
427.00,24.189
428.00,24.228
429.00,24.265
430.00,24.310
431.00,24.339
432.00,24.359
433.00,24.511
434.00,24.515
435.00,24.586
436.00,24.679
437.00,24.709
438.00,24.800
439.00,24.873
440.00,24.956
441.00,25.005
442.00,25.086
443.00,25.187
444.00,25.291
445.00,25.342
446.00,25.483
447.00,25.540
448.00,25.663
449.00,25.747
450.00,25.872
451.00,25.978
452.00,26.115
453.00,26.209
454.00,26.317
455.00,26.430
456.00,26.505
457.00,26.669
458.00,26.781
459.00,26.922
460.00,27.018
461.00,27.167
462.00,27.291
463.00,27.397
464.00,27.541
465.00,27.659
466.00,27.781
467.00,27.939
468.00,28.012
469.00,28.148
470.00,28.213
471.00,28.365
472.00,28.522
473.00,28.577
474.00,28.684
475.00,28.802
476.00,28.882
477.00,29.063
478.00,29.176
479.00,29.375
480.00,29.507
481.00,29.629
482.00,29.789
483.00,29.938
484.00,30.035
485.00,30.254
486.00,30.387
487.00,30.542
488.00,30.615
489.00,30.802
490.00,30.924
491.00,31.035
492.00,31.191
493.00,31.276
494.00,31.486
495.00,31.567
496.00,31.710
497.00,31.865
498.00,31.984
499.00,32.139
500.00,32.284
501.00,32.311
502.00,32.533
503.00,32.585
504.00,32.639
505.00,32.825
506.00,32.957
507.00,33.031
508.00,33.183
509.00,33.327
510.00,33.456
511.00,33.609
512.00,33.699
513.00,33.828
514.00,33.970
515.00,34.076
516.00,34.176
517.00,34.321
518.00,34.398
519.00,34.520
520.00,34.611
521.00,34.640
522.00,34.764
523.00,34.813
524.00,34.865
525.00,34.999
526.00,35.108
527.00,35.134
528.00,35.260
529.00,35.303
530.00,35.441
531.00,35.645
532.00,35.666
533.00,35.773
534.00,35.931
535.00,35.968
536.00,36.053
537.00,36.133
538.00,36.239
539.00,36.291
540.00,36.289
541.00,36.368
542.00,36.422
543.00,36.476
544.00,36.560
545.00,36.659
546.00,36.708
547.00,36.783
548.00,36.844
549.00,36.959
550.00,37.032
551.00,37.078
552.00,37.155
553.00,37.206
554.00,37.259
555.00,37.294
556.00,37.398
557.00,37.435
558.00,37.474
559.00,37.547
560.00,37.597
561.00,37.670
562.00,37.735
563.00,37.750
564.00,37.805
565.00,37.828
566.00,37.845
567.00,37.899
568.00,37.908
569.00,37.951
570.00,37.921
571.00,38.001
572.00,38.017
573.00,38.014
574.00,38.058
575.00,38.038
576.00,38.021
577.00,38.088
578.00,38.237
579.00,38.327
580.00,38.408
581.00,38.534
582.00,38.551
583.00,38.569
584.00,38.671
585.00,38.671
586.00,38.707
587.00,38.765
588.00,38.816
589.00,38.813
590.00,38.830
591.00,38.936
592.00,38.892
593.00,38.927
594.00,39.029
595.00,39.072
596.00,39.150
597.00,39.134
598.00,39.235
599.00,39.290
600.00,39.364
601.00,39.357
602.00,39.345
603.00,39.310
604.00,39.393
605.00,39.418
606.00,39.444
607.00,39.474
608.00,39.504
609.00,39.499
610.00,39.681
611.00,39.645
612.00,39.679
613.00,39.714
614.00,39.702
615.00,39.732
616.00,39.856
617.00,39.882
618.00,39.784
619.00,39.909
620.00,40.205
621.00,40.103
622.00,40.190
623.00,40.236
624.00,40.298
625.00,40.378
626.00,40.373
627.00,40.425
628.00,40.470
629.00,40.489
630.00,40.565
631.00,40.598
632.00,40.670
633.00,40.730
634.00,40.805
635.00,40.933
636.00,41.035
637.00,41.063
638.00,41.060
639.00,41.195
640.00,41.206
641.00,41.241
642.00,41.317
643.00,41.355
644.00,41.437
645.00,41.484
646.00,41.647
647.00,41.671
648.00,41.672
649.00,41.777
650.00,41.736
651.00,41.837
652.00,41.942
653.00,42.060
654.00,42.083
655.00,42.177
656.00,42.306
657.00,42.458
658.00,42.314
659.00,42.522
660.00,42.594
661.00,42.407
662.00,42.505
663.00,42.805
664.00,42.890
665.00,43.029
666.00,43.117
667.00,43.292
668.00,43.185
669.00,43.353
670.00,43.537
671.00,43.488
672.00,43.584
673.00,43.738
674.00,43.807
675.00,43.844
676.00,43.955
677.00,44.047
678.00,44.060
679.00,44.236
680.00,44.275
681.00,44.380
682.00,44.540
683.00,44.608
684.00,44.616
685.00,44.696
686.00,44.751
687.00,44.813
688.00,44.751
689.00,44.782
690.00,44.842
691.00,45.215
692.00,45.239
693.00,45.276
694.00,45.334
695.00,45.522
696.00,45.445
697.00,45.622
698.00,45.683
699.00,45.732
700.00,45.788
701.00,45.919
702.00,46.042
703.00,46.220
704.00,46.195
705.00,46.158
706.00,46.240
707.00,46.413
708.00,46.278
709.00,46.478
710.00,46.756
711.00,46.499
712.00,46.619
713.00,46.676
714.00,46.670
715.00,46.868
716.00,46.856
717.00,46.867
718.00,47.081
719.00,47.049
720.00,47.081
721.00,51.474
722.00,51.399
723.00,51.418
724.00,51.480
725.00,51.557
726.00,51.434
727.00,51.545
728.00,51.513
729.00,51.583
730.00,51.603
731.00,51.676
732.00,51.679
733.00,51.735
734.00,51.763
735.00,51.696
736.00,51.765
737.00,51.807
738.00,51.938
739.00,51.895
740.00,51.824
741.00,51.840
742.00,51.880
743.00,51.867
744.00,51.855
745.00,51.930
746.00,51.888
747.00,51.913
748.00,51.896
749.00,51.920
750.00,51.927
751.00,51.853
752.00,51.826
753.00,51.853
754.00,51.877
755.00,51.852
756.00,51.870
757.00,51.851
758.00,51.981
759.00,51.844
760.00,51.896
761.00,51.923
762.00,51.929
763.00,51.975
764.00,51.949
765.00,51.977
766.00,52.016
767.00,52.052
768.00,51.966
769.00,51.963
770.00,52.066
771.00,51.970
772.00,52.102
773.00,51.963
774.00,52.006
775.00,52.018
776.00,52.090
777.00,52.057
778.00,52.029
779.00,52.099
780.00,51.984
781.00,51.997
782.00,52.012
783.00,51.996
784.00,52.034
785.00,51.922
786.00,52.042
787.00,51.894
788.00,51.947
789.00,51.867
790.00,51.842
791.00,51.975
792.00,51.796
793.00,51.863
794.00,51.816
795.00,51.952
796.00,51.839
797.00,51.823
798.00,51.852
799.00,51.756
800.00,51.730
801.00,51.791
802.00,51.802
803.00,51.736
804.00,51.684
805.00,51.676
806.00,51.677
807.00,51.658
808.00,51.602
809.00,51.632
810.00,51.610
811.00,51.582
812.00,51.621
813.00,51.495
814.00,51.565
815.00,51.586
816.00,51.534
817.00,51.564
818.00,51.437
819.00,51.442
820.00,51.419
821.00,51.386
822.00,51.371
823.00,51.309
824.00,51.436
825.00,51.328
826.00,51.349
827.00,51.399
828.00,51.349
829.00,51.298
830.00,51.361
831.00,53.607
832.00,53.568
833.00,53.537
834.00,53.513
835.00,53.474
836.00,53.491
837.00,53.456
838.00,53.447
839.00,53.400
840.00,53.360
841.00,53.384
842.00,53.392
843.00,53.374
844.00,53.342
845.00,53.300
846.00,53.311
847.00,53.260
848.00,53.268
849.00,53.251
850.00,53.186
851.00,53.123
852.00,53.117
853.00,53.066
854.00,53.067
855.00,52.999
856.00,53.004
857.00,52.960
858.00,52.950
859.00,52.942
860.00,52.916
861.00,52.905
862.00,52.883
863.00,52.885
864.00,52.824
865.00,52.854
866.00,52.943
867.00,52.818
868.00,52.809
869.00,52.799
870.00,52.791
871.00,52.770
872.00,52.789
873.00,52.768
874.00,52.765
875.00,52.726
876.00,52.735
877.00,52.718
878.00,52.709
879.00,52.683
880.00,52.649
881.00,52.631
882.00,52.648
883.00,52.618
884.00,52.568
885.00,52.562
886.00,52.545
887.00,52.525
888.00,52.488
889.00,52.511
890.00,52.477
891.00,52.439
892.00,52.442
893.00,52.414
894.00,52.413
895.00,52.314
896.00,52.404
897.00,52.337
898.00,52.295
899.00,52.314
900.00,52.290
901.00,52.272
902.00,52.257
903.00,52.248
904.00,52.233
905.00,52.215
906.00,52.194
907.00,52.193
908.00,52.158
909.00,52.095
910.00,52.130
911.00,52.071
912.00,52.098
913.00,52.063
914.00,52.037
915.00,52.018
916.00,51.983
917.00,51.973
918.00,51.984
919.00,51.902
920.00,51.871
921.00,51.866
922.00,51.880
923.00,51.835
924.00,51.836
925.00,51.809
926.00,51.814
927.00,51.773
928.00,51.767
929.00,51.762
930.00,51.722
931.00,51.702
932.00,51.686
933.00,51.698
934.00,51.648
935.00,51.606
936.00,51.608
937.00,51.582
938.00,51.566
939.00,51.564
940.00,51.537
941.00,51.523
942.00,51.509
943.00,51.501
944.00,51.466
945.00,51.489
946.00,51.463
947.00,51.418
948.00,51.406
949.00,51.370
950.00,51.348
951.00,51.335
952.00,51.289
953.00,51.274
954.00,51.262
955.00,51.235
956.00,51.206
957.00,51.175
958.00,51.176
959.00,51.140
960.00,51.106
961.00,51.113
962.00,51.140
963.00,51.085
964.00,51.089
965.00,51.061
966.00,51.039
967.00,51.040
968.00,51.023
969.00,51.026
970.00,51.003
971.00,51.006
972.00,50.971
973.00,51.012
974.00,51.025
975.00,51.006
976.00,51.017
977.00,51.026
978.00,51.062
979.00,51.022
980.00,51.050
981.00,51.022
982.00,50.974
983.00,51.068
984.00,51.017
985.00,51.007
986.00,50.972
987.00,50.989
988.00,50.975
989.00,50.966
990.00,50.934
991.00,50.916
992.00,50.927
993.00,50.884
994.00,50.889
995.00,50.895
996.00,50.893
997.00,50.856
998.00,50.866
999.00,50.869
1000.00,50.827
1001.00,50.817
1002.00,50.798
1003.00,50.807
1004.00,50.760
1005.00,50.747
1006.00,50.758
1007.00,50.732
1008.00,50.750
1009.00,50.725
1010.00,50.715
1011.00,50.693
1012.00,50.669
1013.00,50.681
1014.00,50.639
1015.00,50.643
1016.00,50.617
1017.00,50.616
1018.00,50.595
1019.00,50.577
1020.00,50.559
1021.00,50.547
1022.00,50.533
1023.00,50.495
1024.00,50.500
1025.00,50.494
1026.00,50.483
1027.00,50.451
1028.00,50.470
1029.00,50.423
1030.00,50.394
1031.00,50.405
1032.00,50.361
1033.00,50.371
1034.00,50.336
1035.00,50.314
1036.00,50.290
1037.00,50.281
1038.00,50.254
1039.00,50.238
1040.00,50.222
1041.00,50.192
1042.00,50.194
1043.00,50.168
1044.00,50.191
1045.00,50.171
1046.00,50.167
1047.00,50.170
1048.00,50.189
1049.00,50.191
1050.00,50.222
1051.00,50.235
1052.00,50.244
1053.00,50.246
1054.00,50.247
1055.00,50.268
1056.00,50.297
1057.00,50.291
1058.00,50.290
1059.00,50.245
1060.00,50.261
1061.00,50.266
1062.00,50.233
1063.00,50.243
1064.00,50.243
1065.00,50.228
1066.00,50.207
1067.00,50.200
1068.00,50.198
1069.00,50.202
1070.00,50.171
1071.00,50.169
1072.00,50.184
1073.00,50.168
1074.00,50.161
1075.00,50.157
1076.00,50.148
1077.00,50.132
1078.00,50.122
1079.00,50.123
1080.00,50.125
1081.00,50.094
1082.00,50.088
1083.00,50.081
1084.00,50.076
1085.00,50.075
1086.00,50.087
1087.00,50.072
1088.00,50.066
1089.00,50.058
1090.00,50.053
1091.00,50.057
1092.00,50.032
1093.00,50.014
1094.00,50.012
1095.00,49.990
1096.00,49.977
1097.00,49.985
1098.00,49.979
1099.00,49.967
1100.00,49.960
1101.00,49.935
1102.00,49.934
1103.00,49.914
1104.00,49.934
1105.00,49.945
1106.00,49.894
1107.00,49.888
1108.00,49.904
1109.00,49.878
1110.00,49.883
1111.00,49.867
1112.00,49.862
1113.00,49.846
1114.00,49.838
1115.00,49.841
1116.00,49.838
1117.00,49.812
1118.00,49.818
1119.00,49.814
1120.00,49.804
1121.00,49.802
1122.00,49.793
1123.00,49.752
1124.00,49.766
1125.00,49.751
1126.00,49.770
1127.00,49.783
1128.00,49.771
1129.00,49.734
1130.00,49.740
1131.00,49.734
1132.00,49.722
1133.00,49.713
1134.00,49.702
1135.00,49.698
1136.00,49.717
1137.00,49.712
1138.00,49.720
1139.00,49.710
1140.00,49.709
1141.00,49.700
1142.00,49.708
1143.00,49.711
1144.00,49.681
1145.00,49.672
1146.00,49.677
1147.00,49.646
1148.00,49.654
1149.00,49.664
1150.00,49.668
1151.00,49.665
1152.00,49.662
1153.00,49.659
1154.00,49.644
1155.00,49.636
1156.00,49.642
1157.00,49.641
1158.00,49.635
1159.00,49.634
1160.00,49.639
1161.00,49.639
1162.00,49.633
1163.00,49.658
1164.00,49.630
1165.00,49.650
1166.00,49.668
1167.00,49.642
1168.00,49.656
1169.00,49.649
1170.00,49.643
1171.00,49.651
1172.00,49.635
1173.00,49.624
1174.00,49.644
1175.00,49.632
1176.00,49.639
1177.00,49.624
1178.00,49.618
1179.00,49.631
1180.00,49.623
1181.00,49.634
1182.00,49.645
1183.00,49.630
1184.00,49.613
1185.00,49.638
1186.00,49.620
1187.00,49.615
1188.00,49.607
1189.00,49.623
1190.00,49.611
1191.00,49.621
1192.00,49.631
1193.00,49.648
1194.00,49.621
1195.00,49.612
1196.00,49.653
1197.00,49.630
1198.00,49.620
1199.00,49.619
1200.00,49.627
1201.00,49.639
1202.00,49.624
1203.00,49.627
1204.00,49.627
1205.00,49.634
1206.00,49.624
1207.00,49.654
1208.00,49.619
1209.00,49.640
1210.00,49.632
1211.00,49.624
1212.00,49.639
1213.00,49.600
1214.00,49.626
1215.00,49.619
1216.00,49.620
1217.00,49.628
1218.00,49.640
1219.00,49.644
1220.00,49.637
1221.00,49.659
1222.00,49.636
1223.00,49.656
1224.00,49.654
1225.00,49.632
1226.00,49.653
1227.00,49.666
1228.00,49.652
1229.00,49.673
1230.00,49.702
1231.00,49.681
1232.00,49.686
1233.00,49.691
1234.00,49.710
1235.00,49.710
1236.00,49.719
1237.00,49.724
1238.00,49.702
1239.00,49.711
1240.00,49.714
1241.00,49.726
1242.00,49.741
1243.00,49.726
1244.00,49.707
1245.00,49.731
1246.00,49.734
1247.00,49.727
1248.00,49.723
1249.00,49.731
1250.00,49.737
1251.00,49.753
1252.00,49.750
1253.00,49.747
1254.00,49.773
1255.00,49.768
1256.00,49.773
1257.00,49.778
1258.00,49.780
1259.00,49.786
1260.00,49.808
1261.00,49.812
1262.00,49.810
1263.00,49.796
1264.00,49.805
1265.00,49.808
1266.00,49.810
1267.00,49.820
1268.00,49.833
1269.00,49.827
1270.00,49.865
1271.00,49.852
1272.00,49.864
1273.00,49.880
1274.00,49.876
1275.00,49.878
1276.00,49.881
1277.00,49.865
1278.00,49.890
1279.00,49.880
1280.00,49.887
1281.00,49.907
1282.00,49.904
1283.00,49.901
1284.00,49.925
1285.00,49.918
1286.00,49.921
1287.00,49.930
1288.00,49.937
1289.00,49.939
1290.00,49.957
1291.00,49.968
1292.00,49.961
1293.00,49.974
1294.00,49.980
1295.00,50.009
1296.00,49.987
1297.00,50.008
1298.00,50.027
1299.00,50.012
1300.00,50.030
1301.00,50.021
1302.00,50.033
1303.00,50.048
1304.00,50.020
1305.00,50.034
1306.00,50.049
1307.00,50.044
1308.00,50.071
1309.00,50.056
1310.00,50.073
1311.00,50.068
1312.00,50.094
1313.00,50.095
1314.00,50.131
1315.00,50.128
1316.00,50.138
1317.00,50.160
1318.00,50.159
1319.00,50.163
1320.00,50.160
1321.00,50.307
1322.00,50.309
1323.00,50.290
1324.00,50.290
1325.00,50.278
1326.00,50.283
1327.00,50.296
1328.00,50.307
1329.00,50.293
1330.00,50.317
1331.00,50.335
1332.00,50.318
1333.00,50.344
1334.00,50.368
1335.00,50.397
1336.00,50.399
1337.00,50.419
1338.00,50.488
1339.00,50.552
1340.00,50.585
1341.00,50.659
1342.00,50.719
1343.00,50.772
1344.00,50.812
1345.00,50.856
1346.00,50.948
1347.00,51.031
1348.00,50.929
1349.00,50.973
1350.00,50.988
1351.00,51.010
1352.00,50.994
1353.00,51.043
1354.00,51.010
1355.00,50.987
1356.00,51.132
1357.00,51.053
1358.00,50.982
1359.00,51.082
1360.00,51.090
1361.00,50.999
1362.00,50.806
1363.00,51.167
1364.00,51.355
1365.00,51.134
1366.00,51.236
1367.00,51.183
1368.00,50.994
1369.00,51.098
1370.00,51.070
1371.00,51.088
1372.00,51.101
1373.00,51.118
1374.00,51.123
1375.00,51.108
1376.00,51.066
1377.00,51.082
1378.00,51.135
1379.00,51.139
1380.00,51.107
1381.00,51.136
1382.00,51.200
1383.00,51.153
1384.00,51.084
1385.00,50.982
1386.00,51.117
1387.00,51.075
1388.00,51.055
1389.00,51.007
1390.00,51.102
1391.00,51.162
1392.00,51.098
1393.00,51.150
1394.00,51.126
1395.00,51.130
1396.00,51.028
1397.00,50.968
1398.00,51.039
1399.00,51.177
1400.00,51.077
1401.00,51.066
1402.00,51.015
1403.00,51.131
1404.00,51.088
1405.00,51.195
1406.00,51.135
1407.00,51.225
1408.00,51.110
1409.00,51.175
1410.00,51.186
1411.00,51.195
1412.00,51.194
1413.00,51.183
1414.00,51.228
1415.00,51.236
1416.00,51.270
1417.00,51.249
1418.00,51.239
1419.00,51.259
1420.00,51.283
1421.00,51.301
1422.00,51.307
1423.00,51.335
1424.00,51.375
1425.00,51.343
1426.00,51.375
1427.00,51.405
1428.00,51.408
1429.00,51.448
1430.00,51.434
1431.00,51.458
1432.00,51.489
1433.00,51.481
1434.00,51.509
1435.00,51.557
1436.00,51.540
1437.00,51.527
1438.00,51.564
1439.00,51.596
1440.00,51.578
1441.00,51.613
1442.00,51.623
1443.00,51.658
1444.00,51.677
1445.00,51.680
1446.00,51.707
1447.00,51.734
1448.00,51.743
1449.00,51.768
1450.00,51.769
1451.00,51.799
1452.00,51.812
1453.00,51.816
1454.00,51.840
1455.00,51.858
1456.00,51.855
1457.00,51.876
1458.00,51.883
1459.00,51.912
1460.00,51.936
1461.00,51.948
1462.00,51.971
1463.00,51.987
1464.00,51.982
1465.00,52.026
1466.00,52.011
1467.00,52.048
1468.00,52.120
1469.00,52.081
1470.00,52.102
1471.00,52.131
1472.00,52.125
1473.00,52.163
1474.00,52.176
1475.00,52.187
1476.00,52.213
1477.00,52.211
1478.00,52.224
1479.00,52.252
1480.00,52.223
1481.00,52.259
1482.00,52.287
1483.00,52.281
1484.00,52.337
1485.00,52.337
1486.00,52.334
1487.00,52.366
1488.00,52.383
1489.00,52.373
1490.00,52.402
1491.00,52.405
1492.00,52.437
1493.00,52.442
1494.00,52.453
1495.00,52.466
1496.00,52.492
1497.00,52.499
1498.00,52.504
1499.00,52.513
1500.00,52.525
1501.00, 
1502.00, 
1503.00, 
1504.00, 
1505.00, 
1506.00, 
1507.00, 
1508.00, 
1509.00, 
1510.00, 
1511.00, 
1512.00, 
1513.00, 
1514.00, 
1515.00, 
1516.00, 
1517.00, 
1518.00, 
1519.00, 
1520.00, 
1521.00, 
1522.00, 
1523.00, 
1524.00, 
1525.00, 
1526.00, 
1527.00, 
1528.00, 
1529.00, 
1530.00, 
1531.00, 
1532.00, 
1533.00, 
1534.00, 
1535.00, 
1536.00, 
1537.00, 
1538.00, 
1539.00, 
1540.00, 
1541.00, 
1542.00, 
1543.00, 
1544.00, 
1545.00, 
1546.00, 
1547.00, 
1548.00, 
1549.00, 
1550.00, 
1551.00, 
1552.00, 
1553.00, 
1554.00, 
1555.00, 
1556.00, 
1557.00, 
1558.00, 
1559.00, 
1560.00, 
1561.00, 
1562.00, 
1563.00, 
1564.00, 
1565.00, 
1566.00, 
1567.00, 
1568.00, 
1569.00, 
1570.00, 
1571.00, 
1572.00, 
1573.00, 
1574.00, 
1575.00, 
1576.00, 
1577.00, 
1578.00, 
1579.00, 
1580.00, 
1581.00, 
1582.00, 
1583.00, 
1584.00, 
1585.00, 
1586.00, 
1587.00, 
1588.00, 
1589.00, 
1590.00, 
1591.00, 
1592.00, 
1593.00, 
1594.00, 
1595.00, 
1596.00, 
1597.00, 
1598.00, 
1599.00, 
1600.00, 
1601.00, 
1602.00, 
1603.00, 
1604.00, 
1605.00, 
1606.00, 
1607.00, 
1608.00, 
1609.00, 
1610.00, 
1611.00, 
1612.00, 
1613.00, 
1614.00, 
1615.00, 
1616.00, 
1617.00, 
1618.00, 
1619.00, 
1620.00, 
1621.00, 
1622.00, 
1623.00, 
1624.00, 
1625.00, 
1626.00, 
1627.00, 
1628.00, 
1629.00, 
1630.00, 
1631.00, 
1632.00, 
1633.00, 
1634.00, 
1635.00, 
1636.00, 
1637.00, 
1638.00, 
1639.00, 
1640.00, 
1641.00, 
1642.00, 
1643.00, 
1644.00, 
1645.00, 
1646.00, 
1647.00, 
1648.00, 
1649.00, 
1650.00, 
1651.00, 
1652.00, 
1653.00, 
1654.00, 
1655.00, 
1656.00, 
1657.00, 
1658.00, 
1659.00, 
1660.00, 
1661.00, 
1662.00, 
1663.00, 
1664.00, 
1665.00, 
1666.00, 
1667.00, 
1668.00, 
1669.00, 
1670.00, 
1671.00, 
1672.00, 
1673.00, 
1674.00, 
1675.00, 
1676.00, 
1677.00, 
1678.00, 
1679.00, 
1680.00, 
1681.00, 
1682.00, 
1683.00, 
1684.00, 
1685.00, 
1686.00, 
1687.00, 
1688.00, 
1689.00, 
1690.00, 
1691.00, 
1692.00, 
1693.00, 
1694.00, 
1695.00, 
1696.00, 
1697.00, 
1698.00, 
1699.00, 
1700.00, 
1701.00, 
1702.00, 
1703.00, 
1704.00, 
1705.00, 
1706.00, 
1707.00, 
1708.00, 
1709.00, 
1710.00, 
1711.00, 
1712.00, 
1713.00, 
1714.00, 
1715.00, 
1716.00, 
1717.00, 
1718.00, 
1719.00, 
1720.00, 
1721.00, 
1722.00, 
1723.00, 
1724.00, 
1725.00, 
1726.00, 
1727.00, 
1728.00, 
1729.00, 
1730.00, 
1731.00, 
1732.00, 
1733.00, 
1734.00, 
1735.00, 
1736.00, 
1737.00, 
1738.00, 
1739.00, 
1740.00, 
1741.00, 
1742.00, 
1743.00, 
1744.00, 
1745.00, 
1746.00, 
1747.00, 
1748.00, 
1749.00, 
1750.00, 
1751.00, 
1752.00, 
1753.00, 
1754.00, 
1755.00, 
1756.00, 
1757.00, 
1758.00, 
1759.00, 
1760.00, 
1761.00, 
1762.00, 
1763.00, 
1764.00, 
1765.00, 
1766.00, 
1767.00, 
1768.00, 
1769.00, 
1770.00, 
1771.00, 
1772.00, 
1773.00, 
1774.00, 
1775.00, 
1776.00, 
1777.00, 
1778.00, 
1779.00, 
1780.00, 
1781.00, 
1782.00, 
1783.00, 
1784.00, 
1785.00, 
1786.00, 
1787.00, 
1788.00, 
1789.00, 
1790.00, 
1791.00, 
1792.00, 
1793.00, 
1794.00, 
1795.00, 
1796.00, 
1797.00, 
1798.00, 
1799.00, 
1800.00, 
1801.00, 
1802.00, 
1803.00, 
1804.00, 
1805.00, 
1806.00, 
1807.00, 
1808.00, 
1809.00, 
1810.00, 
1811.00, 
1812.00, 
1813.00, 
1814.00, 
1815.00, 
1816.00, 
1817.00, 
1818.00, 
1819.00, 
1820.00, 
1821.00, 
1822.00, 
1823.00, 
1824.00, 
1825.00, 
1826.00, 
1827.00, 
1828.00, 
1829.00, 
1830.00, 
1831.00, 
1832.00, 
1833.00, 
1834.00, 
1835.00, 
1836.00, 
1837.00, 
1838.00, 
1839.00, 
1840.00, 
1841.00, 
1842.00, 
1843.00, 
1844.00, 
1845.00, 
1846.00, 
1847.00, 
1848.00, 
1849.00, 
1850.00, 
1851.00, 
1852.00, 
1853.00, 
1854.00, 
1855.00, 
1856.00, 
1857.00, 
1858.00, 
1859.00, 
1860.00, 
1861.00, 
1862.00, 
1863.00, 
1864.00, 
1865.00, 
1866.00, 
1867.00, 
1868.00, 
1869.00, 
1870.00, 
1871.00, 
1872.00, 
1873.00, 
1874.00, 
1875.00, 
1876.00, 
1877.00, 
1878.00, 
1879.00, 
1880.00, 
1881.00, 
1882.00, 
1883.00, 
1884.00, 
1885.00, 
1886.00, 
1887.00, 
1888.00, 
1889.00, 
1890.00, 
1891.00, 
1892.00, 
1893.00, 
1894.00, 
1895.00, 
1896.00, 
1897.00, 
1898.00, 
1899.00, 
1900.00, 
1901.00, 
1902.00, 
1903.00, 
1904.00, 
1905.00, 
1906.00, 
1907.00, 
1908.00, 
1909.00, 
1910.00, 
1911.00, 
1912.00, 
1913.00, 
1914.00, 
1915.00, 
1916.00, 
1917.00, 
1918.00, 
1919.00, 
1920.00, 
1921.00, 
1922.00, 
1923.00, 
1924.00, 
1925.00, 
1926.00, 
1927.00, 
1928.00, 
1929.00, 
1930.00, 
1931.00, 
1932.00, 
1933.00, 
1934.00, 
1935.00, 
1936.00, 
1937.00, 
1938.00, 
1939.00, 
1940.00, 
1941.00, 
1942.00, 
1943.00, 
1944.00, 
1945.00, 
1946.00, 
1947.00, 
1948.00, 
1949.00, 
1950.00, 
1951.00, 
1952.00, 
1953.00, 
1954.00, 
1955.00, 
1956.00, 
1957.00, 
1958.00, 
1959.00, 
1960.00, 
1961.00, 
1962.00, 
1963.00, 
1964.00, 
1965.00, 
1966.00, 
1967.00, 
1968.00, 
1969.00, 
1970.00, 
1971.00, 
1972.00, 
1973.00, 
1974.00, 
1975.00, 
1976.00, 
1977.00, 
1978.00, 
1979.00, 
1980.00, 
1981.00, 
1982.00, 
1983.00, 
1984.00, 
1985.00, 
1986.00, 
1987.00, 
1988.00, 
1989.00, 
1990.00, 
1991.00, 
1992.00, 
1993.00, 
1994.00, 
1995.00, 
1996.00, 
1997.00, 
1998.00, 
1999.00, 
2000.00, 
2001.00, 
2002.00, 
2003.00, 
2004.00, 
2005.00, 
2006.00, 
2007.00, 
2008.00, 
2009.00, 
2010.00, 
2011.00, 
2012.00, 
2013.00, 
2014.00, 
2015.00, 
2016.00, 
2017.00, 
2018.00, 
2019.00, 
2020.00, 
2021.00, 
2022.00, 
2023.00, 
2024.00, 
2025.00, 
2026.00, 
2027.00, 
2028.00, 
2029.00, 
2030.00, 
2031.00, 
2032.00, 
2033.00, 
2034.00, 
2035.00, 
2036.00, 
2037.00, 
2038.00, 
2039.00, 
2040.00, 
2041.00, 
2042.00, 
2043.00, 
2044.00, 
2045.00, 
2046.00, 
2047.00, 
2048.00, 
2049.00, 
2050.00, 
2051.00, 
2052.00, 
2053.00, 
2054.00, 
2055.00, 
2056.00, 
2057.00, 
2058.00, 
2059.00, 
2060.00, 
2061.00, 
2062.00, 
2063.00, 
2064.00, 
2065.00, 
2066.00, 
2067.00, 
2068.00, 
2069.00, 
2070.00, 
2071.00, 
2072.00, 
2073.00, 
2074.00, 
2075.00, 
2076.00, 
2077.00, 
2078.00, 
2079.00, 
2080.00, 
2081.00, 
2082.00, 
2083.00, 
2084.00, 
2085.00, 
2086.00, 
2087.00, 
2088.00, 
2089.00, 
2090.00, 
2091.00, 
2092.00, 
2093.00, 
2094.00, 
2095.00, 
2096.00, 
2097.00, 
2098.00, 
2099.00, 
2100.00, 
2101.00, 
2102.00, 
2103.00, 
2104.00, 
2105.00, 
2106.00, 
2107.00, 
2108.00, 
2109.00, 
2110.00, 
2111.00, 
2112.00, 
2113.00, 
2114.00, 
2115.00, 
2116.00, 
2117.00, 
2118.00, 
2119.00, 
2120.00, 
2121.00, 
2122.00, 
2123.00, 
2124.00, 
2125.00, 
2126.00, 
2127.00, 
2128.00, 
2129.00, 
2130.00, 
2131.00, 
2132.00, 
2133.00, 
2134.00, 
2135.00, 
2136.00, 
2137.00, 
2138.00, 
2139.00, 
2140.00, 
2141.00, 
2142.00, 
2143.00, 
2144.00, 
2145.00, 
2146.00, 
2147.00, 
2148.00, 
2149.00, 
2150.00, 
2151.00, 
2152.00, 
2153.00, 
2154.00, 
2155.00, 
2156.00, 
2157.00, 
2158.00, 
2159.00, 
2160.00, 
2161.00, 
2162.00, 
2163.00, 
2164.00, 
2165.00, 
2166.00, 
2167.00, 
2168.00, 
2169.00, 
2170.00, 
2171.00, 
2172.00, 
2173.00, 
2174.00, 
2175.00, 
2176.00, 
2177.00, 
2178.00, 
2179.00, 
2180.00, 
2181.00, 
2182.00, 
2183.00, 
2184.00, 
2185.00, 
2186.00, 
2187.00, 
2188.00, 
2189.00, 
2190.00, 
2191.00, 
2192.00, 
2193.00, 
2194.00, 
2195.00, 
2196.00, 
2197.00, 
2198.00, 
2199.00, 
2200.00, 
2201.00, 
2202.00, 
2203.00, 
2204.00, 
2205.00, 
2206.00, 
2207.00, 
2208.00, 
2209.00, 
2210.00, 
2211.00, 
2212.00, 
2213.00, 
2214.00, 
2215.00, 
2216.00, 
2217.00, 
2218.00, 
2219.00, 
2220.00, 
2221.00, 
2222.00, 
2223.00, 
2224.00, 
2225.00, 
2226.00, 
2227.00, 
2228.00, 
2229.00, 
2230.00, 
2231.00, 
2232.00, 
2233.00, 
2234.00, 
2235.00, 
2236.00, 
2237.00, 
2238.00, 
2239.00, 
2240.00, 
2241.00, 
2242.00, 
2243.00, 
2244.00, 
2245.00, 
2246.00, 
2247.00, 
2248.00, 
2249.00, 
2250.00, 
2251.00, 
2252.00, 
2253.00, 
2254.00, 
2255.00, 
2256.00, 
2257.00, 
2258.00, 
2259.00, 
2260.00, 
2261.00, 
2262.00, 
2263.00, 
2264.00, 
2265.00, 
2266.00, 
2267.00, 
2268.00, 
2269.00, 
2270.00, 
2271.00, 
2272.00, 
2273.00, 
2274.00, 
2275.00, 
2276.00, 
2277.00, 
2278.00, 
2279.00, 
2280.00, 
2281.00, 
2282.00, 
2283.00, 
2284.00, 
2285.00, 
2286.00, 
2287.00, 
2288.00, 
2289.00, 
2290.00, 
2291.00, 
2292.00, 
2293.00, 
2294.00, 
2295.00, 
2296.00, 
2297.00, 
2298.00, 
2299.00, 
2300.00, 
2301.00, 
2302.00, 
2303.00, 
2304.00, 
2305.00, 
2306.00, 
2307.00, 
2308.00, 
2309.00, 
2310.00, 
2311.00, 
2312.00, 
2313.00, 
2314.00, 
2315.00, 
2316.00, 
2317.00, 
2318.00, 
2319.00, 
2320.00, 
2321.00, 
2322.00, 
2323.00, 
2324.00, 
2325.00, 
2326.00, 
2327.00, 
2328.00, 
2329.00, 
2330.00, 
2331.00, 
2332.00, 
2333.00, 
2334.00, 
2335.00, 
2336.00, 
2337.00, 
2338.00, 
2339.00, 
2340.00, 
2341.00, 
2342.00, 
2343.00, 
2344.00, 
2345.00, 
2346.00, 
2347.00, 
2348.00, 
2349.00, 
2350.00, 
2351.00, 
2352.00, 
2353.00, 
2354.00, 
2355.00, 
2356.00, 
2357.00, 
2358.00, 
2359.00, 
2360.00, 
2361.00, 
2362.00, 
2363.00, 
2364.00, 
2365.00, 
2366.00, 
2367.00, 
2368.00, 
2369.00, 
2370.00, 
2371.00, 
2372.00, 
2373.00, 
2374.00, 
2375.00, 
2376.00, 
2377.00, 
2378.00, 
2379.00, 
2380.00, 
2381.00, 
2382.00, 
2383.00, 
2384.00, 
2385.00, 
2386.00, 
2387.00, 
2388.00, 
2389.00, 
2390.00, 
2391.00, 
2392.00, 
2393.00, 
2394.00, 
2395.00, 
2396.00, 
2397.00, 
2398.00, 
2399.00, 
2400.00, 
2401.00, 
2402.00, 
2403.00, 
2404.00, 
2405.00, 
2406.00, 
2407.00, 
2408.00, 
2409.00, 
2410.00, 
2411.00, 
2412.00, 
2413.00, 
2414.00, 
2415.00, 
2416.00, 
2417.00, 
2418.00, 
2419.00, 
2420.00, 
2421.00, 
2422.00, 
2423.00, 
2424.00, 
2425.00, 
2426.00, 
2427.00, 
2428.00, 
2429.00, 
2430.00, 
2431.00, 
2432.00, 
2433.00, 
2434.00, 
2435.00, 
2436.00, 
2437.00, 
2438.00, 
2439.00, 
2440.00, 
2441.00, 
2442.00, 
2443.00, 
2444.00, 
2445.00, 
2446.00, 
2447.00, 
2448.00, 
2449.00, 
2450.00, 
2451.00, 
2452.00, 
2453.00, 
2454.00, 
2455.00, 
2456.00, 
2457.00, 
2458.00, 
2459.00, 
2460.00, 
2461.00, 
2462.00, 
2463.00, 
2464.00, 
2465.00, 
2466.00, 
2467.00, 
2468.00, 
2469.00, 
2470.00, 
2471.00, 
2472.00, 
2473.00, 
2474.00, 
2475.00, 
2476.00, 
2477.00, 
2478.00, 
2479.00, 
2480.00, 
2481.00, 
2482.00, 
2483.00, 
2484.00, 
2485.00, 
2486.00, 
2487.00, 
2488.00, 
2489.00, 
2490.00, 
2491.00, 
2492.00, 
2493.00, 
2494.00, 
2495.00, 
2496.00, 
2497.00, 
2498.00, 
2499.00, 
2500.00, 
2501.00, 
2502.00, 
2503.00, 
2504.00, 
2505.00, 
2506.00, 
2507.00, 
2508.00, 
2509.00, 
2510.00, 
2511.00, 
2512.00, 
2513.00, 
2514.00, 
2515.00, 
2516.00, 
2517.00, 
2518.00, 
2519.00, 
2520.00, 
2521.00, 
2522.00, 
2523.00, 
2524.00, 
2525.00, 
2526.00, 
2527.00, 
2528.00, 
2529.00, 
2530.00, 
2531.00, 
2532.00, 
2533.00, 
2534.00, 
2535.00, 
2536.00, 
2537.00, 
2538.00, 
2539.00, 
2540.00, 
2541.00, 
2542.00, 
2543.00, 
2544.00, 
2545.00, 
2546.00, 
2547.00, 
2548.00, 
2549.00, 
2550.00, 
2551.00, 
2552.00, 
2553.00, 
2554.00, 
2555.00, 
2556.00, 
2557.00, 
2558.00, 
2559.00, 
2560.00, 
2561.00, 
2562.00, 
2563.00, 
2564.00, 
2565.00, 
2566.00, 
2567.00, 
2568.00, 
2569.00, 
2570.00, 
2571.00, 
2572.00, 
2573.00, 
2574.00, 
2575.00, 
2576.00, 
2577.00, 
2578.00, 
2579.00, 
2580.00, 
2581.00, 
2582.00, 
2583.00, 
2584.00, 
2585.00, 
2586.00, 
2587.00, 
2588.00, 
2589.00, 
2590.00, 
2591.00, 
2592.00, 
2593.00, 
2594.00, 
2595.00, 
2596.00, 
2597.00, 
2598.00, 
2599.00, 
2600.00, 
