"2aP2 - RawData"
"Wavelength nm.","T%"
200.00,0.001
201.00,-0.001
202.00,0.007
203.00,0.000
204.00,-0.002
205.00,0.002
206.00,0.001
207.00,-0.000
208.00,0.004
209.00,0.002
210.00,0.002
211.00,0.002
212.00,0.003
213.00,0.000
214.00,0.001
215.00,0.002
216.00,-0.001
217.00,0.001
218.00,0.000
219.00,0.003
220.00,0.001
221.00,0.001
222.00,0.003
223.00,0.005
224.00,0.004
225.00,0.003
226.00,0.001
227.00,0.001
228.00,-0.002
229.00,0.004
230.00,0.002
231.00,0.002
232.00,0.003
233.00,0.003
234.00,0.001
235.00,0.002
236.00,0.002
237.00,0.002
238.00,0.001
239.00,0.002
240.00,0.001
241.00,0.001
242.00,0.002
243.00,0.002
244.00,-0.000
245.00,0.001
246.00,0.003
247.00,0.002
248.00,0.002
249.00,0.001
250.00,0.002
251.00,0.000
252.00,0.000
253.00,0.001
254.00,0.001
255.00,0.003
256.00,0.001
257.00,-0.000
258.00,0.000
259.00,0.002
260.00,0.002
261.00,-0.000
262.00,0.002
263.00,-0.001
264.00,0.002
265.00,0.000
266.00,0.000
267.00,-0.000
268.00,-0.000
269.00,0.001
270.00,-0.001
271.00,-0.000
272.00,0.000
273.00,0.001
274.00,-0.000
275.00,-0.001
276.00,0.001
277.00,0.000
278.00,0.000
279.00,0.000
280.00,0.001
281.00,0.000
282.00,0.001
283.00,-0.000
284.00,-0.000
285.00,0.000
286.00,-0.000
287.00,-0.000
288.00,0.001
289.00,-0.000
290.00,0.000
291.00,0.000
292.00,0.001
293.00,0.000
294.00,-0.001
295.00,0.001
296.00,0.001
297.00,0.001
298.00,0.002
299.00,0.003
300.00,0.003
301.00,0.005
302.00,0.004
303.00,0.005
304.00,0.012
305.00,0.018
306.00,0.026
307.00,0.045
308.00,0.065
309.00,0.102
310.00,0.142
311.00,0.193
312.00,0.253
313.00,0.341
314.00,0.453
315.00,0.594
316.00,0.752
317.00,0.967
318.00,1.194
319.00,1.453
320.00,1.771
321.00,2.105
322.00,2.485
323.00,2.924
324.00,3.389
325.00,3.849
326.00,4.350
327.00,4.902
328.00,5.497
329.00,6.077
330.00,6.651
331.00,7.253
332.00,7.892
333.00,8.589
334.00,9.231
335.00,9.886
336.00,10.523
337.00,11.167
338.00,11.798
339.00,12.360
340.00,12.959
341.00,13.551
342.00,14.117
343.00,14.614
344.00,15.101
345.00,15.635
346.00,16.084
347.00,16.547
348.00,16.948
349.00,17.321
350.00,17.665
351.00,18.046
352.00,18.309
353.00,18.650
354.00,18.909
355.00,19.175
356.00,19.374
357.00,19.625
358.00,19.813
359.00,20.044
360.00,20.243
361.00,20.437
362.00,20.584
363.00,20.719
364.00,20.794
365.00,20.888
366.00,21.000
367.00,21.043
368.00,21.104
369.00,21.212
370.00,21.206
371.00,21.244
372.00,21.260
373.00,21.225
374.00,21.268
375.00,21.262
376.00,21.211
377.00,21.172
378.00,21.097
379.00,21.045
380.00,21.072
381.00,21.052
382.00,21.047
383.00,21.045
384.00,21.107
385.00,21.106
386.00,21.111
387.00,21.176
388.00,21.239
389.00,21.192
390.00,21.221
391.00,21.298
392.00,21.329
393.00,21.265
394.00,21.326
395.00,21.325
396.00,21.340
397.00,21.356
398.00,21.360
399.00,21.360
400.00,21.340
401.00,21.376
402.00,21.369
403.00,21.328
404.00,21.355
405.00,21.324
406.00,21.330
407.00,21.315
408.00,21.315
409.00,21.281
410.00,21.214
411.00,21.228
412.00,21.244
413.00,21.250
414.00,21.227
415.00,21.253
416.00,21.285
417.00,21.246
418.00,21.255
419.00,21.364
420.00,21.393
421.00,21.459
422.00,21.458
423.00,21.485
424.00,21.559
425.00,21.556
426.00,21.630
427.00,21.684
428.00,21.701
429.00,21.742
430.00,21.829
431.00,21.870
432.00,21.919
433.00,22.004
434.00,22.041
435.00,22.099
436.00,22.196
437.00,22.271
438.00,22.344
439.00,22.425
440.00,22.490
441.00,22.568
442.00,22.639
443.00,22.737
444.00,22.840
445.00,22.917
446.00,23.036
447.00,23.121
448.00,23.236
449.00,23.344
450.00,23.476
451.00,23.579
452.00,23.655
453.00,23.761
454.00,23.869
455.00,23.989
456.00,24.113
457.00,24.223
458.00,24.334
459.00,24.461
460.00,24.614
461.00,24.730
462.00,24.805
463.00,24.960
464.00,25.094
465.00,25.240
466.00,25.421
467.00,25.505
468.00,25.568
469.00,25.744
470.00,25.895
471.00,25.885
472.00,26.103
473.00,26.219
474.00,26.351
475.00,26.474
476.00,26.566
477.00,26.684
478.00,26.845
479.00,27.004
480.00,27.143
481.00,27.293
482.00,27.453
483.00,27.619
484.00,27.787
485.00,27.894
486.00,28.071
487.00,28.201
488.00,28.346
489.00,28.525
490.00,28.680
491.00,28.793
492.00,28.888
493.00,29.116
494.00,29.255
495.00,29.299
496.00,29.440
497.00,29.528
498.00,29.723
499.00,29.893
500.00,30.016
501.00,30.107
502.00,30.289
503.00,30.402
504.00,30.495
505.00,30.610
506.00,30.743
507.00,30.849
508.00,30.977
509.00,31.123
510.00,31.253
511.00,31.362
512.00,31.559
513.00,31.687
514.00,31.787
515.00,31.938
516.00,32.017
517.00,32.090
518.00,32.264
519.00,32.336
520.00,32.417
521.00,32.497
522.00,32.613
523.00,32.651
524.00,32.755
525.00,32.889
526.00,32.942
527.00,32.998
528.00,33.095
529.00,33.260
530.00,33.402
531.00,33.565
532.00,33.579
533.00,33.696
534.00,33.789
535.00,33.860
536.00,33.910
537.00,34.062
538.00,34.112
539.00,34.192
540.00,34.231
541.00,34.279
542.00,34.391
543.00,34.448
544.00,34.529
545.00,34.604
546.00,34.631
547.00,34.732
548.00,34.841
549.00,34.887
550.00,34.947
551.00,35.073
552.00,35.150
553.00,35.172
554.00,35.242
555.00,35.230
556.00,35.303
557.00,35.366
558.00,35.427
559.00,35.499
560.00,35.575
561.00,35.624
562.00,35.678
563.00,35.699
564.00,35.795
565.00,35.831
566.00,35.795
567.00,35.898
568.00,35.974
569.00,35.965
570.00,35.987
571.00,36.112
572.00,36.016
573.00,36.077
574.00,36.124
575.00,36.175
576.00,36.236
577.00,36.264
578.00,36.348
579.00,36.406
580.00,36.453
581.00,36.600
582.00,36.669
583.00,36.623
584.00,36.749
585.00,36.812
586.00,36.902
587.00,36.989
588.00,37.002
589.00,36.929
590.00,37.050
591.00,37.142
592.00,37.068
593.00,37.109
594.00,37.205
595.00,37.322
596.00,37.407
597.00,37.432
598.00,37.486
599.00,37.463
600.00,37.494
601.00,37.580
602.00,37.570
603.00,37.602
604.00,37.674
605.00,37.773
606.00,37.806
607.00,37.790
608.00,37.850
609.00,37.924
610.00,38.077
611.00,38.018
612.00,38.008
613.00,38.083
614.00,38.105
615.00,38.201
616.00,38.307
617.00,38.309
618.00,38.346
619.00,38.415
620.00,38.432
621.00,38.524
622.00,38.626
623.00,38.635
624.00,38.732
625.00,38.787
626.00,38.820
627.00,38.952
628.00,38.944
629.00,39.020
630.00,39.103
631.00,39.177
632.00,39.210
633.00,39.318
634.00,39.439
635.00,39.514
636.00,39.607
637.00,39.632
638.00,39.720
639.00,39.874
640.00,39.893
641.00,39.890
642.00,39.910
643.00,40.101
644.00,40.187
645.00,40.198
646.00,40.430
647.00,40.450
648.00,40.557
649.00,40.540
650.00,40.554
651.00,40.840
652.00,40.899
653.00,40.853
654.00,40.924
655.00,41.231
656.00,41.404
657.00,41.258
658.00,41.253
659.00,41.481
660.00,41.634
661.00,41.592
662.00,41.716
663.00,41.813
664.00,42.051
665.00,42.206
666.00,42.189
667.00,42.247
668.00,42.201
669.00,42.492
670.00,42.770
671.00,42.714
672.00,42.765
673.00,42.878
674.00,42.950
675.00,42.971
676.00,43.213
677.00,43.432
678.00,43.331
679.00,43.491
680.00,43.635
681.00,43.807
682.00,43.812
683.00,43.839
684.00,43.977
685.00,44.088
686.00,44.000
687.00,44.057
688.00,44.249
689.00,44.257
690.00,44.508
691.00,44.877
692.00,44.688
693.00,44.657
694.00,44.893
695.00,44.811
696.00,45.080
697.00,45.170
698.00,45.239
699.00,45.453
700.00,45.447
701.00,45.518
702.00,45.626
703.00,45.795
704.00,45.773
705.00,45.812
706.00,46.019
707.00,46.040
708.00,45.925
709.00,46.329
710.00,46.704
711.00,46.239
712.00,46.420
713.00,46.594
714.00,46.656
715.00,46.764
716.00,46.727
717.00,46.879
718.00,47.036
719.00,46.980
720.00,47.078
721.00,51.591
722.00,51.528
723.00,51.533
724.00,51.667
725.00,51.739
726.00,51.726
727.00,51.750
728.00,51.710
729.00,51.808
730.00,51.854
731.00,51.910
732.00,52.004
733.00,52.043
734.00,52.061
735.00,52.039
736.00,52.092
737.00,52.105
738.00,52.257
739.00,52.324
740.00,52.253
741.00,52.291
742.00,52.361
743.00,52.354
744.00,52.316
745.00,52.403
746.00,52.442
747.00,52.434
748.00,52.439
749.00,52.513
750.00,52.522
751.00,52.473
752.00,52.469
753.00,52.550
754.00,52.525
755.00,52.550
756.00,52.535
757.00,52.558
758.00,52.614
759.00,52.610
760.00,52.668
761.00,52.682
762.00,52.735
763.00,52.670
764.00,52.692
765.00,52.785
766.00,52.815
767.00,52.782
768.00,52.784
769.00,52.736
770.00,52.838
771.00,52.854
772.00,52.937
773.00,52.830
774.00,52.929
775.00,52.936
776.00,53.069
777.00,53.001
778.00,52.988
779.00,53.031
780.00,52.891
781.00,52.936
782.00,52.984
783.00,52.976
784.00,52.996
785.00,52.903
786.00,52.990
787.00,52.954
788.00,52.975
789.00,52.892
790.00,52.955
791.00,53.018
792.00,52.878
793.00,53.009
794.00,52.881
795.00,53.022
796.00,52.946
797.00,52.890
798.00,53.031
799.00,52.946
800.00,52.898
801.00,52.913
802.00,52.937
803.00,52.853
804.00,52.822
805.00,52.834
806.00,52.897
807.00,52.865
808.00,52.821
809.00,52.810
810.00,52.803
811.00,52.735
812.00,52.802
813.00,52.730
814.00,52.746
815.00,52.801
816.00,52.820
817.00,52.804
818.00,52.745
819.00,52.720
820.00,52.721
821.00,52.640
822.00,52.650
823.00,52.624
824.00,52.727
825.00,52.628
826.00,52.541
827.00,52.673
828.00,52.660
829.00,52.579
830.00,52.757
831.00,54.765
832.00,54.736
833.00,54.705
834.00,54.710
835.00,54.668
836.00,54.720
837.00,54.661
838.00,54.666
839.00,54.659
840.00,54.582
841.00,54.611
842.00,54.591
843.00,54.567
844.00,54.584
845.00,54.545
846.00,54.533
847.00,54.507
848.00,54.483
849.00,54.462
850.00,54.446
851.00,54.348
852.00,54.369
853.00,54.317
854.00,54.335
855.00,54.273
856.00,54.297
857.00,54.242
858.00,54.215
859.00,54.210
860.00,54.217
861.00,54.207
862.00,54.157
863.00,54.176
864.00,54.098
865.00,54.165
866.00,54.100
867.00,54.091
868.00,54.095
869.00,54.105
870.00,54.066
871.00,54.076
872.00,54.046
873.00,54.056
874.00,54.046
875.00,54.013
876.00,54.049
877.00,54.024
878.00,54.015
879.00,53.968
880.00,53.982
881.00,53.934
882.00,53.973
883.00,53.928
884.00,53.889
885.00,53.853
886.00,53.864
887.00,53.874
888.00,53.853
889.00,53.814
890.00,53.920
891.00,53.769
892.00,53.795
893.00,53.755
894.00,53.733
895.00,53.683
896.00,53.676
897.00,53.654
898.00,53.627
899.00,53.629
900.00,53.626
901.00,53.635
902.00,53.617
903.00,53.746
904.00,53.590
905.00,53.564
906.00,53.569
907.00,53.530
908.00,53.493
909.00,53.481
910.00,53.441
911.00,53.426
912.00,53.455
913.00,53.407
914.00,53.399
915.00,53.390
916.00,53.357
917.00,53.321
918.00,53.337
919.00,53.279
920.00,53.260
921.00,53.261
922.00,53.247
923.00,53.166
924.00,53.303
925.00,53.194
926.00,53.204
927.00,53.190
928.00,53.154
929.00,53.156
930.00,53.131
931.00,53.106
932.00,53.054
933.00,53.077
934.00,53.047
935.00,53.013
936.00,52.995
937.00,52.965
938.00,52.969
939.00,52.955
940.00,52.950
941.00,52.938
942.00,52.914
943.00,52.885
944.00,52.823
945.00,52.891
946.00,52.844
947.00,52.799
948.00,52.784
949.00,52.769
950.00,52.744
951.00,52.729
952.00,52.709
953.00,52.670
954.00,52.657
955.00,52.611
956.00,52.598
957.00,52.575
958.00,52.572
959.00,52.500
960.00,52.506
961.00,52.508
962.00,52.529
963.00,52.478
964.00,52.477
965.00,52.471
966.00,52.440
967.00,52.449
968.00,52.423
969.00,52.439
970.00,52.427
971.00,52.418
972.00,52.409
973.00,52.464
974.00,52.439
975.00,52.408
976.00,52.416
977.00,52.404
978.00,52.442
979.00,52.392
980.00,52.423
981.00,52.392
982.00,52.388
983.00,52.373
984.00,52.376
985.00,52.393
986.00,52.357
987.00,52.382
988.00,52.353
989.00,52.352
990.00,52.326
991.00,52.315
992.00,52.338
993.00,52.286
994.00,52.273
995.00,52.278
996.00,52.290
997.00,52.258
998.00,52.236
999.00,52.237
1000.00,52.209
1001.00,52.197
1002.00,52.184
1003.00,52.199
1004.00,52.150
1005.00,52.128
1006.00,52.209
1007.00,52.129
1008.00,52.121
1009.00,52.089
1010.00,52.096
1011.00,52.088
1012.00,52.050
1013.00,52.054
1014.00,52.012
1015.00,52.035
1016.00,51.982
1017.00,51.997
1018.00,51.974
1019.00,51.938
1020.00,51.952
1021.00,51.979
1022.00,51.928
1023.00,51.871
1024.00,51.884
1025.00,51.858
1026.00,51.851
1027.00,51.818
1028.00,51.819
1029.00,51.797
1030.00,51.778
1031.00,51.788
1032.00,51.747
1033.00,51.758
1034.00,51.717
1035.00,51.677
1036.00,51.655
1037.00,51.651
1038.00,51.627
1039.00,51.605
1040.00,51.610
1041.00,51.569
1042.00,51.564
1043.00,51.536
1044.00,51.563
1045.00,51.544
1046.00,51.526
1047.00,51.550
1048.00,51.575
1049.00,51.576
1050.00,51.599
1051.00,51.634
1052.00,51.632
1053.00,51.634
1054.00,51.620
1055.00,51.651
1056.00,51.657
1057.00,51.654
1058.00,51.639
1059.00,51.626
1060.00,51.613
1061.00,51.618
1062.00,51.603
1063.00,51.600
1064.00,51.596
1065.00,51.573
1066.00,51.560
1067.00,51.549
1068.00,51.576
1069.00,51.553
1070.00,51.520
1071.00,51.499
1072.00,51.522
1073.00,51.507
1074.00,51.511
1075.00,51.495
1076.00,51.490
1077.00,51.465
1078.00,51.451
1079.00,51.449
1080.00,51.444
1081.00,51.438
1082.00,51.444
1083.00,51.418
1084.00,51.414
1085.00,51.416
1086.00,51.408
1087.00,51.412
1088.00,51.392
1089.00,51.374
1090.00,51.373
1091.00,51.370
1092.00,51.359
1093.00,51.337
1094.00,51.339
1095.00,51.311
1096.00,51.313
1097.00,51.313
1098.00,51.298
1099.00,51.302
1100.00,51.280
1101.00,51.267
1102.00,51.252
1103.00,51.245
1104.00,51.261
1105.00,51.222
1106.00,51.221
1107.00,51.249
1108.00,51.203
1109.00,51.183
1110.00,51.180
1111.00,51.194
1112.00,51.176
1113.00,51.166
1114.00,51.157
1115.00,51.150
1116.00,51.140
1117.00,51.122
1118.00,51.130
1119.00,51.117
1120.00,51.113
1121.00,51.113
1122.00,51.101
1123.00,51.085
1124.00,51.077
1125.00,51.069
1126.00,51.064
1127.00,51.089
1128.00,51.089
1129.00,51.032
1130.00,51.035
1131.00,51.005
1132.00,50.996
1133.00,51.012
1134.00,50.983
1135.00,50.976
1136.00,50.992
1137.00,51.001
1138.00,51.002
1139.00,51.012
1140.00,51.035
1141.00,51.035
1142.00,51.009
1143.00,50.981
1144.00,50.943
1145.00,50.928
1146.00,50.928
1147.00,50.908
1148.00,50.907
1149.00,50.929
1150.00,50.932
1151.00,50.930
1152.00,50.919
1153.00,50.929
1154.00,50.921
1155.00,50.917
1156.00,50.915
1157.00,50.919
1158.00,50.923
1159.00,50.899
1160.00,50.898
1161.00,50.901
1162.00,50.893
1163.00,50.889
1164.00,50.874
1165.00,50.882
1166.00,50.889
1167.00,50.893
1168.00,50.905
1169.00,50.902
1170.00,50.904
1171.00,50.885
1172.00,50.882
1173.00,50.874
1174.00,50.879
1175.00,50.860
1176.00,50.863
1177.00,50.846
1178.00,50.854
1179.00,50.884
1180.00,50.858
1181.00,50.882
1182.00,50.871
1183.00,50.853
1184.00,50.848
1185.00,50.858
1186.00,50.837
1187.00,50.844
1188.00,50.856
1189.00,50.863
1190.00,50.830
1191.00,50.835
1192.00,50.841
1193.00,50.849
1194.00,50.838
1195.00,50.816
1196.00,50.836
1197.00,50.830
1198.00,50.846
1199.00,50.836
1200.00,50.851
1201.00,50.885
1202.00,50.841
1203.00,50.833
1204.00,50.810
1205.00,50.821
1206.00,50.804
1207.00,50.820
1208.00,50.791
1209.00,50.814
1210.00,50.818
1211.00,50.805
1212.00,50.833
1213.00,50.794
1214.00,50.815
1215.00,50.797
1216.00,50.813
1217.00,50.818
1218.00,50.794
1219.00,50.804
1220.00,50.790
1221.00,50.799
1222.00,50.779
1223.00,50.821
1224.00,50.819
1225.00,50.797
1226.00,50.807
1227.00,50.805
1228.00,50.817
1229.00,50.819
1230.00,50.855
1231.00,50.839
1232.00,50.852
1233.00,50.849
1234.00,50.841
1235.00,50.835
1236.00,50.824
1237.00,50.847
1238.00,50.835
1239.00,50.842
1240.00,50.829
1241.00,50.829
1242.00,50.839
1243.00,50.854
1244.00,50.834
1245.00,50.877
1246.00,50.870
1247.00,50.865
1248.00,50.857
1249.00,50.882
1250.00,50.912
1251.00,50.871
1252.00,50.875
1253.00,50.860
1254.00,50.900
1255.00,50.869
1256.00,50.852
1257.00,50.847
1258.00,50.897
1259.00,50.894
1260.00,50.921
1261.00,50.915
1262.00,50.895
1263.00,50.898
1264.00,50.911
1265.00,50.909
1266.00,50.901
1267.00,50.919
1268.00,50.929
1269.00,50.906
1270.00,50.943
1271.00,50.938
1272.00,50.948
1273.00,50.956
1274.00,50.947
1275.00,50.967
1276.00,50.965
1277.00,50.953
1278.00,50.983
1279.00,50.973
1280.00,50.967
1281.00,50.966
1282.00,50.975
1283.00,50.971
1284.00,50.979
1285.00,50.974
1286.00,50.987
1287.00,50.980
1288.00,50.987
1289.00,50.987
1290.00,51.014
1291.00,51.011
1292.00,51.026
1293.00,51.024
1294.00,51.036
1295.00,51.052
1296.00,51.051
1297.00,51.048
1298.00,51.054
1299.00,51.044
1300.00,51.055
1301.00,51.052
1302.00,51.072
1303.00,51.092
1304.00,51.067
1305.00,51.083
1306.00,51.095
1307.00,51.091
1308.00,51.103
1309.00,51.092
1310.00,51.097
1311.00,51.101
1312.00,51.105
1313.00,51.123
1314.00,51.140
1315.00,51.141
1316.00,51.132
1317.00,51.163
1318.00,51.144
1319.00,51.144
1320.00,51.157
1321.00,51.324
1322.00,51.332
1323.00,51.306
1324.00,51.294
1325.00,51.302
1326.00,51.307
1327.00,51.301
1328.00,51.293
1329.00,51.286
1330.00,51.313
1331.00,51.298
1332.00,51.297
1333.00,51.324
1334.00,51.328
1335.00,51.358
1336.00,51.356
1337.00,51.415
1338.00,51.453
1339.00,51.506
1340.00,51.556
1341.00,51.622
1342.00,51.684
1343.00,51.714
1344.00,51.774
1345.00,51.827
1346.00,51.863
1347.00,51.900
1348.00,51.919
1349.00,51.934
1350.00,51.937
1351.00,51.937
1352.00,51.950
1353.00,52.034
1354.00,51.977
1355.00,52.184
1356.00,52.054
1357.00,51.992
1358.00,51.986
1359.00,52.019
1360.00,51.987
1361.00,51.956
1362.00,51.933
1363.00,52.096
1364.00,52.178
1365.00,52.023
1366.00,52.036
1367.00,52.043
1368.00,51.952
1369.00,51.979
1370.00,52.023
1371.00,51.988
1372.00,51.997
1373.00,52.003
1374.00,52.011
1375.00,51.977
1376.00,51.961
1377.00,51.983
1378.00,52.068
1379.00,52.022
1380.00,52.001
1381.00,52.053
1382.00,52.075
1383.00,52.039
1384.00,51.995
1385.00,51.890
1386.00,52.016
1387.00,51.983
1388.00,51.942
1389.00,51.914
1390.00,51.984
1391.00,52.011
1392.00,51.975
1393.00,52.032
1394.00,52.009
1395.00,52.027
1396.00,51.923
1397.00,51.881
1398.00,51.922
1399.00,52.041
1400.00,51.801
1401.00,51.934
1402.00,52.016
1403.00,52.024
1404.00,51.961
1405.00,52.045
1406.00,52.024
1407.00,52.038
1408.00,52.021
1409.00,52.030
1410.00,52.060
1411.00,52.064
1412.00,52.112
1413.00,52.087
1414.00,52.117
1415.00,52.117
1416.00,52.148
1417.00,52.158
1418.00,52.135
1419.00,52.139
1420.00,52.131
1421.00,52.168
1422.00,52.146
1423.00,52.167
1424.00,52.188
1425.00,52.188
1426.00,52.199
1427.00,52.212
1428.00,52.220
1429.00,52.252
1430.00,52.252
1431.00,52.261
1432.00,52.288
1433.00,52.303
1434.00,52.307
1435.00,52.388
1436.00,52.334
1437.00,52.354
1438.00,52.386
1439.00,52.394
1440.00,52.402
1441.00,52.411
1442.00,52.423
1443.00,52.434
1444.00,52.477
1445.00,52.463
1446.00,52.462
1447.00,52.505
1448.00,52.551
1449.00,52.540
1450.00,52.532
1451.00,52.545
1452.00,52.567
1453.00,52.552
1454.00,52.587
1455.00,52.609
1456.00,52.629
1457.00,52.635
1458.00,52.660
1459.00,52.688
1460.00,52.701
1461.00,52.703
1462.00,52.745
1463.00,52.739
1464.00,52.734
1465.00,52.782
1466.00,52.779
1467.00,52.805
1468.00,52.856
1469.00,52.810
1470.00,52.840
1471.00,52.867
1472.00,52.862
1473.00,52.890
1474.00,52.899
1475.00,52.914
1476.00,52.944
1477.00,52.930
1478.00,52.946
1479.00,52.973
1480.00,52.958
1481.00,52.959
1482.00,53.002
1483.00,53.000
1484.00,53.022
1485.00,53.017
1486.00,53.013
1487.00,53.054
1488.00,53.047
1489.00,53.050
1490.00,53.080
1491.00,53.085
1492.00,53.106
1493.00,53.103
1494.00,53.123
1495.00,53.129
1496.00,53.147
1497.00,53.132
1498.00,53.145
1499.00,53.166
1500.00,53.184
1501.00, 
1502.00, 
1503.00, 
1504.00, 
1505.00, 
1506.00, 
1507.00, 
1508.00, 
1509.00, 
1510.00, 
1511.00, 
1512.00, 
1513.00, 
1514.00, 
1515.00, 
1516.00, 
1517.00, 
1518.00, 
1519.00, 
1520.00, 
1521.00, 
1522.00, 
1523.00, 
1524.00, 
1525.00, 
1526.00, 
1527.00, 
1528.00, 
1529.00, 
1530.00, 
1531.00, 
1532.00, 
1533.00, 
1534.00, 
1535.00, 
1536.00, 
1537.00, 
1538.00, 
1539.00, 
1540.00, 
1541.00, 
1542.00, 
1543.00, 
1544.00, 
1545.00, 
1546.00, 
1547.00, 
1548.00, 
1549.00, 
1550.00, 
1551.00, 
1552.00, 
1553.00, 
1554.00, 
1555.00, 
1556.00, 
1557.00, 
1558.00, 
1559.00, 
1560.00, 
1561.00, 
1562.00, 
1563.00, 
1564.00, 
1565.00, 
1566.00, 
1567.00, 
1568.00, 
1569.00, 
1570.00, 
1571.00, 
1572.00, 
1573.00, 
1574.00, 
1575.00, 
1576.00, 
1577.00, 
1578.00, 
1579.00, 
1580.00, 
1581.00, 
1582.00, 
1583.00, 
1584.00, 
1585.00, 
1586.00, 
1587.00, 
1588.00, 
1589.00, 
1590.00, 
1591.00, 
1592.00, 
1593.00, 
1594.00, 
1595.00, 
1596.00, 
1597.00, 
1598.00, 
1599.00, 
1600.00, 
1601.00, 
1602.00, 
1603.00, 
1604.00, 
1605.00, 
1606.00, 
1607.00, 
1608.00, 
1609.00, 
1610.00, 
1611.00, 
1612.00, 
1613.00, 
1614.00, 
1615.00, 
1616.00, 
1617.00, 
1618.00, 
1619.00, 
1620.00, 
1621.00, 
1622.00, 
1623.00, 
1624.00, 
1625.00, 
1626.00, 
1627.00, 
1628.00, 
1629.00, 
1630.00, 
1631.00, 
1632.00, 
1633.00, 
1634.00, 
1635.00, 
1636.00, 
1637.00, 
1638.00, 
1639.00, 
1640.00, 
1641.00, 
1642.00, 
1643.00, 
1644.00, 
1645.00, 
1646.00, 
1647.00, 
1648.00, 
1649.00, 
1650.00, 
1651.00, 
1652.00, 
1653.00, 
1654.00, 
1655.00, 
1656.00, 
1657.00, 
1658.00, 
1659.00, 
1660.00, 
1661.00, 
1662.00, 
1663.00, 
1664.00, 
1665.00, 
1666.00, 
1667.00, 
1668.00, 
1669.00, 
1670.00, 
1671.00, 
1672.00, 
1673.00, 
1674.00, 
1675.00, 
1676.00, 
1677.00, 
1678.00, 
1679.00, 
1680.00, 
1681.00, 
1682.00, 
1683.00, 
1684.00, 
1685.00, 
1686.00, 
1687.00, 
1688.00, 
1689.00, 
1690.00, 
1691.00, 
1692.00, 
1693.00, 
1694.00, 
1695.00, 
1696.00, 
1697.00, 
1698.00, 
1699.00, 
1700.00, 
1701.00, 
1702.00, 
1703.00, 
1704.00, 
1705.00, 
1706.00, 
1707.00, 
1708.00, 
1709.00, 
1710.00, 
1711.00, 
1712.00, 
1713.00, 
1714.00, 
1715.00, 
1716.00, 
1717.00, 
1718.00, 
1719.00, 
1720.00, 
1721.00, 
1722.00, 
1723.00, 
1724.00, 
1725.00, 
1726.00, 
1727.00, 
1728.00, 
1729.00, 
1730.00, 
1731.00, 
1732.00, 
1733.00, 
1734.00, 
1735.00, 
1736.00, 
1737.00, 
1738.00, 
1739.00, 
1740.00, 
1741.00, 
1742.00, 
1743.00, 
1744.00, 
1745.00, 
1746.00, 
1747.00, 
1748.00, 
1749.00, 
1750.00, 
1751.00, 
1752.00, 
1753.00, 
1754.00, 
1755.00, 
1756.00, 
1757.00, 
1758.00, 
1759.00, 
1760.00, 
1761.00, 
1762.00, 
1763.00, 
1764.00, 
1765.00, 
1766.00, 
1767.00, 
1768.00, 
1769.00, 
1770.00, 
1771.00, 
1772.00, 
1773.00, 
1774.00, 
1775.00, 
1776.00, 
1777.00, 
1778.00, 
1779.00, 
1780.00, 
1781.00, 
1782.00, 
1783.00, 
1784.00, 
1785.00, 
1786.00, 
1787.00, 
1788.00, 
1789.00, 
1790.00, 
1791.00, 
1792.00, 
1793.00, 
1794.00, 
1795.00, 
1796.00, 
1797.00, 
1798.00, 
1799.00, 
1800.00, 
1801.00, 
1802.00, 
1803.00, 
1804.00, 
1805.00, 
1806.00, 
1807.00, 
1808.00, 
1809.00, 
1810.00, 
1811.00, 
1812.00, 
1813.00, 
1814.00, 
1815.00, 
1816.00, 
1817.00, 
1818.00, 
1819.00, 
1820.00, 
1821.00, 
1822.00, 
1823.00, 
1824.00, 
1825.00, 
1826.00, 
1827.00, 
1828.00, 
1829.00, 
1830.00, 
1831.00, 
1832.00, 
1833.00, 
1834.00, 
1835.00, 
1836.00, 
1837.00, 
1838.00, 
1839.00, 
1840.00, 
1841.00, 
1842.00, 
1843.00, 
1844.00, 
1845.00, 
1846.00, 
1847.00, 
1848.00, 
1849.00, 
1850.00, 
1851.00, 
1852.00, 
1853.00, 
1854.00, 
1855.00, 
1856.00, 
1857.00, 
1858.00, 
1859.00, 
1860.00, 
1861.00, 
1862.00, 
1863.00, 
1864.00, 
1865.00, 
1866.00, 
1867.00, 
1868.00, 
1869.00, 
1870.00, 
1871.00, 
1872.00, 
1873.00, 
1874.00, 
1875.00, 
1876.00, 
1877.00, 
1878.00, 
1879.00, 
1880.00, 
1881.00, 
1882.00, 
1883.00, 
1884.00, 
1885.00, 
1886.00, 
1887.00, 
1888.00, 
1889.00, 
1890.00, 
1891.00, 
1892.00, 
1893.00, 
1894.00, 
1895.00, 
1896.00, 
1897.00, 
1898.00, 
1899.00, 
1900.00, 
1901.00, 
1902.00, 
1903.00, 
1904.00, 
1905.00, 
1906.00, 
1907.00, 
1908.00, 
1909.00, 
1910.00, 
1911.00, 
1912.00, 
1913.00, 
1914.00, 
1915.00, 
1916.00, 
1917.00, 
1918.00, 
1919.00, 
1920.00, 
1921.00, 
1922.00, 
1923.00, 
1924.00, 
1925.00, 
1926.00, 
1927.00, 
1928.00, 
1929.00, 
1930.00, 
1931.00, 
1932.00, 
1933.00, 
1934.00, 
1935.00, 
1936.00, 
1937.00, 
1938.00, 
1939.00, 
1940.00, 
1941.00, 
1942.00, 
1943.00, 
1944.00, 
1945.00, 
1946.00, 
1947.00, 
1948.00, 
1949.00, 
1950.00, 
1951.00, 
1952.00, 
1953.00, 
1954.00, 
1955.00, 
1956.00, 
1957.00, 
1958.00, 
1959.00, 
1960.00, 
1961.00, 
1962.00, 
1963.00, 
1964.00, 
1965.00, 
1966.00, 
1967.00, 
1968.00, 
1969.00, 
1970.00, 
1971.00, 
1972.00, 
1973.00, 
1974.00, 
1975.00, 
1976.00, 
1977.00, 
1978.00, 
1979.00, 
1980.00, 
1981.00, 
1982.00, 
1983.00, 
1984.00, 
1985.00, 
1986.00, 
1987.00, 
1988.00, 
1989.00, 
1990.00, 
1991.00, 
1992.00, 
1993.00, 
1994.00, 
1995.00, 
1996.00, 
1997.00, 
1998.00, 
1999.00, 
2000.00, 
2001.00, 
2002.00, 
2003.00, 
2004.00, 
2005.00, 
2006.00, 
2007.00, 
2008.00, 
2009.00, 
2010.00, 
2011.00, 
2012.00, 
2013.00, 
2014.00, 
2015.00, 
2016.00, 
2017.00, 
2018.00, 
2019.00, 
2020.00, 
2021.00, 
2022.00, 
2023.00, 
2024.00, 
2025.00, 
2026.00, 
2027.00, 
2028.00, 
2029.00, 
2030.00, 
2031.00, 
2032.00, 
2033.00, 
2034.00, 
2035.00, 
2036.00, 
2037.00, 
2038.00, 
2039.00, 
2040.00, 
2041.00, 
2042.00, 
2043.00, 
2044.00, 
2045.00, 
2046.00, 
2047.00, 
2048.00, 
2049.00, 
2050.00, 
2051.00, 
2052.00, 
2053.00, 
2054.00, 
2055.00, 
2056.00, 
2057.00, 
2058.00, 
2059.00, 
2060.00, 
2061.00, 
2062.00, 
2063.00, 
2064.00, 
2065.00, 
2066.00, 
2067.00, 
2068.00, 
2069.00, 
2070.00, 
2071.00, 
2072.00, 
2073.00, 
2074.00, 
2075.00, 
2076.00, 
2077.00, 
2078.00, 
2079.00, 
2080.00, 
2081.00, 
2082.00, 
2083.00, 
2084.00, 
2085.00, 
2086.00, 
2087.00, 
2088.00, 
2089.00, 
2090.00, 
2091.00, 
2092.00, 
2093.00, 
2094.00, 
2095.00, 
2096.00, 
2097.00, 
2098.00, 
2099.00, 
2100.00, 
2101.00, 
2102.00, 
2103.00, 
2104.00, 
2105.00, 
2106.00, 
2107.00, 
2108.00, 
2109.00, 
2110.00, 
2111.00, 
2112.00, 
2113.00, 
2114.00, 
2115.00, 
2116.00, 
2117.00, 
2118.00, 
2119.00, 
2120.00, 
2121.00, 
2122.00, 
2123.00, 
2124.00, 
2125.00, 
2126.00, 
2127.00, 
2128.00, 
2129.00, 
2130.00, 
2131.00, 
2132.00, 
2133.00, 
2134.00, 
2135.00, 
2136.00, 
2137.00, 
2138.00, 
2139.00, 
2140.00, 
2141.00, 
2142.00, 
2143.00, 
2144.00, 
2145.00, 
2146.00, 
2147.00, 
2148.00, 
2149.00, 
2150.00, 
2151.00, 
2152.00, 
2153.00, 
2154.00, 
2155.00, 
2156.00, 
2157.00, 
2158.00, 
2159.00, 
2160.00, 
2161.00, 
2162.00, 
2163.00, 
2164.00, 
2165.00, 
2166.00, 
2167.00, 
2168.00, 
2169.00, 
2170.00, 
2171.00, 
2172.00, 
2173.00, 
2174.00, 
2175.00, 
2176.00, 
2177.00, 
2178.00, 
2179.00, 
2180.00, 
2181.00, 
2182.00, 
2183.00, 
2184.00, 
2185.00, 
2186.00, 
2187.00, 
2188.00, 
2189.00, 
2190.00, 
2191.00, 
2192.00, 
2193.00, 
2194.00, 
2195.00, 
2196.00, 
2197.00, 
2198.00, 
2199.00, 
2200.00, 
2201.00, 
2202.00, 
2203.00, 
2204.00, 
2205.00, 
2206.00, 
2207.00, 
2208.00, 
2209.00, 
2210.00, 
2211.00, 
2212.00, 
2213.00, 
2214.00, 
2215.00, 
2216.00, 
2217.00, 
2218.00, 
2219.00, 
2220.00, 
2221.00, 
2222.00, 
2223.00, 
2224.00, 
2225.00, 
2226.00, 
2227.00, 
2228.00, 
2229.00, 
2230.00, 
2231.00, 
2232.00, 
2233.00, 
2234.00, 
2235.00, 
2236.00, 
2237.00, 
2238.00, 
2239.00, 
2240.00, 
2241.00, 
2242.00, 
2243.00, 
2244.00, 
2245.00, 
2246.00, 
2247.00, 
2248.00, 
2249.00, 
2250.00, 
2251.00, 
2252.00, 
2253.00, 
2254.00, 
2255.00, 
2256.00, 
2257.00, 
2258.00, 
2259.00, 
2260.00, 
2261.00, 
2262.00, 
2263.00, 
2264.00, 
2265.00, 
2266.00, 
2267.00, 
2268.00, 
2269.00, 
2270.00, 
2271.00, 
2272.00, 
2273.00, 
2274.00, 
2275.00, 
2276.00, 
2277.00, 
2278.00, 
2279.00, 
2280.00, 
2281.00, 
2282.00, 
2283.00, 
2284.00, 
2285.00, 
2286.00, 
2287.00, 
2288.00, 
2289.00, 
2290.00, 
2291.00, 
2292.00, 
2293.00, 
2294.00, 
2295.00, 
2296.00, 
2297.00, 
2298.00, 
2299.00, 
2300.00, 
2301.00, 
2302.00, 
2303.00, 
2304.00, 
2305.00, 
2306.00, 
2307.00, 
2308.00, 
2309.00, 
2310.00, 
2311.00, 
2312.00, 
2313.00, 
2314.00, 
2315.00, 
2316.00, 
2317.00, 
2318.00, 
2319.00, 
2320.00, 
2321.00, 
2322.00, 
2323.00, 
2324.00, 
2325.00, 
2326.00, 
2327.00, 
2328.00, 
2329.00, 
2330.00, 
2331.00, 
2332.00, 
2333.00, 
2334.00, 
2335.00, 
2336.00, 
2337.00, 
2338.00, 
2339.00, 
2340.00, 
2341.00, 
2342.00, 
2343.00, 
2344.00, 
2345.00, 
2346.00, 
2347.00, 
2348.00, 
2349.00, 
2350.00, 
2351.00, 
2352.00, 
2353.00, 
2354.00, 
2355.00, 
2356.00, 
2357.00, 
2358.00, 
2359.00, 
2360.00, 
2361.00, 
2362.00, 
2363.00, 
2364.00, 
2365.00, 
2366.00, 
2367.00, 
2368.00, 
2369.00, 
2370.00, 
2371.00, 
2372.00, 
2373.00, 
2374.00, 
2375.00, 
2376.00, 
2377.00, 
2378.00, 
2379.00, 
2380.00, 
2381.00, 
2382.00, 
2383.00, 
2384.00, 
2385.00, 
2386.00, 
2387.00, 
2388.00, 
2389.00, 
2390.00, 
2391.00, 
2392.00, 
2393.00, 
2394.00, 
2395.00, 
2396.00, 
2397.00, 
2398.00, 
2399.00, 
2400.00, 
2401.00, 
2402.00, 
2403.00, 
2404.00, 
2405.00, 
2406.00, 
2407.00, 
2408.00, 
2409.00, 
2410.00, 
2411.00, 
2412.00, 
2413.00, 
2414.00, 
2415.00, 
2416.00, 
2417.00, 
2418.00, 
2419.00, 
2420.00, 
2421.00, 
2422.00, 
2423.00, 
2424.00, 
2425.00, 
2426.00, 
2427.00, 
2428.00, 
2429.00, 
2430.00, 
2431.00, 
2432.00, 
2433.00, 
2434.00, 
2435.00, 
2436.00, 
2437.00, 
2438.00, 
2439.00, 
2440.00, 
2441.00, 
2442.00, 
2443.00, 
2444.00, 
2445.00, 
2446.00, 
2447.00, 
2448.00, 
2449.00, 
2450.00, 
2451.00, 
2452.00, 
2453.00, 
2454.00, 
2455.00, 
2456.00, 
2457.00, 
2458.00, 
2459.00, 
2460.00, 
2461.00, 
2462.00, 
2463.00, 
2464.00, 
2465.00, 
2466.00, 
2467.00, 
2468.00, 
2469.00, 
2470.00, 
2471.00, 
2472.00, 
2473.00, 
2474.00, 
2475.00, 
2476.00, 
2477.00, 
2478.00, 
2479.00, 
2480.00, 
2481.00, 
2482.00, 
2483.00, 
2484.00, 
2485.00, 
2486.00, 
2487.00, 
2488.00, 
2489.00, 
2490.00, 
2491.00, 
2492.00, 
2493.00, 
2494.00, 
2495.00, 
2496.00, 
2497.00, 
2498.00, 
2499.00, 
2500.00, 
2501.00, 
2502.00, 
2503.00, 
2504.00, 
2505.00, 
2506.00, 
2507.00, 
2508.00, 
2509.00, 
2510.00, 
2511.00, 
2512.00, 
2513.00, 
2514.00, 
2515.00, 
2516.00, 
2517.00, 
2518.00, 
2519.00, 
2520.00, 
2521.00, 
2522.00, 
2523.00, 
2524.00, 
2525.00, 
2526.00, 
2527.00, 
2528.00, 
2529.00, 
2530.00, 
2531.00, 
2532.00, 
2533.00, 
2534.00, 
2535.00, 
2536.00, 
2537.00, 
2538.00, 
2539.00, 
2540.00, 
2541.00, 
2542.00, 
2543.00, 
2544.00, 
2545.00, 
2546.00, 
2547.00, 
2548.00, 
2549.00, 
2550.00, 
2551.00, 
2552.00, 
2553.00, 
2554.00, 
2555.00, 
2556.00, 
2557.00, 
2558.00, 
2559.00, 
2560.00, 
2561.00, 
2562.00, 
2563.00, 
2564.00, 
2565.00, 
2566.00, 
2567.00, 
2568.00, 
2569.00, 
2570.00, 
2571.00, 
2572.00, 
2573.00, 
2574.00, 
2575.00, 
2576.00, 
2577.00, 
2578.00, 
2579.00, 
2580.00, 
2581.00, 
2582.00, 
2583.00, 
2584.00, 
2585.00, 
2586.00, 
2587.00, 
2588.00, 
2589.00, 
2590.00, 
2591.00, 
2592.00, 
2593.00, 
2594.00, 
2595.00, 
2596.00, 
2597.00, 
2598.00, 
2599.00, 
2600.00, 
