"1aP2 - RawData"
"Wavelength nm.","T%"
200.00,0.001
201.00,0.002
202.00,0.005
203.00,0.002
204.00,0.002
205.00,-0.000
206.00,0.002
207.00,0.003
208.00,-0.000
209.00,0.001
210.00,-0.002
211.00,0.002
212.00,0.002
213.00,0.002
214.00,0.001
215.00,0.003
216.00,0.002
217.00,0.001
218.00,-0.001
219.00,-0.002
220.00,0.002
221.00,0.003
222.00,0.001
223.00,0.002
224.00,0.003
225.00,0.003
226.00,-0.001
227.00,-0.001
228.00,0.000
229.00,0.003
230.00,-0.001
231.00,-0.001
232.00,-0.000
233.00,0.000
234.00,0.002
235.00,0.003
236.00,0.001
237.00,0.001
238.00,-0.001
239.00,0.000
240.00,0.002
241.00,0.002
242.00,-0.000
243.00,0.000
244.00,0.001
245.00,0.002
246.00,0.000
247.00,0.001
248.00,0.001
249.00,0.001
250.00,0.001
251.00,-0.001
252.00,0.001
253.00,-0.000
254.00,-0.001
255.00,0.002
256.00,0.000
257.00,-0.001
258.00,-0.000
259.00,-0.001
260.00,0.000
261.00,0.001
262.00,0.000
263.00,0.001
264.00,0.001
265.00,-0.002
266.00,-0.001
267.00,0.001
268.00,0.001
269.00,0.002
270.00,0.001
271.00,0.001
272.00,0.002
273.00,0.001
274.00,-0.001
275.00,-0.000
276.00,-0.000
277.00,0.002
278.00,0.001
279.00,0.001
280.00,-0.000
281.00,-0.000
282.00,0.001
283.00,-0.000
284.00,0.002
285.00,-0.000
286.00,0.000
287.00,0.001
288.00,0.001
289.00,0.000
290.00,0.001
291.00,-0.000
292.00,-0.001
293.00,-0.000
294.00,0.001
295.00,-0.000
296.00,-0.001
297.00,0.001
298.00,0.001
299.00,0.004
300.00,0.004
301.00,0.005
302.00,0.008
303.00,0.013
304.00,0.020
305.00,0.030
306.00,0.048
307.00,0.076
308.00,0.114
309.00,0.177
310.00,0.244
311.00,0.334
312.00,0.452
313.00,0.604
314.00,0.792
315.00,1.013
316.00,1.278
317.00,1.614
318.00,1.967
319.00,2.410
320.00,2.927
321.00,3.455
322.00,4.038
323.00,4.717
324.00,5.442
325.00,6.133
326.00,6.876
327.00,7.725
328.00,8.564
329.00,9.407
330.00,10.309
331.00,11.183
332.00,12.098
333.00,13.057
334.00,13.893
335.00,14.777
336.00,15.661
337.00,16.582
338.00,17.480
339.00,18.196
340.00,19.028
341.00,19.825
342.00,20.486
343.00,21.266
344.00,21.980
345.00,22.541
346.00,23.178
347.00,23.713
348.00,24.281
349.00,24.755
350.00,25.200
351.00,25.625
352.00,25.966
353.00,26.382
354.00,26.727
355.00,27.049
356.00,27.335
357.00,27.676
358.00,27.924
359.00,28.173
360.00,28.399
361.00,28.615
362.00,28.753
363.00,28.998
364.00,29.106
365.00,29.278
366.00,29.399
367.00,29.481
368.00,29.630
369.00,29.560
370.00,29.644
371.00,29.692
372.00,29.674
373.00,29.710
374.00,29.645
375.00,29.653
376.00,29.615
377.00,29.584
378.00,29.481
379.00,29.389
380.00,29.397
381.00,29.382
382.00,29.388
383.00,29.404
384.00,29.448
385.00,29.451
386.00,29.514
387.00,29.578
388.00,29.690
389.00,29.681
390.00,29.781
391.00,29.795
392.00,29.790
393.00,29.828
394.00,29.867
395.00,29.923
396.00,29.891
397.00,29.926
398.00,29.940
399.00,29.952
400.00,29.971
401.00,29.995
402.00,29.979
403.00,30.006
404.00,30.014
405.00,30.097
406.00,29.916
407.00,29.879
408.00,29.905
409.00,29.850
410.00,29.825
411.00,29.788
412.00,29.786
413.00,29.760
414.00,29.780
415.00,29.757
416.00,29.833
417.00,29.795
418.00,29.813
419.00,29.910
420.00,29.913
421.00,30.005
422.00,30.024
423.00,30.090
424.00,30.083
425.00,30.165
426.00,30.162
427.00,30.250
428.00,30.267
429.00,30.274
430.00,30.343
431.00,30.373
432.00,30.426
433.00,30.506
434.00,30.546
435.00,30.620
436.00,30.695
437.00,30.754
438.00,30.839
439.00,30.871
440.00,30.997
441.00,31.048
442.00,31.127
443.00,31.195
444.00,31.231
445.00,31.385
446.00,31.441
447.00,31.540
448.00,31.635
449.00,31.759
450.00,31.817
451.00,31.908
452.00,32.063
453.00,32.140
454.00,32.206
455.00,32.342
456.00,32.451
457.00,32.628
458.00,32.675
459.00,32.761
460.00,32.823
461.00,33.031
462.00,33.150
463.00,33.249
464.00,33.426
465.00,33.533
466.00,33.654
467.00,33.749
468.00,33.886
469.00,33.986
470.00,34.003
471.00,34.134
472.00,34.176
473.00,34.252
474.00,34.490
475.00,34.595
476.00,34.664
477.00,34.769
478.00,34.927
479.00,35.049
480.00,35.203
481.00,35.287
482.00,35.418
483.00,35.556
484.00,35.677
485.00,35.922
486.00,35.970
487.00,36.106
488.00,36.265
489.00,36.395
490.00,36.545
491.00,36.624
492.00,36.767
493.00,36.973
494.00,37.033
495.00,37.140
496.00,37.286
497.00,37.327
498.00,37.490
499.00,37.616
500.00,37.710
501.00,37.852
502.00,37.997
503.00,38.057
504.00,38.186
505.00,38.239
506.00,38.323
507.00,38.436
508.00,38.559
509.00,38.676
510.00,38.775
511.00,38.904
512.00,39.034
513.00,39.262
514.00,39.213
515.00,39.349
516.00,39.410
517.00,39.543
518.00,39.625
519.00,39.667
520.00,39.783
521.00,39.817
522.00,39.861
523.00,39.951
524.00,39.981
525.00,40.065
526.00,40.156
527.00,40.230
528.00,40.277
529.00,40.420
530.00,40.457
531.00,40.676
532.00,40.705
533.00,40.875
534.00,40.890
535.00,40.975
536.00,41.071
537.00,41.054
538.00,41.145
539.00,41.193
540.00,41.205
541.00,41.282
542.00,41.244
543.00,41.338
544.00,41.386
545.00,41.385
546.00,41.413
547.00,41.661
548.00,41.648
549.00,41.771
550.00,41.848
551.00,41.907
552.00,41.964
553.00,41.970
554.00,42.057
555.00,42.040
556.00,42.119
557.00,42.204
558.00,42.190
559.00,42.287
560.00,42.305
561.00,42.363
562.00,42.412
563.00,42.442
564.00,42.491
565.00,42.552
566.00,42.559
567.00,42.489
568.00,42.610
569.00,42.661
570.00,42.497
571.00,42.696
572.00,42.697
573.00,42.718
574.00,42.730
575.00,42.732
576.00,42.743
577.00,42.756
578.00,42.864
579.00,42.902
580.00,42.977
581.00,43.068
582.00,43.108
583.00,43.198
584.00,43.257
585.00,43.248
586.00,43.256
587.00,43.372
588.00,43.318
589.00,43.295
590.00,43.400
591.00,43.447
592.00,43.345
593.00,43.430
594.00,43.537
595.00,43.441
596.00,43.531
597.00,43.617
598.00,43.653
599.00,43.661
600.00,43.756
601.00,43.867
602.00,43.761
603.00,43.847
604.00,43.866
605.00,43.857
606.00,43.991
607.00,43.979
608.00,44.005
609.00,43.996
610.00,44.056
611.00,44.071
612.00,43.938
613.00,44.064
614.00,44.113
615.00,44.125
616.00,44.213
617.00,44.188
618.00,44.280
619.00,44.415
620.00,44.364
621.00,44.466
622.00,44.554
623.00,44.580
624.00,44.611
625.00,44.704
626.00,44.711
627.00,44.726
628.00,44.739
629.00,44.783
630.00,44.777
631.00,44.810
632.00,44.888
633.00,44.968
634.00,45.062
635.00,45.141
636.00,45.218
637.00,45.239
638.00,45.282
639.00,45.354
640.00,45.388
641.00,45.440
642.00,45.503
643.00,45.536
644.00,45.616
645.00,45.658
646.00,45.791
647.00,45.798
648.00,45.830
649.00,45.878
650.00,45.842
651.00,45.952
652.00,45.953
653.00,46.128
654.00,46.144
655.00,46.089
656.00,46.193
657.00,46.523
658.00,46.517
659.00,46.405
660.00,45.953
661.00,46.562
662.00,46.672
663.00,46.727
664.00,46.875
665.00,46.929
666.00,46.889
667.00,47.150
668.00,47.020
669.00,47.170
670.00,47.291
671.00,47.295
672.00,47.460
673.00,47.502
674.00,47.608
675.00,47.557
676.00,47.667
677.00,47.674
678.00,47.651
679.00,47.779
680.00,47.923
681.00,48.025
682.00,48.111
683.00,48.185
684.00,48.210
685.00,48.186
686.00,48.225
687.00,48.435
688.00,48.450
689.00,48.359
690.00,48.533
691.00,48.643
692.00,48.551
693.00,48.578
694.00,48.651
695.00,48.814
696.00,48.827
697.00,48.913
698.00,49.053
699.00,49.124
700.00,49.146
701.00,49.233
702.00,49.270
703.00,49.471
704.00,49.468
705.00,49.355
706.00,49.395
707.00,49.627
708.00,49.433
709.00,49.701
710.00,49.844
711.00,49.670
712.00,49.722
713.00,49.856
714.00,49.786
715.00,49.895
716.00,49.924
717.00,49.936
718.00,50.055
719.00,50.009
720.00,50.110
721.00,54.546
722.00,54.386
723.00,54.429
724.00,54.495
725.00,54.413
726.00,54.406
727.00,54.369
728.00,54.474
729.00,54.474
730.00,54.481
731.00,54.497
732.00,54.484
733.00,54.419
734.00,54.504
735.00,54.530
736.00,54.491
737.00,54.542
738.00,54.645
739.00,54.559
740.00,54.542
741.00,54.678
742.00,54.654
743.00,54.601
744.00,54.572
745.00,54.535
746.00,54.587
747.00,54.464
748.00,54.551
749.00,54.548
750.00,54.521
751.00,54.483
752.00,54.461
753.00,54.438
754.00,54.510
755.00,54.389
756.00,54.461
757.00,54.436
758.00,54.436
759.00,54.476
760.00,54.458
761.00,54.429
762.00,54.405
763.00,54.506
764.00,54.422
765.00,54.444
766.00,54.451
767.00,54.436
768.00,54.442
769.00,54.410
770.00,54.543
771.00,54.467
772.00,54.438
773.00,54.407
774.00,54.442
775.00,54.518
776.00,54.443
777.00,54.400
778.00,54.441
779.00,54.500
780.00,54.391
781.00,54.384
782.00,54.408
783.00,54.378
784.00,54.408
785.00,54.283
786.00,54.344
787.00,54.304
788.00,54.259
789.00,54.244
790.00,54.208
791.00,54.279
792.00,54.191
793.00,54.235
794.00,54.211
795.00,54.200
796.00,54.169
797.00,54.125
798.00,54.163
799.00,54.039
800.00,54.151
801.00,54.129
802.00,54.023
803.00,54.056
804.00,53.924
805.00,53.939
806.00,53.941
807.00,53.981
808.00,53.951
809.00,53.927
810.00,53.877
811.00,53.886
812.00,53.902
813.00,53.855
814.00,53.915
815.00,53.800
816.00,53.856
817.00,53.847
818.00,53.761
819.00,53.832
820.00,53.733
821.00,53.725
822.00,53.732
823.00,53.607
824.00,53.763
825.00,53.730
826.00,53.639
827.00,53.615
828.00,53.647
829.00,53.640
830.00,53.547
831.00,56.081
832.00,56.049
833.00,56.010
834.00,56.038
835.00,56.000
836.00,55.982
837.00,56.089
838.00,55.967
839.00,55.969
840.00,55.923
841.00,55.935
842.00,55.875
843.00,55.869
844.00,55.860
845.00,55.796
846.00,55.799
847.00,55.757
848.00,55.848
849.00,55.722
850.00,55.695
851.00,55.657
852.00,55.632
853.00,55.630
854.00,55.574
855.00,55.535
856.00,55.524
857.00,55.541
858.00,55.485
859.00,55.485
860.00,55.470
861.00,55.444
862.00,55.439
863.00,55.450
864.00,55.406
865.00,55.411
866.00,55.387
867.00,55.380
868.00,55.328
869.00,55.358
870.00,55.323
871.00,55.309
872.00,55.288
873.00,55.305
874.00,55.321
875.00,55.237
876.00,55.291
877.00,55.273
878.00,55.292
879.00,55.264
880.00,55.220
881.00,55.240
882.00,55.216
883.00,55.182
884.00,55.164
885.00,55.144
886.00,55.117
887.00,55.082
888.00,55.120
889.00,54.910
890.00,55.039
891.00,55.021
892.00,55.051
893.00,54.950
894.00,55.102
895.00,54.998
896.00,54.978
897.00,54.943
898.00,54.893
899.00,54.897
900.00,54.892
901.00,54.855
902.00,54.875
903.00,54.839
904.00,54.827
905.00,54.811
906.00,54.809
907.00,54.786
908.00,54.723
909.00,54.720
910.00,54.693
911.00,54.670
912.00,54.669
913.00,54.618
914.00,54.628
915.00,54.598
916.00,54.613
917.00,54.567
918.00,54.551
919.00,54.526
920.00,54.515
921.00,54.515
922.00,54.484
923.00,54.447
924.00,54.459
925.00,54.439
926.00,54.406
927.00,54.409
928.00,54.403
929.00,54.406
930.00,54.364
931.00,54.358
932.00,54.316
933.00,54.333
934.00,54.275
935.00,54.274
936.00,54.247
937.00,54.219
938.00,54.247
939.00,54.229
940.00,54.191
941.00,54.170
942.00,54.200
943.00,54.155
944.00,54.110
945.00,54.125
946.00,54.106
947.00,54.094
948.00,54.059
949.00,54.062
950.00,54.028
951.00,53.992
952.00,53.976
953.00,53.948
954.00,53.927
955.00,53.884
956.00,53.869
957.00,53.853
958.00,53.860
959.00,53.804
960.00,53.809
961.00,53.797
962.00,53.801
963.00,53.748
964.00,53.778
965.00,53.738
966.00,53.736
967.00,53.721
968.00,53.711
969.00,53.729
970.00,53.682
971.00,53.725
972.00,53.668
973.00,53.705
974.00,53.719
975.00,53.711
976.00,53.694
977.00,53.593
978.00,53.732
979.00,53.766
980.00,53.723
981.00,53.706
982.00,53.709
983.00,53.697
984.00,53.672
985.00,53.697
986.00,53.674
987.00,53.695
988.00,53.651
989.00,53.623
990.00,53.643
991.00,53.630
992.00,53.624
993.00,53.596
994.00,53.606
995.00,53.636
996.00,53.585
997.00,53.561
998.00,53.537
999.00,53.555
1000.00,53.502
1001.00,53.519
1002.00,53.515
1003.00,53.504
1004.00,53.485
1005.00,53.466
1006.00,53.472
1007.00,53.450
1008.00,53.459
1009.00,53.433
1010.00,53.446
1011.00,53.419
1012.00,53.397
1013.00,53.398
1014.00,53.350
1015.00,53.378
1016.00,53.337
1017.00,53.318
1018.00,53.316
1019.00,53.306
1020.00,53.292
1021.00,53.293
1022.00,53.259
1023.00,53.220
1024.00,53.240
1025.00,53.240
1026.00,53.219
1027.00,53.170
1028.00,53.158
1029.00,53.147
1030.00,53.126
1031.00,53.119
1032.00,53.097
1033.00,53.094
1034.00,53.058
1035.00,53.039
1036.00,52.995
1037.00,53.002
1038.00,53.000
1039.00,52.956
1040.00,52.970
1041.00,52.935
1042.00,52.938
1043.00,52.913
1044.00,52.940
1045.00,52.921
1046.00,52.916
1047.00,52.913
1048.00,52.949
1049.00,52.953
1050.00,52.942
1051.00,52.971
1052.00,52.984
1053.00,52.984
1054.00,52.995
1055.00,52.992
1056.00,52.971
1057.00,53.012
1058.00,52.985
1059.00,53.002
1060.00,53.026
1061.00,53.003
1062.00,53.003
1063.00,53.016
1064.00,53.004
1065.00,53.003
1066.00,52.965
1067.00,52.978
1068.00,52.990
1069.00,52.950
1070.00,52.944
1071.00,52.934
1072.00,52.935
1073.00,52.923
1074.00,52.920
1075.00,52.913
1076.00,52.933
1077.00,52.906
1078.00,52.904
1079.00,52.908
1080.00,52.892
1081.00,52.887
1082.00,52.886
1083.00,52.851
1084.00,52.864
1085.00,52.853
1086.00,52.880
1087.00,52.867
1088.00,52.847
1089.00,52.827
1090.00,52.838
1091.00,52.816
1092.00,52.828
1093.00,52.806
1094.00,52.781
1095.00,52.788
1096.00,52.787
1097.00,52.772
1098.00,52.776
1099.00,52.752
1100.00,52.763
1101.00,52.777
1102.00,52.763
1103.00,52.744
1104.00,52.732
1105.00,52.692
1106.00,52.694
1107.00,52.695
1108.00,52.675
1109.00,52.671
1110.00,52.666
1111.00,52.640
1112.00,52.630
1113.00,52.630
1114.00,52.633
1115.00,52.632
1116.00,52.612
1117.00,52.596
1118.00,52.607
1119.00,52.613
1120.00,52.612
1121.00,52.597
1122.00,52.573
1123.00,52.552
1124.00,52.541
1125.00,52.557
1126.00,52.550
1127.00,52.542
1128.00,52.536
1129.00,52.523
1130.00,52.515
1131.00,52.517
1132.00,52.545
1133.00,52.477
1134.00,52.520
1135.00,52.501
1136.00,52.497
1137.00,52.495
1138.00,52.477
1139.00,52.500
1140.00,52.500
1141.00,52.484
1142.00,52.477
1143.00,52.496
1144.00,52.471
1145.00,52.467
1146.00,52.460
1147.00,52.456
1148.00,52.451
1149.00,52.450
1150.00,52.479
1151.00,52.480
1152.00,52.453
1153.00,52.469
1154.00,52.443
1155.00,52.442
1156.00,52.440
1157.00,52.447
1158.00,52.446
1159.00,52.438
1160.00,52.412
1161.00,52.448
1162.00,52.451
1163.00,52.440
1164.00,52.449
1165.00,52.439
1166.00,52.440
1167.00,52.434
1168.00,52.436
1169.00,52.426
1170.00,52.417
1171.00,52.393
1172.00,52.411
1173.00,52.404
1174.00,52.411
1175.00,52.413
1176.00,52.422
1177.00,52.423
1178.00,52.437
1179.00,52.433
1180.00,52.428
1181.00,52.444
1182.00,52.414
1183.00,52.426
1184.00,52.407
1185.00,52.423
1186.00,52.416
1187.00,52.409
1188.00,52.403
1189.00,52.428
1190.00,52.404
1191.00,52.430
1192.00,52.451
1193.00,52.420
1194.00,52.451
1195.00,52.419
1196.00,52.431
1197.00,52.434
1198.00,52.428
1199.00,52.422
1200.00,52.442
1201.00,52.433
1202.00,52.412
1203.00,52.407
1204.00,52.381
1205.00,52.424
1206.00,52.403
1207.00,52.394
1208.00,52.392
1209.00,52.408
1210.00,52.409
1211.00,52.411
1212.00,52.416
1213.00,52.366
1214.00,52.398
1215.00,52.364
1216.00,52.387
1217.00,52.390
1218.00,52.378
1219.00,52.409
1220.00,52.375
1221.00,52.409
1222.00,52.400
1223.00,52.418
1224.00,52.425
1225.00,52.431
1226.00,52.429
1227.00,52.445
1228.00,52.452
1229.00,52.438
1230.00,52.472
1231.00,52.448
1232.00,52.484
1233.00,52.476
1234.00,52.465
1235.00,52.480
1236.00,52.484
1237.00,52.446
1238.00,52.470
1239.00,52.479
1240.00,52.454
1241.00,52.477
1242.00,52.479
1243.00,52.512
1244.00,52.484
1245.00,52.486
1246.00,52.511
1247.00,52.494
1248.00,52.485
1249.00,52.517
1250.00,52.502
1251.00,52.495
1252.00,52.504
1253.00,52.506
1254.00,52.518
1255.00,52.535
1256.00,52.552
1257.00,52.489
1258.00,52.547
1259.00,52.528
1260.00,52.542
1261.00,52.552
1262.00,52.554
1263.00,52.551
1264.00,52.552
1265.00,52.580
1266.00,52.579
1267.00,52.552
1268.00,52.594
1269.00,52.596
1270.00,52.603
1271.00,52.606
1272.00,52.624
1273.00,52.626
1274.00,52.627
1275.00,52.641
1276.00,52.652
1277.00,52.651
1278.00,52.645
1279.00,52.659
1280.00,52.655
1281.00,52.646
1282.00,52.678
1283.00,52.659
1284.00,52.657
1285.00,52.663
1286.00,52.662
1287.00,52.672
1288.00,52.687
1289.00,52.683
1290.00,52.742
1291.00,52.731
1292.00,52.706
1293.00,52.727
1294.00,52.724
1295.00,52.730
1296.00,52.724
1297.00,52.727
1298.00,52.761
1299.00,52.725
1300.00,52.730
1301.00,52.734
1302.00,52.764
1303.00,52.754
1304.00,52.767
1305.00,52.797
1306.00,52.772
1307.00,52.791
1308.00,52.788
1309.00,52.806
1310.00,52.815
1311.00,52.777
1312.00,52.798
1313.00,52.788
1314.00,52.799
1315.00,52.838
1316.00,52.848
1317.00,52.849
1318.00,52.863
1319.00,52.865
1320.00,52.872
1321.00,53.029
1322.00,53.002
1323.00,53.010
1324.00,53.002
1325.00,52.978
1326.00,53.017
1327.00,53.008
1328.00,52.995
1329.00,52.995
1330.00,52.996
1331.00,53.011
1332.00,53.014
1333.00,52.991
1334.00,53.028
1335.00,53.043
1336.00,53.056
1337.00,53.107
1338.00,53.166
1339.00,53.193
1340.00,53.265
1341.00,53.325
1342.00,53.388
1343.00,53.441
1344.00,53.469
1345.00,53.549
1346.00,53.577
1347.00,53.565
1348.00,53.589
1349.00,53.609
1350.00,53.625
1351.00,53.666
1352.00,53.641
1353.00,53.683
1354.00,53.684
1355.00,53.815
1356.00,53.746
1357.00,53.695
1358.00,53.660
1359.00,53.761
1360.00,53.844
1361.00,54.426
1362.00,53.683
1363.00,53.781
1364.00,53.866
1365.00,53.753
1366.00,53.794
1367.00,53.739
1368.00,53.712
1369.00,53.731
1370.00,53.746
1371.00,53.730
1372.00,53.686
1373.00,53.752
1374.00,53.714
1375.00,53.726
1376.00,53.746
1377.00,53.675
1378.00,53.808
1379.00,53.759
1380.00,53.736
1381.00,53.758
1382.00,53.721
1383.00,53.762
1384.00,53.677
1385.00,53.647
1386.00,53.722
1387.00,53.714
1388.00,53.652
1389.00,53.720
1390.00,53.725
1391.00,53.631
1392.00,53.722
1393.00,53.754
1394.00,53.755
1395.00,53.633
1396.00,53.644
1397.00,53.643
1398.00,53.736
1399.00,53.721
1400.00,53.739
1401.00,53.676
1402.00,53.823
1403.00,53.781
1404.00,53.697
1405.00,53.778
1406.00,53.760
1407.00,53.565
1408.00,53.770
1409.00,53.776
1410.00,53.772
1411.00,53.750
1412.00,53.828
1413.00,53.758
1414.00,53.773
1415.00,53.800
1416.00,53.818
1417.00,53.860
1418.00,53.830
1419.00,53.842
1420.00,53.860
1421.00,53.972
1422.00,53.899
1423.00,53.891
1424.00,53.891
1425.00,53.938
1426.00,53.920
1427.00,53.950
1428.00,53.972
1429.00,53.970
1430.00,53.964
1431.00,53.979
1432.00,53.993
1433.00,54.004
1434.00,54.004
1435.00,54.087
1436.00,54.053
1437.00,54.049
1438.00,54.047
1439.00,54.111
1440.00,54.127
1441.00,54.129
1442.00,54.131
1443.00,54.157
1444.00,54.216
1445.00,54.202
1446.00,54.175
1447.00,54.229
1448.00,54.253
1449.00,54.231
1450.00,54.226
1451.00,54.288
1452.00,54.306
1453.00,54.311
1454.00,54.298
1455.00,54.350
1456.00,54.343
1457.00,54.335
1458.00,54.375
1459.00,54.381
1460.00,54.391
1461.00,54.412
1462.00,54.439
1463.00,54.439
1464.00,54.451
1465.00,54.462
1466.00,54.481
1467.00,54.492
1468.00,54.526
1469.00,54.531
1470.00,54.544
1471.00,54.553
1472.00,54.562
1473.00,54.580
1474.00,54.605
1475.00,54.619
1476.00,54.616
1477.00,54.622
1478.00,54.639
1479.00,54.629
1480.00,54.646
1481.00,54.657
1482.00,54.692
1483.00,54.709
1484.00,54.712
1485.00,54.726
1486.00,54.730
1487.00,54.748
1488.00,54.769
1489.00,54.762
1490.00,54.754
1491.00,54.782
1492.00,54.792
1493.00,54.771
1494.00,54.828
1495.00,54.789
1496.00,54.837
1497.00,54.822
1498.00,54.825
1499.00,54.867
1500.00,54.854
1501.00, 
1502.00, 
1503.00, 
1504.00, 
1505.00, 
1506.00, 
1507.00, 
1508.00, 
1509.00, 
1510.00, 
1511.00, 
1512.00, 
1513.00, 
1514.00, 
1515.00, 
1516.00, 
1517.00, 
1518.00, 
1519.00, 
1520.00, 
1521.00, 
1522.00, 
1523.00, 
1524.00, 
1525.00, 
1526.00, 
1527.00, 
1528.00, 
1529.00, 
1530.00, 
1531.00, 
1532.00, 
1533.00, 
1534.00, 
1535.00, 
1536.00, 
1537.00, 
1538.00, 
1539.00, 
1540.00, 
1541.00, 
1542.00, 
1543.00, 
1544.00, 
1545.00, 
1546.00, 
1547.00, 
1548.00, 
1549.00, 
1550.00, 
1551.00, 
1552.00, 
1553.00, 
1554.00, 
1555.00, 
1556.00, 
1557.00, 
1558.00, 
1559.00, 
1560.00, 
1561.00, 
1562.00, 
1563.00, 
1564.00, 
1565.00, 
1566.00, 
1567.00, 
1568.00, 
1569.00, 
1570.00, 
1571.00, 
1572.00, 
1573.00, 
1574.00, 
1575.00, 
1576.00, 
1577.00, 
1578.00, 
1579.00, 
1580.00, 
1581.00, 
1582.00, 
1583.00, 
1584.00, 
1585.00, 
1586.00, 
1587.00, 
1588.00, 
1589.00, 
1590.00, 
1591.00, 
1592.00, 
1593.00, 
1594.00, 
1595.00, 
1596.00, 
1597.00, 
1598.00, 
1599.00, 
1600.00, 
1601.00, 
1602.00, 
1603.00, 
1604.00, 
1605.00, 
1606.00, 
1607.00, 
1608.00, 
1609.00, 
1610.00, 
1611.00, 
1612.00, 
1613.00, 
1614.00, 
1615.00, 
1616.00, 
1617.00, 
1618.00, 
1619.00, 
1620.00, 
1621.00, 
1622.00, 
1623.00, 
1624.00, 
1625.00, 
1626.00, 
1627.00, 
1628.00, 
1629.00, 
1630.00, 
1631.00, 
1632.00, 
1633.00, 
1634.00, 
1635.00, 
1636.00, 
1637.00, 
1638.00, 
1639.00, 
1640.00, 
1641.00, 
1642.00, 
1643.00, 
1644.00, 
1645.00, 
1646.00, 
1647.00, 
1648.00, 
1649.00, 
1650.00, 
1651.00, 
1652.00, 
1653.00, 
1654.00, 
1655.00, 
1656.00, 
1657.00, 
1658.00, 
1659.00, 
1660.00, 
1661.00, 
1662.00, 
1663.00, 
1664.00, 
1665.00, 
1666.00, 
1667.00, 
1668.00, 
1669.00, 
1670.00, 
1671.00, 
1672.00, 
1673.00, 
1674.00, 
1675.00, 
1676.00, 
1677.00, 
1678.00, 
1679.00, 
1680.00, 
1681.00, 
1682.00, 
1683.00, 
1684.00, 
1685.00, 
1686.00, 
1687.00, 
1688.00, 
1689.00, 
1690.00, 
1691.00, 
1692.00, 
1693.00, 
1694.00, 
1695.00, 
1696.00, 
1697.00, 
1698.00, 
1699.00, 
1700.00, 
1701.00, 
1702.00, 
1703.00, 
1704.00, 
1705.00, 
1706.00, 
1707.00, 
1708.00, 
1709.00, 
1710.00, 
1711.00, 
1712.00, 
1713.00, 
1714.00, 
1715.00, 
1716.00, 
1717.00, 
1718.00, 
1719.00, 
1720.00, 
1721.00, 
1722.00, 
1723.00, 
1724.00, 
1725.00, 
1726.00, 
1727.00, 
1728.00, 
1729.00, 
1730.00, 
1731.00, 
1732.00, 
1733.00, 
1734.00, 
1735.00, 
1736.00, 
1737.00, 
1738.00, 
1739.00, 
1740.00, 
1741.00, 
1742.00, 
1743.00, 
1744.00, 
1745.00, 
1746.00, 
1747.00, 
1748.00, 
1749.00, 
1750.00, 
1751.00, 
1752.00, 
1753.00, 
1754.00, 
1755.00, 
1756.00, 
1757.00, 
1758.00, 
1759.00, 
1760.00, 
1761.00, 
1762.00, 
1763.00, 
1764.00, 
1765.00, 
1766.00, 
1767.00, 
1768.00, 
1769.00, 
1770.00, 
1771.00, 
1772.00, 
1773.00, 
1774.00, 
1775.00, 
1776.00, 
1777.00, 
1778.00, 
1779.00, 
1780.00, 
1781.00, 
1782.00, 
1783.00, 
1784.00, 
1785.00, 
1786.00, 
1787.00, 
1788.00, 
1789.00, 
1790.00, 
1791.00, 
1792.00, 
1793.00, 
1794.00, 
1795.00, 
1796.00, 
1797.00, 
1798.00, 
1799.00, 
1800.00, 
1801.00, 
1802.00, 
1803.00, 
1804.00, 
1805.00, 
1806.00, 
1807.00, 
1808.00, 
1809.00, 
1810.00, 
1811.00, 
1812.00, 
1813.00, 
1814.00, 
1815.00, 
1816.00, 
1817.00, 
1818.00, 
1819.00, 
1820.00, 
1821.00, 
1822.00, 
1823.00, 
1824.00, 
1825.00, 
1826.00, 
1827.00, 
1828.00, 
1829.00, 
1830.00, 
1831.00, 
1832.00, 
1833.00, 
1834.00, 
1835.00, 
1836.00, 
1837.00, 
1838.00, 
1839.00, 
1840.00, 
1841.00, 
1842.00, 
1843.00, 
1844.00, 
1845.00, 
1846.00, 
1847.00, 
1848.00, 
1849.00, 
1850.00, 
1851.00, 
1852.00, 
1853.00, 
1854.00, 
1855.00, 
1856.00, 
1857.00, 
1858.00, 
1859.00, 
1860.00, 
1861.00, 
1862.00, 
1863.00, 
1864.00, 
1865.00, 
1866.00, 
1867.00, 
1868.00, 
1869.00, 
1870.00, 
1871.00, 
1872.00, 
1873.00, 
1874.00, 
1875.00, 
1876.00, 
1877.00, 
1878.00, 
1879.00, 
1880.00, 
1881.00, 
1882.00, 
1883.00, 
1884.00, 
1885.00, 
1886.00, 
1887.00, 
1888.00, 
1889.00, 
1890.00, 
1891.00, 
1892.00, 
1893.00, 
1894.00, 
1895.00, 
1896.00, 
1897.00, 
1898.00, 
1899.00, 
1900.00, 
1901.00, 
1902.00, 
1903.00, 
1904.00, 
1905.00, 
1906.00, 
1907.00, 
1908.00, 
1909.00, 
1910.00, 
1911.00, 
1912.00, 
1913.00, 
1914.00, 
1915.00, 
1916.00, 
1917.00, 
1918.00, 
1919.00, 
1920.00, 
1921.00, 
1922.00, 
1923.00, 
1924.00, 
1925.00, 
1926.00, 
1927.00, 
1928.00, 
1929.00, 
1930.00, 
1931.00, 
1932.00, 
1933.00, 
1934.00, 
1935.00, 
1936.00, 
1937.00, 
1938.00, 
1939.00, 
1940.00, 
1941.00, 
1942.00, 
1943.00, 
1944.00, 
1945.00, 
1946.00, 
1947.00, 
1948.00, 
1949.00, 
1950.00, 
1951.00, 
1952.00, 
1953.00, 
1954.00, 
1955.00, 
1956.00, 
1957.00, 
1958.00, 
1959.00, 
1960.00, 
1961.00, 
1962.00, 
1963.00, 
1964.00, 
1965.00, 
1966.00, 
1967.00, 
1968.00, 
1969.00, 
1970.00, 
1971.00, 
1972.00, 
1973.00, 
1974.00, 
1975.00, 
1976.00, 
1977.00, 
1978.00, 
1979.00, 
1980.00, 
1981.00, 
1982.00, 
1983.00, 
1984.00, 
1985.00, 
1986.00, 
1987.00, 
1988.00, 
1989.00, 
1990.00, 
1991.00, 
1992.00, 
1993.00, 
1994.00, 
1995.00, 
1996.00, 
1997.00, 
1998.00, 
1999.00, 
2000.00, 
2001.00, 
2002.00, 
2003.00, 
2004.00, 
2005.00, 
2006.00, 
2007.00, 
2008.00, 
2009.00, 
2010.00, 
2011.00, 
2012.00, 
2013.00, 
2014.00, 
2015.00, 
2016.00, 
2017.00, 
2018.00, 
2019.00, 
2020.00, 
2021.00, 
2022.00, 
2023.00, 
2024.00, 
2025.00, 
2026.00, 
2027.00, 
2028.00, 
2029.00, 
2030.00, 
2031.00, 
2032.00, 
2033.00, 
2034.00, 
2035.00, 
2036.00, 
2037.00, 
2038.00, 
2039.00, 
2040.00, 
2041.00, 
2042.00, 
2043.00, 
2044.00, 
2045.00, 
2046.00, 
2047.00, 
2048.00, 
2049.00, 
2050.00, 
2051.00, 
2052.00, 
2053.00, 
2054.00, 
2055.00, 
2056.00, 
2057.00, 
2058.00, 
2059.00, 
2060.00, 
2061.00, 
2062.00, 
2063.00, 
2064.00, 
2065.00, 
2066.00, 
2067.00, 
2068.00, 
2069.00, 
2070.00, 
2071.00, 
2072.00, 
2073.00, 
2074.00, 
2075.00, 
2076.00, 
2077.00, 
2078.00, 
2079.00, 
2080.00, 
2081.00, 
2082.00, 
2083.00, 
2084.00, 
2085.00, 
2086.00, 
2087.00, 
2088.00, 
2089.00, 
2090.00, 
2091.00, 
2092.00, 
2093.00, 
2094.00, 
2095.00, 
2096.00, 
2097.00, 
2098.00, 
2099.00, 
2100.00, 
2101.00, 
2102.00, 
2103.00, 
2104.00, 
2105.00, 
2106.00, 
2107.00, 
2108.00, 
2109.00, 
2110.00, 
2111.00, 
2112.00, 
2113.00, 
2114.00, 
2115.00, 
2116.00, 
2117.00, 
2118.00, 
2119.00, 
2120.00, 
2121.00, 
2122.00, 
2123.00, 
2124.00, 
2125.00, 
2126.00, 
2127.00, 
2128.00, 
2129.00, 
2130.00, 
2131.00, 
2132.00, 
2133.00, 
2134.00, 
2135.00, 
2136.00, 
2137.00, 
2138.00, 
2139.00, 
2140.00, 
2141.00, 
2142.00, 
2143.00, 
2144.00, 
2145.00, 
2146.00, 
2147.00, 
2148.00, 
2149.00, 
2150.00, 
2151.00, 
2152.00, 
2153.00, 
2154.00, 
2155.00, 
2156.00, 
2157.00, 
2158.00, 
2159.00, 
2160.00, 
2161.00, 
2162.00, 
2163.00, 
2164.00, 
2165.00, 
2166.00, 
2167.00, 
2168.00, 
2169.00, 
2170.00, 
2171.00, 
2172.00, 
2173.00, 
2174.00, 
2175.00, 
2176.00, 
2177.00, 
2178.00, 
2179.00, 
2180.00, 
2181.00, 
2182.00, 
2183.00, 
2184.00, 
2185.00, 
2186.00, 
2187.00, 
2188.00, 
2189.00, 
2190.00, 
2191.00, 
2192.00, 
2193.00, 
2194.00, 
2195.00, 
2196.00, 
2197.00, 
2198.00, 
2199.00, 
2200.00, 
2201.00, 
2202.00, 
2203.00, 
2204.00, 
2205.00, 
2206.00, 
2207.00, 
2208.00, 
2209.00, 
2210.00, 
2211.00, 
2212.00, 
2213.00, 
2214.00, 
2215.00, 
2216.00, 
2217.00, 
2218.00, 
2219.00, 
2220.00, 
2221.00, 
2222.00, 
2223.00, 
2224.00, 
2225.00, 
2226.00, 
2227.00, 
2228.00, 
2229.00, 
2230.00, 
2231.00, 
2232.00, 
2233.00, 
2234.00, 
2235.00, 
2236.00, 
2237.00, 
2238.00, 
2239.00, 
2240.00, 
2241.00, 
2242.00, 
2243.00, 
2244.00, 
2245.00, 
2246.00, 
2247.00, 
2248.00, 
2249.00, 
2250.00, 
2251.00, 
2252.00, 
2253.00, 
2254.00, 
2255.00, 
2256.00, 
2257.00, 
2258.00, 
2259.00, 
2260.00, 
2261.00, 
2262.00, 
2263.00, 
2264.00, 
2265.00, 
2266.00, 
2267.00, 
2268.00, 
2269.00, 
2270.00, 
2271.00, 
2272.00, 
2273.00, 
2274.00, 
2275.00, 
2276.00, 
2277.00, 
2278.00, 
2279.00, 
2280.00, 
2281.00, 
2282.00, 
2283.00, 
2284.00, 
2285.00, 
2286.00, 
2287.00, 
2288.00, 
2289.00, 
2290.00, 
2291.00, 
2292.00, 
2293.00, 
2294.00, 
2295.00, 
2296.00, 
2297.00, 
2298.00, 
2299.00, 
2300.00, 
2301.00, 
2302.00, 
2303.00, 
2304.00, 
2305.00, 
2306.00, 
2307.00, 
2308.00, 
2309.00, 
2310.00, 
2311.00, 
2312.00, 
2313.00, 
2314.00, 
2315.00, 
2316.00, 
2317.00, 
2318.00, 
2319.00, 
2320.00, 
2321.00, 
2322.00, 
2323.00, 
2324.00, 
2325.00, 
2326.00, 
2327.00, 
2328.00, 
2329.00, 
2330.00, 
2331.00, 
2332.00, 
2333.00, 
2334.00, 
2335.00, 
2336.00, 
2337.00, 
2338.00, 
2339.00, 
2340.00, 
2341.00, 
2342.00, 
2343.00, 
2344.00, 
2345.00, 
2346.00, 
2347.00, 
2348.00, 
2349.00, 
2350.00, 
2351.00, 
2352.00, 
2353.00, 
2354.00, 
2355.00, 
2356.00, 
2357.00, 
2358.00, 
2359.00, 
2360.00, 
2361.00, 
2362.00, 
2363.00, 
2364.00, 
2365.00, 
2366.00, 
2367.00, 
2368.00, 
2369.00, 
2370.00, 
2371.00, 
2372.00, 
2373.00, 
2374.00, 
2375.00, 
2376.00, 
2377.00, 
2378.00, 
2379.00, 
2380.00, 
2381.00, 
2382.00, 
2383.00, 
2384.00, 
2385.00, 
2386.00, 
2387.00, 
2388.00, 
2389.00, 
2390.00, 
2391.00, 
2392.00, 
2393.00, 
2394.00, 
2395.00, 
2396.00, 
2397.00, 
2398.00, 
2399.00, 
2400.00, 
2401.00, 
2402.00, 
2403.00, 
2404.00, 
2405.00, 
2406.00, 
2407.00, 
2408.00, 
2409.00, 
2410.00, 
2411.00, 
2412.00, 
2413.00, 
2414.00, 
2415.00, 
2416.00, 
2417.00, 
2418.00, 
2419.00, 
2420.00, 
2421.00, 
2422.00, 
2423.00, 
2424.00, 
2425.00, 
2426.00, 
2427.00, 
2428.00, 
2429.00, 
2430.00, 
2431.00, 
2432.00, 
2433.00, 
2434.00, 
2435.00, 
2436.00, 
2437.00, 
2438.00, 
2439.00, 
2440.00, 
2441.00, 
2442.00, 
2443.00, 
2444.00, 
2445.00, 
2446.00, 
2447.00, 
2448.00, 
2449.00, 
2450.00, 
2451.00, 
2452.00, 
2453.00, 
2454.00, 
2455.00, 
2456.00, 
2457.00, 
2458.00, 
2459.00, 
2460.00, 
2461.00, 
2462.00, 
2463.00, 
2464.00, 
2465.00, 
2466.00, 
2467.00, 
2468.00, 
2469.00, 
2470.00, 
2471.00, 
2472.00, 
2473.00, 
2474.00, 
2475.00, 
2476.00, 
2477.00, 
2478.00, 
2479.00, 
2480.00, 
2481.00, 
2482.00, 
2483.00, 
2484.00, 
2485.00, 
2486.00, 
2487.00, 
2488.00, 
2489.00, 
2490.00, 
2491.00, 
2492.00, 
2493.00, 
2494.00, 
2495.00, 
2496.00, 
2497.00, 
2498.00, 
2499.00, 
2500.00, 
2501.00, 
2502.00, 
2503.00, 
2504.00, 
2505.00, 
2506.00, 
2507.00, 
2508.00, 
2509.00, 
2510.00, 
2511.00, 
2512.00, 
2513.00, 
2514.00, 
2515.00, 
2516.00, 
2517.00, 
2518.00, 
2519.00, 
2520.00, 
2521.00, 
2522.00, 
2523.00, 
2524.00, 
2525.00, 
2526.00, 
2527.00, 
2528.00, 
2529.00, 
2530.00, 
2531.00, 
2532.00, 
2533.00, 
2534.00, 
2535.00, 
2536.00, 
2537.00, 
2538.00, 
2539.00, 
2540.00, 
2541.00, 
2542.00, 
2543.00, 
2544.00, 
2545.00, 
2546.00, 
2547.00, 
2548.00, 
2549.00, 
2550.00, 
2551.00, 
2552.00, 
2553.00, 
2554.00, 
2555.00, 
2556.00, 
2557.00, 
2558.00, 
2559.00, 
2560.00, 
2561.00, 
2562.00, 
2563.00, 
2564.00, 
2565.00, 
2566.00, 
2567.00, 
2568.00, 
2569.00, 
2570.00, 
2571.00, 
2572.00, 
2573.00, 
2574.00, 
2575.00, 
2576.00, 
2577.00, 
2578.00, 
2579.00, 
2580.00, 
2581.00, 
2582.00, 
2583.00, 
2584.00, 
2585.00, 
2586.00, 
2587.00, 
2588.00, 
2589.00, 
2590.00, 
2591.00, 
2592.00, 
2593.00, 
2594.00, 
2595.00, 
2596.00, 
2597.00, 
2598.00, 
2599.00, 
2600.00, 
