"1cP2 - RawData"
"Wavelength nm.","T%"
200.00,0.003
201.00,0.001
202.00,0.002
203.00,0.001
204.00,0.003
205.00,0.003
206.00,0.001
207.00,0.003
208.00,0.004
209.00,0.001
210.00,0.003
211.00,-0.000
212.00,-0.001
213.00,-0.000
214.00,-0.001
215.00,0.002
216.00,0.003
217.00,0.003
218.00,0.003
219.00,-0.000
220.00,0.001
221.00,0.001
222.00,-0.000
223.00,0.002
224.00,0.002
225.00,0.002
226.00,0.002
227.00,0.000
228.00,0.001
229.00,0.002
230.00,0.001
231.00,0.003
232.00,0.001
233.00,0.002
234.00,0.001
235.00,0.002
236.00,0.000
237.00,0.001
238.00,-0.003
239.00,0.000
240.00,0.001
241.00,0.002
242.00,-0.000
243.00,0.001
244.00,0.002
245.00,-0.000
246.00,-0.001
247.00,0.001
248.00,0.001
249.00,0.001
250.00,0.001
251.00,0.000
252.00,0.000
253.00,0.000
254.00,0.001
255.00,-0.001
256.00,0.000
257.00,0.001
258.00,0.001
259.00,-0.002
260.00,-0.000
261.00,0.000
262.00,-0.002
263.00,-0.002
264.00,0.002
265.00,0.004
266.00,-0.001
267.00,-0.001
268.00,-0.001
269.00,0.000
270.00,-0.000
271.00,0.001
272.00,0.001
273.00,-0.001
274.00,0.001
275.00,-0.000
276.00,-0.000
277.00,0.001
278.00,0.000
279.00,0.001
280.00,0.000
281.00,-0.001
282.00,0.000
283.00,-0.000
284.00,0.001
285.00,-0.000
286.00,-0.000
287.00,0.001
288.00,-0.001
289.00,-0.002
290.00,0.000
291.00,0.000
292.00,0.001
293.00,0.001
294.00,0.001
295.00,-0.001
296.00,-0.000
297.00,-0.000
298.00,0.001
299.00,-0.000
300.00,-0.001
301.00,-0.000
302.00,0.003
303.00,0.001
304.00,0.002
305.00,0.003
306.00,0.004
307.00,0.006
308.00,0.012
309.00,0.021
310.00,0.028
311.00,0.045
312.00,0.074
313.00,0.109
314.00,0.171
315.00,0.247
316.00,0.359
317.00,0.503
318.00,0.688
319.00,0.922
320.00,1.232
321.00,1.601
322.00,2.066
323.00,2.619
324.00,3.235
325.00,3.883
326.00,4.629
327.00,5.485
328.00,6.416
329.00,7.390
330.00,8.512
331.00,9.668
332.00,10.832
333.00,12.181
334.00,13.412
335.00,14.770
336.00,15.910
337.00,17.484
338.00,18.866
339.00,20.161
340.00,21.528
341.00,22.899
342.00,24.115
343.00,25.448
344.00,26.718
345.00,27.875
346.00,29.000
347.00,29.999
348.00,31.048
349.00,32.097
350.00,32.998
351.00,33.810
352.00,34.634
353.00,35.416
354.00,36.151
355.00,36.894
356.00,37.515
357.00,38.068
358.00,38.715
359.00,39.351
360.00,39.940
361.00,40.381
362.00,40.835
363.00,41.297
364.00,41.575
365.00,41.920
366.00,42.197
367.00,42.482
368.00,42.855
369.00,42.869
370.00,43.115
371.00,43.213
372.00,43.318
373.00,43.491
374.00,43.488
375.00,43.377
376.00,43.375
377.00,43.288
378.00,43.248
379.00,43.137
380.00,43.181
381.00,43.263
382.00,43.355
383.00,43.519
384.00,43.697
385.00,43.936
386.00,44.087
387.00,44.354
388.00,44.641
389.00,44.741
390.00,44.941
391.00,45.093
392.00,45.238
393.00,45.363
394.00,45.561
395.00,45.733
396.00,45.681
397.00,45.791
398.00,45.904
399.00,45.998
400.00,45.970
401.00,46.072
402.00,46.143
403.00,46.118
404.00,46.234
405.00,46.415
406.00,46.171
407.00,46.147
408.00,46.191
409.00,46.091
410.00,45.965
411.00,45.940
412.00,45.933
413.00,45.904
414.00,45.902
415.00,45.832
416.00,45.964
417.00,45.838
418.00,45.870
419.00,45.986
420.00,46.043
421.00,46.079
422.00,46.049
423.00,46.172
424.00,46.139
425.00,46.143
426.00,46.155
427.00,46.238
428.00,46.234
429.00,46.263
430.00,46.233
431.00,46.271
432.00,46.278
433.00,46.297
434.00,46.310
435.00,46.362
436.00,46.365
437.00,46.366
438.00,46.409
439.00,46.400
440.00,46.508
441.00,46.529
442.00,46.510
443.00,46.576
444.00,46.650
445.00,46.654
446.00,46.736
447.00,46.748
448.00,46.833
449.00,46.905
450.00,46.929
451.00,47.026
452.00,47.031
453.00,47.154
454.00,47.148
455.00,47.167
456.00,47.323
457.00,47.353
458.00,47.376
459.00,47.461
460.00,47.537
461.00,47.603
462.00,47.611
463.00,47.706
464.00,47.841
465.00,47.861
466.00,47.934
467.00,47.981
468.00,47.991
469.00,47.987
470.00,47.973
471.00,47.953
472.00,48.037
473.00,48.013
474.00,48.045
475.00,48.074
476.00,48.072
477.00,48.095
478.00,48.217
479.00,48.267
480.00,48.307
481.00,48.337
482.00,48.441
483.00,48.516
484.00,48.544
485.00,48.646
486.00,48.746
487.00,48.789
488.00,48.896
489.00,48.919
490.00,48.937
491.00,49.016
492.00,48.977
493.00,49.280
494.00,49.290
495.00,49.301
496.00,49.317
497.00,49.290
498.00,49.408
499.00,49.442
500.00,49.418
501.00,49.414
502.00,49.544
503.00,49.583
504.00,49.640
505.00,49.707
506.00,49.746
507.00,49.717
508.00,49.838
509.00,49.935
510.00,49.952
511.00,49.988
512.00,50.143
513.00,50.303
514.00,50.139
515.00,50.232
516.00,50.271
517.00,50.288
518.00,50.376
519.00,50.321
520.00,50.361
521.00,50.360
522.00,50.346
523.00,50.363
524.00,50.412
525.00,50.444
526.00,50.406
527.00,50.413
528.00,50.374
529.00,50.610
530.00,50.701
531.00,50.840
532.00,50.801
533.00,50.979
534.00,50.969
535.00,51.016
536.00,51.008
537.00,51.010
538.00,51.077
539.00,51.034
540.00,51.088
541.00,51.074
542.00,51.025
543.00,51.054
544.00,51.136
545.00,51.149
546.00,51.142
547.00,51.240
548.00,51.342
549.00,51.314
550.00,51.341
551.00,51.470
552.00,51.449
553.00,51.398
554.00,51.484
555.00,51.427
556.00,51.411
557.00,51.538
558.00,51.564
559.00,51.522
560.00,51.460
561.00,51.686
562.00,51.610
563.00,51.666
564.00,51.687
565.00,51.668
566.00,51.636
567.00,51.677
568.00,51.648
569.00,51.769
570.00,51.703
571.00,51.711
572.00,51.674
573.00,51.627
574.00,51.607
575.00,51.591
576.00,51.548
577.00,51.544
578.00,51.727
579.00,51.760
580.00,51.702
581.00,51.876
582.00,51.904
583.00,51.891
584.00,51.982
585.00,52.009
586.00,51.991
587.00,52.035
588.00,52.010
589.00,51.834
590.00,52.035
591.00,52.032
592.00,51.898
593.00,51.943
594.00,52.059
595.00,52.107
596.00,52.137
597.00,52.152
598.00,52.209
599.00,52.076
600.00,52.173
601.00,52.206
602.00,52.054
603.00,52.074
604.00,52.052
605.00,52.111
606.00,52.168
607.00,52.120
608.00,52.015
609.00,52.135
610.00,52.291
611.00,52.062
612.00,52.086
613.00,52.098
614.00,52.123
615.00,52.213
616.00,52.235
617.00,52.137
618.00,52.016
619.00,52.054
620.00,52.101
621.00,52.170
622.00,52.204
623.00,52.225
624.00,52.228
625.00,52.240
626.00,52.204
627.00,52.163
628.00,52.098
629.00,52.135
630.00,52.083
631.00,52.064
632.00,52.039
633.00,52.203
634.00,52.271
635.00,52.261
636.00,52.282
637.00,52.179
638.00,52.124
639.00,52.265
640.00,52.210
641.00,52.230
642.00,52.202
643.00,52.158
644.00,52.173
645.00,52.203
646.00,52.287
647.00,52.258
648.00,52.214
649.00,52.113
650.00,52.068
651.00,52.196
652.00,52.169
653.00,52.128
654.00,52.071
655.00,52.266
656.00,52.446
657.00,52.197
658.00,52.087
659.00,52.226
660.00,52.159
661.00,51.953
662.00,52.089
663.00,52.149
664.00,52.319
665.00,52.377
666.00,52.209
667.00,52.236
668.00,52.164
669.00,52.298
670.00,52.460
671.00,52.158
672.00,52.341
673.00,52.306
674.00,52.204
675.00,52.212
676.00,52.362
677.00,52.268
678.00,52.045
679.00,52.383
680.00,52.320
681.00,52.499
682.00,52.268
683.00,52.137
684.00,52.145
685.00,52.174
686.00,52.099
687.00,52.175
688.00,52.068
689.00,51.913
690.00,52.177
691.00,52.364
692.00,52.008
693.00,51.972
694.00,52.114
695.00,52.195
696.00,52.168
697.00,51.970
698.00,51.975
699.00,52.154
700.00,52.152
701.00,51.997
702.00,52.001
703.00,52.224
704.00,52.030
705.00,51.824
706.00,51.934
707.00,51.946
708.00,51.745
709.00,52.008
710.00,52.410
711.00,51.788
712.00,51.796
713.00,51.943
714.00,51.865
715.00,51.859
716.00,51.709
717.00,51.785
718.00,51.949
719.00,51.754
720.00,51.760
721.00,56.579
722.00,56.473
723.00,56.376
724.00,56.387
725.00,56.342
726.00,56.227
727.00,56.175
728.00,56.156
729.00,56.104
730.00,55.962
731.00,56.024
732.00,55.927
733.00,55.882
734.00,55.837
735.00,55.848
736.00,55.712
737.00,55.653
738.00,55.705
739.00,55.627
740.00,55.606
741.00,55.537
742.00,55.543
743.00,55.475
744.00,55.345
745.00,55.308
746.00,55.254
747.00,55.162
748.00,55.088
749.00,55.075
750.00,54.954
751.00,54.894
752.00,54.900
753.00,54.846
754.00,54.839
755.00,54.757
756.00,54.726
757.00,54.704
758.00,54.556
759.00,54.556
760.00,54.522
761.00,54.467
762.00,54.395
763.00,54.481
764.00,54.407
765.00,54.269
766.00,54.212
767.00,54.197
768.00,54.172
769.00,54.162
770.00,54.166
771.00,54.075
772.00,54.092
773.00,53.968
774.00,53.968
775.00,54.035
776.00,53.930
777.00,53.882
778.00,53.874
779.00,53.854
780.00,53.743
781.00,53.747
782.00,53.718
783.00,53.710
784.00,53.618
785.00,53.470
786.00,53.633
787.00,53.496
788.00,53.429
789.00,53.404
790.00,53.295
791.00,53.376
792.00,53.264
793.00,53.272
794.00,53.157
795.00,53.209
796.00,53.119
797.00,53.068
798.00,53.072
799.00,53.032
800.00,53.014
801.00,53.006
802.00,52.896
803.00,52.857
804.00,52.834
805.00,52.720
806.00,52.710
807.00,52.695
808.00,52.699
809.00,52.633
810.00,52.509
811.00,52.524
812.00,52.561
813.00,52.496
814.00,52.479
815.00,52.439
816.00,52.350
817.00,52.382
818.00,52.333
819.00,52.239
820.00,52.261
821.00,52.176
822.00,52.183
823.00,52.074
824.00,52.081
825.00,52.128
826.00,52.056
827.00,52.012
828.00,51.996
829.00,51.900
830.00,51.902
831.00,54.282
832.00,54.276
833.00,54.162
834.00,54.203
835.00,54.161
836.00,54.134
837.00,54.105
838.00,54.080
839.00,54.035
840.00,53.985
841.00,53.952
842.00,53.909
843.00,53.923
844.00,53.893
845.00,53.818
846.00,53.790
847.00,53.775
848.00,53.724
849.00,53.683
850.00,53.634
851.00,53.582
852.00,53.548
853.00,53.496
854.00,53.447
855.00,53.401
856.00,53.381
857.00,53.352
858.00,53.307
859.00,53.277
860.00,53.279
861.00,53.283
862.00,53.215
863.00,53.215
864.00,53.077
865.00,53.166
866.00,53.128
867.00,53.139
868.00,53.070
869.00,53.067
870.00,53.039
871.00,53.038
872.00,53.017
873.00,52.993
874.00,53.007
875.00,52.942
876.00,52.944
877.00,52.934
878.00,52.919
879.00,52.821
880.00,52.876
881.00,52.848
882.00,52.803
883.00,52.771
884.00,52.752
885.00,52.699
886.00,52.697
887.00,52.670
888.00,52.671
889.00,52.400
890.00,52.691
891.00,52.553
892.00,52.558
893.00,52.544
894.00,52.529
895.00,52.492
896.00,52.462
897.00,52.423
898.00,52.395
899.00,52.386
900.00,52.381
901.00,52.348
902.00,52.361
903.00,52.307
904.00,52.299
905.00,52.288
906.00,52.288
907.00,52.245
908.00,52.130
909.00,52.258
910.00,52.157
911.00,52.130
912.00,52.126
913.00,52.052
914.00,52.065
915.00,52.015
916.00,52.007
917.00,51.980
918.00,51.958
919.00,51.862
920.00,51.967
921.00,51.910
922.00,51.868
923.00,51.833
924.00,51.820
925.00,51.804
926.00,51.768
927.00,51.757
928.00,51.745
929.00,51.748
930.00,51.691
931.00,51.686
932.00,51.645
933.00,51.666
934.00,51.612
935.00,51.611
936.00,51.592
937.00,51.545
938.00,51.548
939.00,51.533
940.00,51.493
941.00,51.477
942.00,51.490
943.00,51.443
944.00,51.383
945.00,51.407
946.00,51.371
947.00,51.360
948.00,51.329
949.00,51.305
950.00,51.279
951.00,51.261
952.00,51.246
953.00,51.194
954.00,51.177
955.00,51.136
956.00,51.131
957.00,51.086
958.00,51.096
959.00,51.043
960.00,51.031
961.00,51.018
962.00,51.024
963.00,50.974
964.00,50.968
965.00,50.964
966.00,50.951
967.00,50.946
968.00,50.925
969.00,50.944
970.00,50.901
971.00,50.912
972.00,50.877
973.00,50.902
974.00,50.912
975.00,50.901
976.00,50.911
977.00,50.807
978.00,50.930
979.00,50.890
980.00,50.928
981.00,50.993
982.00,50.896
983.00,50.886
984.00,50.860
985.00,50.884
986.00,50.851
987.00,50.860
988.00,50.821
989.00,50.819
990.00,50.810
991.00,50.779
992.00,50.782
993.00,50.778
994.00,50.756
995.00,50.713
996.00,50.739
997.00,50.713
998.00,50.693
999.00,50.708
1000.00,50.659
1001.00,50.671
1002.00,50.651
1003.00,50.653
1004.00,50.627
1005.00,50.608
1006.00,50.637
1007.00,50.587
1008.00,50.573
1009.00,50.552
1010.00,50.542
1011.00,50.521
1012.00,50.489
1013.00,50.486
1014.00,50.446
1015.00,50.471
1016.00,50.431
1017.00,50.430
1018.00,50.422
1019.00,50.404
1020.00,50.396
1021.00,50.364
1022.00,50.359
1023.00,50.315
1024.00,50.330
1025.00,50.310
1026.00,50.320
1027.00,50.297
1028.00,50.290
1029.00,50.273
1030.00,50.226
1031.00,50.225
1032.00,50.185
1033.00,50.197
1034.00,50.171
1035.00,50.130
1036.00,50.112
1037.00,50.104
1038.00,50.101
1039.00,50.062
1040.00,50.069
1041.00,50.025
1042.00,50.024
1043.00,50.005
1044.00,50.020
1045.00,50.000
1046.00,49.981
1047.00,50.008
1048.00,50.028
1049.00,50.027
1050.00,50.032
1051.00,50.074
1052.00,50.067
1053.00,50.070
1054.00,50.063
1055.00,50.086
1056.00,50.061
1057.00,50.101
1058.00,50.079
1059.00,50.081
1060.00,50.092
1061.00,50.071
1062.00,50.070
1063.00,50.068
1064.00,50.053
1065.00,50.040
1066.00,50.034
1067.00,50.033
1068.00,50.048
1069.00,50.026
1070.00,50.014
1071.00,50.010
1072.00,50.023
1073.00,50.001
1074.00,49.986
1075.00,49.964
1076.00,49.968
1077.00,49.944
1078.00,49.925
1079.00,49.923
1080.00,49.932
1081.00,49.920
1082.00,49.912
1083.00,49.896
1084.00,49.899
1085.00,49.889
1086.00,49.900
1087.00,49.898
1088.00,49.877
1089.00,49.868
1090.00,49.876
1091.00,49.872
1092.00,49.859
1093.00,49.833
1094.00,49.817
1095.00,49.798
1096.00,49.777
1097.00,49.788
1098.00,49.770
1099.00,49.768
1100.00,49.765
1101.00,49.760
1102.00,49.757
1103.00,49.756
1104.00,49.753
1105.00,49.732
1106.00,49.718
1107.00,49.702
1108.00,49.690
1109.00,49.680
1110.00,49.668
1111.00,49.659
1112.00,49.645
1113.00,49.636
1114.00,49.646
1115.00,49.650
1116.00,49.639
1117.00,49.631
1118.00,49.645
1119.00,49.612
1120.00,49.617
1121.00,49.609
1122.00,49.589
1123.00,49.600
1124.00,49.584
1125.00,49.591
1126.00,49.577
1127.00,49.567
1128.00,49.558
1129.00,49.521
1130.00,49.523
1131.00,49.518
1132.00,49.553
1133.00,49.537
1134.00,49.520
1135.00,49.488
1136.00,49.499
1137.00,49.511
1138.00,49.495
1139.00,49.509
1140.00,49.496
1141.00,49.488
1142.00,49.490
1143.00,49.504
1144.00,49.502
1145.00,49.493
1146.00,49.515
1147.00,49.491
1148.00,49.485
1149.00,49.498
1150.00,49.505
1151.00,49.502
1152.00,49.479
1153.00,49.480
1154.00,49.468
1155.00,49.475
1156.00,49.465
1157.00,49.467
1158.00,49.470
1159.00,49.457
1160.00,49.449
1161.00,49.461
1162.00,49.455
1163.00,49.453
1164.00,49.456
1165.00,49.459
1166.00,49.459
1167.00,49.446
1168.00,49.465
1169.00,49.454
1170.00,49.449
1171.00,49.425
1172.00,49.438
1173.00,49.431
1174.00,49.439
1175.00,49.434
1176.00,49.446
1177.00,49.424
1178.00,49.437
1179.00,49.471
1180.00,49.446
1181.00,49.463
1182.00,49.446
1183.00,49.434
1184.00,49.430
1185.00,49.441
1186.00,49.439
1187.00,49.445
1188.00,49.438
1189.00,49.449
1190.00,49.426
1191.00,49.428
1192.00,49.445
1193.00,49.430
1194.00,49.450
1195.00,49.421
1196.00,49.453
1197.00,49.445
1198.00,49.443
1199.00,49.435
1200.00,49.446
1201.00,49.449
1202.00,49.426
1203.00,49.432
1204.00,49.413
1205.00,49.445
1206.00,49.429
1207.00,49.427
1208.00,49.412
1209.00,49.433
1210.00,49.439
1211.00,49.433
1212.00,49.447
1213.00,49.416
1214.00,49.444
1215.00,49.424
1216.00,49.435
1217.00,49.428
1218.00,49.413
1219.00,49.445
1220.00,49.431
1221.00,49.442
1222.00,49.419
1223.00,49.449
1224.00,49.459
1225.00,49.448
1226.00,49.449
1227.00,49.446
1228.00,49.448
1229.00,49.456
1230.00,49.493
1231.00,49.482
1232.00,49.499
1233.00,49.506
1234.00,49.498
1235.00,49.509
1236.00,49.495
1237.00,49.502
1238.00,49.514
1239.00,49.524
1240.00,49.515
1241.00,49.515
1242.00,49.525
1243.00,49.548
1244.00,49.521
1245.00,49.551
1246.00,49.577
1247.00,49.567
1248.00,49.558
1249.00,49.562
1250.00,49.567
1251.00,49.547
1252.00,49.556
1253.00,49.559
1254.00,49.600
1255.00,49.575
1256.00,49.558
1257.00,49.552
1258.00,49.588
1259.00,49.590
1260.00,49.621
1261.00,49.609
1262.00,49.619
1263.00,49.614
1264.00,49.623
1265.00,49.631
1266.00,49.637
1267.00,49.635
1268.00,49.649
1269.00,49.649
1270.00,49.678
1271.00,49.686
1272.00,49.683
1273.00,49.700
1274.00,49.694
1275.00,49.710
1276.00,49.710
1277.00,49.700
1278.00,49.713
1279.00,49.717
1280.00,49.719
1281.00,49.723
1282.00,49.737
1283.00,49.738
1284.00,49.724
1285.00,49.735
1286.00,49.756
1287.00,49.747
1288.00,49.761
1289.00,49.772
1290.00,49.805
1291.00,49.799
1292.00,49.787
1293.00,49.786
1294.00,49.810
1295.00,49.838
1296.00,49.816
1297.00,49.822
1298.00,49.838
1299.00,49.832
1300.00,49.855
1301.00,49.848
1302.00,49.870
1303.00,49.863
1304.00,49.857
1305.00,49.891
1306.00,49.892
1307.00,49.895
1308.00,49.907
1309.00,49.923
1310.00,49.920
1311.00,49.902
1312.00,49.936
1313.00,49.937
1314.00,49.957
1315.00,49.969
1316.00,49.962
1317.00,49.990
1318.00,49.987
1319.00,49.987
1320.00,49.992
1321.00,50.132
1322.00,50.136
1323.00,50.146
1324.00,50.111
1325.00,50.111
1326.00,50.139
1327.00,50.148
1328.00,50.139
1329.00,50.156
1330.00,50.173
1331.00,50.161
1332.00,50.159
1333.00,50.167
1334.00,50.205
1335.00,50.209
1336.00,50.236
1337.00,50.280
1338.00,50.327
1339.00,50.367
1340.00,50.430
1341.00,50.493
1342.00,50.566
1343.00,50.606
1344.00,50.650
1345.00,50.722
1346.00,50.762
1347.00,50.772
1348.00,50.785
1349.00,50.808
1350.00,50.828
1351.00,50.857
1352.00,50.881
1353.00,50.982
1354.00,50.848
1355.00,50.813
1356.00,50.926
1357.00,50.861
1358.00,50.946
1359.00,51.085
1360.00,51.398
1361.00,50.900
1362.00,50.884
1363.00,50.946
1364.00,50.993
1365.00,50.951
1366.00,50.923
1367.00,50.925
1368.00,50.971
1369.00,50.995
1370.00,50.970
1371.00,50.934
1372.00,50.926
1373.00,50.993
1374.00,50.980
1375.00,50.970
1376.00,51.002
1377.00,50.967
1378.00,51.025
1379.00,50.961
1380.00,50.976
1381.00,50.950
1382.00,50.987
1383.00,50.978
1384.00,50.912
1385.00,50.886
1386.00,50.956
1387.00,50.883
1388.00,50.884
1389.00,50.910
1390.00,51.134
1391.00,50.831
1392.00,50.940
1393.00,50.949
1394.00,50.981
1395.00,50.842
1396.00,50.882
1397.00,50.880
1398.00,51.000
1399.00,50.933
1400.00,50.876
1401.00,50.884
1402.00,50.989
1403.00,50.999
1404.00,50.932
1405.00,51.015
1406.00,51.008
1407.00,50.990
1408.00,50.971
1409.00,50.971
1410.00,51.029
1411.00,51.049
1412.00,51.053
1413.00,50.970
1414.00,51.015
1415.00,51.051
1416.00,51.073
1417.00,51.097
1418.00,51.068
1419.00,51.075
1420.00,51.105
1421.00,51.164
1422.00,51.136
1423.00,51.141
1424.00,51.165
1425.00,51.197
1426.00,51.206
1427.00,51.237
1428.00,51.236
1429.00,51.247
1430.00,51.287
1431.00,51.312
1432.00,51.291
1433.00,51.305
1434.00,51.330
1435.00,51.359
1436.00,51.393
1437.00,51.366
1438.00,51.384
1439.00,51.415
1440.00,51.428
1441.00,51.441
1442.00,51.452
1443.00,51.487
1444.00,51.527
1445.00,51.515
1446.00,51.548
1447.00,51.593
1448.00,51.587
1449.00,51.600
1450.00,51.574
1451.00,51.626
1452.00,51.687
1453.00,51.679
1454.00,51.693
1455.00,51.729
1456.00,51.732
1457.00,51.728
1458.00,51.761
1459.00,51.778
1460.00,51.795
1461.00,51.796
1462.00,51.815
1463.00,51.820
1464.00,51.826
1465.00,51.854
1466.00,51.874
1467.00,51.893
1468.00,51.952
1469.00,51.936
1470.00,51.941
1471.00,51.966
1472.00,51.970
1473.00,51.987
1474.00,52.018
1475.00,52.010
1476.00,52.033
1477.00,52.043
1478.00,52.058
1479.00,52.080
1480.00,52.093
1481.00,52.103
1482.00,52.134
1483.00,52.166
1484.00,52.176
1485.00,52.198
1486.00,52.179
1487.00,52.218
1488.00,52.235
1489.00,52.230
1490.00,52.244
1491.00,52.264
1492.00,52.280
1493.00,52.263
1494.00,52.302
1495.00,52.285
1496.00,52.330
1497.00,52.309
1498.00,52.323
1499.00,52.359
1500.00,52.358
1501.00, 
1502.00, 
1503.00, 
1504.00, 
1505.00, 
1506.00, 
1507.00, 
1508.00, 
1509.00, 
1510.00, 
1511.00, 
1512.00, 
1513.00, 
1514.00, 
1515.00, 
1516.00, 
1517.00, 
1518.00, 
1519.00, 
1520.00, 
1521.00, 
1522.00, 
1523.00, 
1524.00, 
1525.00, 
1526.00, 
1527.00, 
1528.00, 
1529.00, 
1530.00, 
1531.00, 
1532.00, 
1533.00, 
1534.00, 
1535.00, 
1536.00, 
1537.00, 
1538.00, 
1539.00, 
1540.00, 
1541.00, 
1542.00, 
1543.00, 
1544.00, 
1545.00, 
1546.00, 
1547.00, 
1548.00, 
1549.00, 
1550.00, 
1551.00, 
1552.00, 
1553.00, 
1554.00, 
1555.00, 
1556.00, 
1557.00, 
1558.00, 
1559.00, 
1560.00, 
1561.00, 
1562.00, 
1563.00, 
1564.00, 
1565.00, 
1566.00, 
1567.00, 
1568.00, 
1569.00, 
1570.00, 
1571.00, 
1572.00, 
1573.00, 
1574.00, 
1575.00, 
1576.00, 
1577.00, 
1578.00, 
1579.00, 
1580.00, 
1581.00, 
1582.00, 
1583.00, 
1584.00, 
1585.00, 
1586.00, 
1587.00, 
1588.00, 
1589.00, 
1590.00, 
1591.00, 
1592.00, 
1593.00, 
1594.00, 
1595.00, 
1596.00, 
1597.00, 
1598.00, 
1599.00, 
1600.00, 
1601.00, 
1602.00, 
1603.00, 
1604.00, 
1605.00, 
1606.00, 
1607.00, 
1608.00, 
1609.00, 
1610.00, 
1611.00, 
1612.00, 
1613.00, 
1614.00, 
1615.00, 
1616.00, 
1617.00, 
1618.00, 
1619.00, 
1620.00, 
1621.00, 
1622.00, 
1623.00, 
1624.00, 
1625.00, 
1626.00, 
1627.00, 
1628.00, 
1629.00, 
1630.00, 
1631.00, 
1632.00, 
1633.00, 
1634.00, 
1635.00, 
1636.00, 
1637.00, 
1638.00, 
1639.00, 
1640.00, 
1641.00, 
1642.00, 
1643.00, 
1644.00, 
1645.00, 
1646.00, 
1647.00, 
1648.00, 
1649.00, 
1650.00, 
1651.00, 
1652.00, 
1653.00, 
1654.00, 
1655.00, 
1656.00, 
1657.00, 
1658.00, 
1659.00, 
1660.00, 
1661.00, 
1662.00, 
1663.00, 
1664.00, 
1665.00, 
1666.00, 
1667.00, 
1668.00, 
1669.00, 
1670.00, 
1671.00, 
1672.00, 
1673.00, 
1674.00, 
1675.00, 
1676.00, 
1677.00, 
1678.00, 
1679.00, 
1680.00, 
1681.00, 
1682.00, 
1683.00, 
1684.00, 
1685.00, 
1686.00, 
1687.00, 
1688.00, 
1689.00, 
1690.00, 
1691.00, 
1692.00, 
1693.00, 
1694.00, 
1695.00, 
1696.00, 
1697.00, 
1698.00, 
1699.00, 
1700.00, 
1701.00, 
1702.00, 
1703.00, 
1704.00, 
1705.00, 
1706.00, 
1707.00, 
1708.00, 
1709.00, 
1710.00, 
1711.00, 
1712.00, 
1713.00, 
1714.00, 
1715.00, 
1716.00, 
1717.00, 
1718.00, 
1719.00, 
1720.00, 
1721.00, 
1722.00, 
1723.00, 
1724.00, 
1725.00, 
1726.00, 
1727.00, 
1728.00, 
1729.00, 
1730.00, 
1731.00, 
1732.00, 
1733.00, 
1734.00, 
1735.00, 
1736.00, 
1737.00, 
1738.00, 
1739.00, 
1740.00, 
1741.00, 
1742.00, 
1743.00, 
1744.00, 
1745.00, 
1746.00, 
1747.00, 
1748.00, 
1749.00, 
1750.00, 
1751.00, 
1752.00, 
1753.00, 
1754.00, 
1755.00, 
1756.00, 
1757.00, 
1758.00, 
1759.00, 
1760.00, 
1761.00, 
1762.00, 
1763.00, 
1764.00, 
1765.00, 
1766.00, 
1767.00, 
1768.00, 
1769.00, 
1770.00, 
1771.00, 
1772.00, 
1773.00, 
1774.00, 
1775.00, 
1776.00, 
1777.00, 
1778.00, 
1779.00, 
1780.00, 
1781.00, 
1782.00, 
1783.00, 
1784.00, 
1785.00, 
1786.00, 
1787.00, 
1788.00, 
1789.00, 
1790.00, 
1791.00, 
1792.00, 
1793.00, 
1794.00, 
1795.00, 
1796.00, 
1797.00, 
1798.00, 
1799.00, 
1800.00, 
1801.00, 
1802.00, 
1803.00, 
1804.00, 
1805.00, 
1806.00, 
1807.00, 
1808.00, 
1809.00, 
1810.00, 
1811.00, 
1812.00, 
1813.00, 
1814.00, 
1815.00, 
1816.00, 
1817.00, 
1818.00, 
1819.00, 
1820.00, 
1821.00, 
1822.00, 
1823.00, 
1824.00, 
1825.00, 
1826.00, 
1827.00, 
1828.00, 
1829.00, 
1830.00, 
1831.00, 
1832.00, 
1833.00, 
1834.00, 
1835.00, 
1836.00, 
1837.00, 
1838.00, 
1839.00, 
1840.00, 
1841.00, 
1842.00, 
1843.00, 
1844.00, 
1845.00, 
1846.00, 
1847.00, 
1848.00, 
1849.00, 
1850.00, 
1851.00, 
1852.00, 
1853.00, 
1854.00, 
1855.00, 
1856.00, 
1857.00, 
1858.00, 
1859.00, 
1860.00, 
1861.00, 
1862.00, 
1863.00, 
1864.00, 
1865.00, 
1866.00, 
1867.00, 
1868.00, 
1869.00, 
1870.00, 
1871.00, 
1872.00, 
1873.00, 
1874.00, 
1875.00, 
1876.00, 
1877.00, 
1878.00, 
1879.00, 
1880.00, 
1881.00, 
1882.00, 
1883.00, 
1884.00, 
1885.00, 
1886.00, 
1887.00, 
1888.00, 
1889.00, 
1890.00, 
1891.00, 
1892.00, 
1893.00, 
1894.00, 
1895.00, 
1896.00, 
1897.00, 
1898.00, 
1899.00, 
1900.00, 
1901.00, 
1902.00, 
1903.00, 
1904.00, 
1905.00, 
1906.00, 
1907.00, 
1908.00, 
1909.00, 
1910.00, 
1911.00, 
1912.00, 
1913.00, 
1914.00, 
1915.00, 
1916.00, 
1917.00, 
1918.00, 
1919.00, 
1920.00, 
1921.00, 
1922.00, 
1923.00, 
1924.00, 
1925.00, 
1926.00, 
1927.00, 
1928.00, 
1929.00, 
1930.00, 
1931.00, 
1932.00, 
1933.00, 
1934.00, 
1935.00, 
1936.00, 
1937.00, 
1938.00, 
1939.00, 
1940.00, 
1941.00, 
1942.00, 
1943.00, 
1944.00, 
1945.00, 
1946.00, 
1947.00, 
1948.00, 
1949.00, 
1950.00, 
1951.00, 
1952.00, 
1953.00, 
1954.00, 
1955.00, 
1956.00, 
1957.00, 
1958.00, 
1959.00, 
1960.00, 
1961.00, 
1962.00, 
1963.00, 
1964.00, 
1965.00, 
1966.00, 
1967.00, 
1968.00, 
1969.00, 
1970.00, 
1971.00, 
1972.00, 
1973.00, 
1974.00, 
1975.00, 
1976.00, 
1977.00, 
1978.00, 
1979.00, 
1980.00, 
1981.00, 
1982.00, 
1983.00, 
1984.00, 
1985.00, 
1986.00, 
1987.00, 
1988.00, 
1989.00, 
1990.00, 
1991.00, 
1992.00, 
1993.00, 
1994.00, 
1995.00, 
1996.00, 
1997.00, 
1998.00, 
1999.00, 
2000.00, 
2001.00, 
2002.00, 
2003.00, 
2004.00, 
2005.00, 
2006.00, 
2007.00, 
2008.00, 
2009.00, 
2010.00, 
2011.00, 
2012.00, 
2013.00, 
2014.00, 
2015.00, 
2016.00, 
2017.00, 
2018.00, 
2019.00, 
2020.00, 
2021.00, 
2022.00, 
2023.00, 
2024.00, 
2025.00, 
2026.00, 
2027.00, 
2028.00, 
2029.00, 
2030.00, 
2031.00, 
2032.00, 
2033.00, 
2034.00, 
2035.00, 
2036.00, 
2037.00, 
2038.00, 
2039.00, 
2040.00, 
2041.00, 
2042.00, 
2043.00, 
2044.00, 
2045.00, 
2046.00, 
2047.00, 
2048.00, 
2049.00, 
2050.00, 
2051.00, 
2052.00, 
2053.00, 
2054.00, 
2055.00, 
2056.00, 
2057.00, 
2058.00, 
2059.00, 
2060.00, 
2061.00, 
2062.00, 
2063.00, 
2064.00, 
2065.00, 
2066.00, 
2067.00, 
2068.00, 
2069.00, 
2070.00, 
2071.00, 
2072.00, 
2073.00, 
2074.00, 
2075.00, 
2076.00, 
2077.00, 
2078.00, 
2079.00, 
2080.00, 
2081.00, 
2082.00, 
2083.00, 
2084.00, 
2085.00, 
2086.00, 
2087.00, 
2088.00, 
2089.00, 
2090.00, 
2091.00, 
2092.00, 
2093.00, 
2094.00, 
2095.00, 
2096.00, 
2097.00, 
2098.00, 
2099.00, 
2100.00, 
2101.00, 
2102.00, 
2103.00, 
2104.00, 
2105.00, 
2106.00, 
2107.00, 
2108.00, 
2109.00, 
2110.00, 
2111.00, 
2112.00, 
2113.00, 
2114.00, 
2115.00, 
2116.00, 
2117.00, 
2118.00, 
2119.00, 
2120.00, 
2121.00, 
2122.00, 
2123.00, 
2124.00, 
2125.00, 
2126.00, 
2127.00, 
2128.00, 
2129.00, 
2130.00, 
2131.00, 
2132.00, 
2133.00, 
2134.00, 
2135.00, 
2136.00, 
2137.00, 
2138.00, 
2139.00, 
2140.00, 
2141.00, 
2142.00, 
2143.00, 
2144.00, 
2145.00, 
2146.00, 
2147.00, 
2148.00, 
2149.00, 
2150.00, 
2151.00, 
2152.00, 
2153.00, 
2154.00, 
2155.00, 
2156.00, 
2157.00, 
2158.00, 
2159.00, 
2160.00, 
2161.00, 
2162.00, 
2163.00, 
2164.00, 
2165.00, 
2166.00, 
2167.00, 
2168.00, 
2169.00, 
2170.00, 
2171.00, 
2172.00, 
2173.00, 
2174.00, 
2175.00, 
2176.00, 
2177.00, 
2178.00, 
2179.00, 
2180.00, 
2181.00, 
2182.00, 
2183.00, 
2184.00, 
2185.00, 
2186.00, 
2187.00, 
2188.00, 
2189.00, 
2190.00, 
2191.00, 
2192.00, 
2193.00, 
2194.00, 
2195.00, 
2196.00, 
2197.00, 
2198.00, 
2199.00, 
2200.00, 
2201.00, 
2202.00, 
2203.00, 
2204.00, 
2205.00, 
2206.00, 
2207.00, 
2208.00, 
2209.00, 
2210.00, 
2211.00, 
2212.00, 
2213.00, 
2214.00, 
2215.00, 
2216.00, 
2217.00, 
2218.00, 
2219.00, 
2220.00, 
2221.00, 
2222.00, 
2223.00, 
2224.00, 
2225.00, 
2226.00, 
2227.00, 
2228.00, 
2229.00, 
2230.00, 
2231.00, 
2232.00, 
2233.00, 
2234.00, 
2235.00, 
2236.00, 
2237.00, 
2238.00, 
2239.00, 
2240.00, 
2241.00, 
2242.00, 
2243.00, 
2244.00, 
2245.00, 
2246.00, 
2247.00, 
2248.00, 
2249.00, 
2250.00, 
2251.00, 
2252.00, 
2253.00, 
2254.00, 
2255.00, 
2256.00, 
2257.00, 
2258.00, 
2259.00, 
2260.00, 
2261.00, 
2262.00, 
2263.00, 
2264.00, 
2265.00, 
2266.00, 
2267.00, 
2268.00, 
2269.00, 
2270.00, 
2271.00, 
2272.00, 
2273.00, 
2274.00, 
2275.00, 
2276.00, 
2277.00, 
2278.00, 
2279.00, 
2280.00, 
2281.00, 
2282.00, 
2283.00, 
2284.00, 
2285.00, 
2286.00, 
2287.00, 
2288.00, 
2289.00, 
2290.00, 
2291.00, 
2292.00, 
2293.00, 
2294.00, 
2295.00, 
2296.00, 
2297.00, 
2298.00, 
2299.00, 
2300.00, 
2301.00, 
2302.00, 
2303.00, 
2304.00, 
2305.00, 
2306.00, 
2307.00, 
2308.00, 
2309.00, 
2310.00, 
2311.00, 
2312.00, 
2313.00, 
2314.00, 
2315.00, 
2316.00, 
2317.00, 
2318.00, 
2319.00, 
2320.00, 
2321.00, 
2322.00, 
2323.00, 
2324.00, 
2325.00, 
2326.00, 
2327.00, 
2328.00, 
2329.00, 
2330.00, 
2331.00, 
2332.00, 
2333.00, 
2334.00, 
2335.00, 
2336.00, 
2337.00, 
2338.00, 
2339.00, 
2340.00, 
2341.00, 
2342.00, 
2343.00, 
2344.00, 
2345.00, 
2346.00, 
2347.00, 
2348.00, 
2349.00, 
2350.00, 
2351.00, 
2352.00, 
2353.00, 
2354.00, 
2355.00, 
2356.00, 
2357.00, 
2358.00, 
2359.00, 
2360.00, 
2361.00, 
2362.00, 
2363.00, 
2364.00, 
2365.00, 
2366.00, 
2367.00, 
2368.00, 
2369.00, 
2370.00, 
2371.00, 
2372.00, 
2373.00, 
2374.00, 
2375.00, 
2376.00, 
2377.00, 
2378.00, 
2379.00, 
2380.00, 
2381.00, 
2382.00, 
2383.00, 
2384.00, 
2385.00, 
2386.00, 
2387.00, 
2388.00, 
2389.00, 
2390.00, 
2391.00, 
2392.00, 
2393.00, 
2394.00, 
2395.00, 
2396.00, 
2397.00, 
2398.00, 
2399.00, 
2400.00, 
2401.00, 
2402.00, 
2403.00, 
2404.00, 
2405.00, 
2406.00, 
2407.00, 
2408.00, 
2409.00, 
2410.00, 
2411.00, 
2412.00, 
2413.00, 
2414.00, 
2415.00, 
2416.00, 
2417.00, 
2418.00, 
2419.00, 
2420.00, 
2421.00, 
2422.00, 
2423.00, 
2424.00, 
2425.00, 
2426.00, 
2427.00, 
2428.00, 
2429.00, 
2430.00, 
2431.00, 
2432.00, 
2433.00, 
2434.00, 
2435.00, 
2436.00, 
2437.00, 
2438.00, 
2439.00, 
2440.00, 
2441.00, 
2442.00, 
2443.00, 
2444.00, 
2445.00, 
2446.00, 
2447.00, 
2448.00, 
2449.00, 
2450.00, 
2451.00, 
2452.00, 
2453.00, 
2454.00, 
2455.00, 
2456.00, 
2457.00, 
2458.00, 
2459.00, 
2460.00, 
2461.00, 
2462.00, 
2463.00, 
2464.00, 
2465.00, 
2466.00, 
2467.00, 
2468.00, 
2469.00, 
2470.00, 
2471.00, 
2472.00, 
2473.00, 
2474.00, 
2475.00, 
2476.00, 
2477.00, 
2478.00, 
2479.00, 
2480.00, 
2481.00, 
2482.00, 
2483.00, 
2484.00, 
2485.00, 
2486.00, 
2487.00, 
2488.00, 
2489.00, 
2490.00, 
2491.00, 
2492.00, 
2493.00, 
2494.00, 
2495.00, 
2496.00, 
2497.00, 
2498.00, 
2499.00, 
2500.00, 
2501.00, 
2502.00, 
2503.00, 
2504.00, 
2505.00, 
2506.00, 
2507.00, 
2508.00, 
2509.00, 
2510.00, 
2511.00, 
2512.00, 
2513.00, 
2514.00, 
2515.00, 
2516.00, 
2517.00, 
2518.00, 
2519.00, 
2520.00, 
2521.00, 
2522.00, 
2523.00, 
2524.00, 
2525.00, 
2526.00, 
2527.00, 
2528.00, 
2529.00, 
2530.00, 
2531.00, 
2532.00, 
2533.00, 
2534.00, 
2535.00, 
2536.00, 
2537.00, 
2538.00, 
2539.00, 
2540.00, 
2541.00, 
2542.00, 
2543.00, 
2544.00, 
2545.00, 
2546.00, 
2547.00, 
2548.00, 
2549.00, 
2550.00, 
2551.00, 
2552.00, 
2553.00, 
2554.00, 
2555.00, 
2556.00, 
2557.00, 
2558.00, 
2559.00, 
2560.00, 
2561.00, 
2562.00, 
2563.00, 
2564.00, 
2565.00, 
2566.00, 
2567.00, 
2568.00, 
2569.00, 
2570.00, 
2571.00, 
2572.00, 
2573.00, 
2574.00, 
2575.00, 
2576.00, 
2577.00, 
2578.00, 
2579.00, 
2580.00, 
2581.00, 
2582.00, 
2583.00, 
2584.00, 
2585.00, 
2586.00, 
2587.00, 
2588.00, 
2589.00, 
2590.00, 
2591.00, 
2592.00, 
2593.00, 
2594.00, 
2595.00, 
2596.00, 
2597.00, 
2598.00, 
2599.00, 
2600.00, 
