"2bP2 - RawData"
"Wavelength nm.","T%"
200.00,0.000
201.00,0.001
202.00,0.001
203.00,0.003
204.00,-0.000
205.00,0.002
206.00,0.003
207.00,0.003
208.00,-0.001
209.00,0.001
210.00,-0.000
211.00,0.001
212.00,0.000
213.00,0.001
214.00,-0.000
215.00,0.003
216.00,0.005
217.00,0.001
218.00,0.001
219.00,0.001
220.00,-0.001
221.00,-0.001
222.00,0.002
223.00,0.003
224.00,0.001
225.00,0.000
226.00,0.001
227.00,0.001
228.00,0.004
229.00,0.001
230.00,0.001
231.00,0.001
232.00,0.002
233.00,-0.000
234.00,0.001
235.00,0.001
236.00,-0.001
237.00,0.002
238.00,0.001
239.00,0.002
240.00,0.000
241.00,0.001
242.00,0.001
243.00,0.002
244.00,0.000
245.00,0.001
246.00,0.002
247.00,0.002
248.00,0.000
249.00,0.001
250.00,-0.000
251.00,-0.002
252.00,0.001
253.00,-0.000
254.00,-0.001
255.00,-0.001
256.00,0.001
257.00,0.002
258.00,-0.002
259.00,0.000
260.00,-0.001
261.00,-0.001
262.00,-0.000
263.00,0.000
264.00,0.002
265.00,-0.000
266.00,-0.001
267.00,0.001
268.00,0.002
269.00,0.002
270.00,0.001
271.00,-0.001
272.00,-0.001
273.00,0.000
274.00,0.000
275.00,0.001
276.00,0.001
277.00,-0.001
278.00,-0.001
279.00,0.000
280.00,-0.000
281.00,-0.001
282.00,0.001
283.00,0.000
284.00,-0.001
285.00,-0.000
286.00,0.001
287.00,0.000
288.00,-0.002
289.00,0.000
290.00,-0.001
291.00,-0.001
292.00,0.001
293.00,-0.001
294.00,0.001
295.00,0.001
296.00,0.002
297.00,0.001
298.00,-0.000
299.00,0.002
300.00,0.002
301.00,0.002
302.00,0.006
303.00,0.011
304.00,0.015
305.00,0.023
306.00,0.036
307.00,0.055
308.00,0.084
309.00,0.128
310.00,0.177
311.00,0.234
312.00,0.328
313.00,0.436
314.00,0.570
315.00,0.733
316.00,0.923
317.00,1.168
318.00,1.429
319.00,1.730
320.00,2.097
321.00,2.509
322.00,2.950
323.00,3.448
324.00,3.999
325.00,4.551
326.00,5.065
327.00,5.730
328.00,6.380
329.00,7.037
330.00,7.725
331.00,8.372
332.00,9.091
333.00,9.860
334.00,10.540
335.00,11.276
336.00,11.966
337.00,12.689
338.00,13.402
339.00,14.031
340.00,14.676
341.00,15.329
342.00,15.908
343.00,16.511
344.00,17.121
345.00,17.630
346.00,18.109
347.00,18.580
348.00,19.046
349.00,19.426
350.00,19.806
351.00,20.156
352.00,20.471
353.00,20.812
354.00,21.100
355.00,21.409
356.00,21.703
357.00,21.911
358.00,22.164
359.00,22.398
360.00,22.603
361.00,22.770
362.00,22.941
363.00,23.122
364.00,23.178
365.00,23.296
366.00,23.385
367.00,23.510
368.00,23.615
369.00,23.604
370.00,23.637
371.00,23.657
372.00,23.609
373.00,23.700
374.00,23.692
375.00,23.626
376.00,23.637
377.00,23.599
378.00,23.512
379.00,23.428
380.00,23.413
381.00,23.430
382.00,23.407
383.00,23.399
384.00,23.456
385.00,23.513
386.00,23.495
387.00,23.546
388.00,23.611
389.00,23.596
390.00,23.633
391.00,23.651
392.00,23.681
393.00,23.681
394.00,23.699
395.00,23.758
396.00,23.663
397.00,23.676
398.00,23.689
399.00,23.722
400.00,23.726
401.00,23.723
402.00,23.752
403.00,23.703
404.00,23.735
405.00,23.792
406.00,23.685
407.00,23.654
408.00,23.666
409.00,23.591
410.00,23.555
411.00,23.541
412.00,23.513
413.00,23.526
414.00,23.548
415.00,23.484
416.00,23.565
417.00,23.556
418.00,23.567
419.00,23.613
420.00,23.670
421.00,23.727
422.00,23.759
423.00,23.802
424.00,23.822
425.00,23.845
426.00,23.869
427.00,23.979
428.00,23.964
429.00,24.020
430.00,24.056
431.00,24.103
432.00,24.153
433.00,24.201
434.00,24.267
435.00,24.324
436.00,24.390
437.00,24.463
438.00,24.527
439.00,24.601
440.00,24.682
441.00,24.768
442.00,24.819
443.00,24.931
444.00,25.026
445.00,25.116
446.00,25.181
447.00,25.291
448.00,25.390
449.00,25.494
450.00,25.587
451.00,25.696
452.00,25.791
453.00,25.934
454.00,26.003
455.00,26.111
456.00,26.267
457.00,26.369
458.00,26.435
459.00,26.568
460.00,26.700
461.00,26.793
462.00,26.931
463.00,27.086
464.00,27.207
465.00,27.293
466.00,27.457
467.00,27.586
468.00,27.709
469.00,27.760
470.00,27.826
471.00,27.989
472.00,28.138
473.00,28.183
474.00,28.357
475.00,28.446
476.00,28.571
477.00,28.684
478.00,28.859
479.00,28.987
480.00,29.139
481.00,29.283
482.00,29.407
483.00,29.569
484.00,29.733
485.00,29.857
486.00,30.008
487.00,30.158
488.00,30.277
489.00,30.448
490.00,30.617
491.00,30.709
492.00,30.870
493.00,31.052
494.00,31.181
495.00,31.250
496.00,31.370
497.00,31.499
498.00,31.602
499.00,31.788
500.00,31.905
501.00,32.013
502.00,32.155
503.00,32.263
504.00,32.369
505.00,32.506
506.00,32.594
507.00,32.713
508.00,32.793
509.00,33.007
510.00,33.168
511.00,33.214
512.00,33.360
513.00,33.594
514.00,33.553
515.00,33.726
516.00,33.789
517.00,33.896
518.00,34.034
519.00,34.115
520.00,34.183
521.00,34.229
522.00,34.240
523.00,34.398
524.00,34.506
525.00,34.625
526.00,34.704
527.00,34.749
528.00,34.840
529.00,35.002
530.00,35.113
531.00,35.241
532.00,35.357
533.00,35.502
534.00,35.522
535.00,35.650
536.00,35.701
537.00,35.766
538.00,35.855
539.00,35.921
540.00,35.976
541.00,35.958
542.00,36.052
543.00,36.092
544.00,36.220
545.00,36.258
546.00,36.335
547.00,36.465
548.00,36.583
549.00,36.571
550.00,36.672
551.00,36.804
552.00,36.809
553.00,36.875
554.00,36.944
555.00,36.948
556.00,37.005
557.00,37.116
558.00,37.170
559.00,37.226
560.00,37.266
561.00,37.319
562.00,37.424
563.00,37.418
564.00,37.488
565.00,37.547
566.00,37.566
567.00,37.577
568.00,37.644
569.00,37.714
570.00,37.652
571.00,37.789
572.00,37.786
573.00,37.764
574.00,37.830
575.00,37.839
576.00,37.834
577.00,37.872
578.00,38.042
579.00,38.095
580.00,38.123
581.00,38.262
582.00,38.300
583.00,38.313
584.00,38.422
585.00,38.512
586.00,38.504
587.00,38.646
588.00,38.610
589.00,38.552
590.00,38.707
591.00,38.747
592.00,38.645
593.00,38.770
594.00,38.883
595.00,38.893
596.00,38.957
597.00,39.000
598.00,39.035
599.00,39.058
600.00,39.115
601.00,39.136
602.00,39.009
603.00,39.244
604.00,39.391
605.00,39.284
606.00,39.402
607.00,39.373
608.00,39.396
609.00,39.496
610.00,39.640
611.00,39.556
612.00,39.512
613.00,39.492
614.00,39.682
615.00,39.824
616.00,39.892
617.00,39.846
618.00,39.856
619.00,39.984
620.00,39.938
621.00,40.082
622.00,40.172
623.00,40.214
624.00,40.278
625.00,40.360
626.00,40.374
627.00,40.495
628.00,40.480
629.00,40.537
630.00,40.538
631.00,40.552
632.00,40.677
633.00,40.822
634.00,40.879
635.00,40.959
636.00,41.067
637.00,41.081
638.00,41.092
639.00,41.214
640.00,41.330
641.00,41.324
642.00,41.412
643.00,41.460
644.00,41.582
645.00,41.554
646.00,41.769
647.00,41.855
648.00,41.847
649.00,41.888
650.00,41.937
651.00,42.020
652.00,42.188
653.00,42.157
654.00,42.219
655.00,42.416
656.00,42.671
657.00,42.594
658.00,42.595
659.00,42.738
660.00,42.785
661.00,42.789
662.00,42.834
663.00,43.026
664.00,43.187
665.00,43.415
666.00,43.300
667.00,43.433
668.00,43.424
669.00,43.628
670.00,43.818
671.00,43.739
672.00,43.880
673.00,43.932
674.00,44.025
675.00,44.111
676.00,44.305
677.00,44.373
678.00,44.292
679.00,44.481
680.00,44.653
681.00,44.824
682.00,44.825
683.00,44.767
684.00,44.915
685.00,44.939
686.00,44.970
687.00,45.173
688.00,45.273
689.00,45.164
690.00,45.440
691.00,45.702
692.00,45.442
693.00,45.483
694.00,45.713
695.00,45.859
696.00,45.924
697.00,45.906
698.00,45.995
699.00,46.155
700.00,46.189
701.00,46.250
702.00,46.361
703.00,46.611
704.00,46.594
705.00,46.485
706.00,46.660
707.00,46.761
708.00,46.632
709.00,46.936
710.00,47.363
711.00,46.939
712.00,47.041
713.00,47.200
714.00,47.251
715.00,47.254
716.00,47.269
717.00,47.511
718.00,47.734
719.00,47.535
720.00,47.651
721.00,52.188
722.00,52.195
723.00,52.180
724.00,52.166
725.00,52.227
726.00,52.220
727.00,52.249
728.00,52.294
729.00,52.356
730.00,52.337
731.00,52.406
732.00,52.366
733.00,52.438
734.00,52.474
735.00,52.550
736.00,52.500
737.00,52.540
738.00,52.609
739.00,52.623
740.00,52.647
741.00,52.645
742.00,52.716
743.00,52.743
744.00,52.722
745.00,52.742
746.00,52.804
747.00,52.731
748.00,52.765
749.00,52.742
750.00,52.736
751.00,52.726
752.00,52.705
753.00,52.778
754.00,52.815
755.00,52.733
756.00,52.763
757.00,52.857
758.00,52.816
759.00,52.830
760.00,52.801
761.00,52.909
762.00,52.848
763.00,52.948
764.00,52.934
765.00,52.909
766.00,52.958
767.00,52.862
768.00,52.894
769.00,52.924
770.00,53.001
771.00,52.984
772.00,53.046
773.00,52.927
774.00,53.028
775.00,53.042
776.00,52.990
777.00,52.987
778.00,53.034
779.00,53.043
780.00,53.056
781.00,53.074
782.00,53.054
783.00,52.970
784.00,53.011
785.00,52.935
786.00,53.069
787.00,52.979
788.00,53.005
789.00,52.998
790.00,52.983
791.00,53.038
792.00,52.986
793.00,52.991
794.00,52.923
795.00,53.012
796.00,52.936
797.00,52.929
798.00,52.970
799.00,52.893
800.00,52.972
801.00,52.941
802.00,52.937
803.00,52.849
804.00,52.800
805.00,52.820
806.00,52.829
807.00,52.797
808.00,52.818
809.00,52.806
810.00,52.764
811.00,52.726
812.00,52.787
813.00,52.733
814.00,52.796
815.00,52.651
816.00,52.748
817.00,52.702
818.00,52.609
819.00,52.660
820.00,52.690
821.00,52.628
822.00,52.690
823.00,52.549
824.00,52.546
825.00,52.598
826.00,52.508
827.00,52.563
828.00,52.658
829.00,52.514
830.00,52.456
831.00,54.936
832.00,54.905
833.00,54.859
834.00,54.897
835.00,54.841
836.00,54.864
837.00,54.849
838.00,54.815
839.00,54.820
840.00,54.782
841.00,54.785
842.00,54.727
843.00,54.744
844.00,54.707
845.00,54.672
846.00,54.659
847.00,54.653
848.00,54.615
849.00,54.609
850.00,54.564
851.00,54.511
852.00,54.468
853.00,54.457
854.00,54.438
855.00,54.399
856.00,54.366
857.00,54.376
858.00,54.350
859.00,54.338
860.00,54.329
861.00,54.321
862.00,54.276
863.00,54.311
864.00,54.241
865.00,54.296
866.00,54.256
867.00,54.271
868.00,54.210
869.00,54.229
870.00,54.206
871.00,54.186
872.00,54.184
873.00,54.171
874.00,54.191
875.00,54.054
876.00,54.234
877.00,54.138
878.00,54.113
879.00,54.097
880.00,54.090
881.00,54.115
882.00,54.059
883.00,54.048
884.00,54.046
885.00,54.001
886.00,53.975
887.00,53.978
888.00,53.996
889.00,53.765
890.00,53.917
891.00,53.874
892.00,53.894
893.00,53.871
894.00,53.859
895.00,53.839
896.00,53.827
897.00,53.782
898.00,53.754
899.00,53.750
900.00,53.756
901.00,53.744
902.00,53.770
903.00,53.701
904.00,53.702
905.00,53.688
906.00,53.670
907.00,53.633
908.00,53.619
909.00,53.586
910.00,53.557
911.00,53.544
912.00,53.576
913.00,53.522
914.00,53.508
915.00,53.430
916.00,53.558
917.00,53.427
918.00,53.401
919.00,53.402
920.00,53.383
921.00,53.371
922.00,53.376
923.00,53.362
924.00,53.286
925.00,53.335
926.00,53.290
927.00,53.297
928.00,53.257
929.00,53.231
930.00,53.153
931.00,53.267
932.00,53.146
933.00,53.194
934.00,53.133
935.00,53.136
936.00,53.100
937.00,53.068
938.00,53.082
939.00,53.072
940.00,53.040
941.00,53.028
942.00,53.046
943.00,53.012
944.00,52.945
945.00,52.949
946.00,53.018
947.00,52.938
948.00,52.924
949.00,52.906
950.00,52.873
951.00,52.842
952.00,52.833
953.00,52.775
954.00,52.752
955.00,52.719
956.00,52.715
957.00,52.681
958.00,52.707
959.00,52.643
960.00,52.636
961.00,52.604
962.00,52.612
963.00,52.572
964.00,52.585
965.00,52.556
966.00,52.559
967.00,52.541
968.00,52.527
969.00,52.556
970.00,52.517
971.00,52.553
972.00,52.509
973.00,52.525
974.00,52.550
975.00,52.533
976.00,52.527
977.00,52.420
978.00,52.554
979.00,52.516
980.00,52.543
981.00,52.527
982.00,52.530
983.00,52.522
984.00,52.492
985.00,52.519
986.00,52.481
987.00,52.492
988.00,52.456
989.00,52.451
990.00,52.435
991.00,52.405
992.00,52.464
993.00,52.419
994.00,52.417
995.00,52.382
996.00,52.410
997.00,52.374
998.00,52.342
999.00,52.362
1000.00,52.304
1001.00,52.313
1002.00,52.289
1003.00,52.299
1004.00,52.276
1005.00,52.253
1006.00,52.275
1007.00,52.248
1008.00,52.231
1009.00,52.206
1010.00,52.223
1011.00,52.226
1012.00,52.191
1013.00,52.189
1014.00,52.158
1015.00,52.180
1016.00,52.133
1017.00,52.113
1018.00,52.104
1019.00,52.064
1020.00,52.059
1021.00,52.046
1022.00,52.022
1023.00,51.987
1024.00,52.004
1025.00,51.986
1026.00,51.986
1027.00,51.954
1028.00,51.949
1029.00,51.944
1030.00,51.909
1031.00,51.906
1032.00,51.881
1033.00,51.875
1034.00,51.851
1035.00,51.806
1036.00,51.786
1037.00,51.786
1038.00,51.767
1039.00,51.730
1040.00,51.742
1041.00,51.697
1042.00,51.682
1043.00,51.674
1044.00,51.683
1045.00,51.670
1046.00,51.655
1047.00,51.668
1048.00,51.683
1049.00,51.689
1050.00,51.689
1051.00,51.738
1052.00,51.745
1053.00,51.762
1054.00,51.749
1055.00,51.756
1056.00,51.740
1057.00,51.776
1058.00,51.755
1059.00,51.756
1060.00,51.758
1061.00,51.717
1062.00,51.729
1063.00,51.735
1064.00,51.723
1065.00,51.716
1066.00,51.701
1067.00,51.699
1068.00,51.713
1069.00,51.673
1070.00,51.654
1071.00,51.642
1072.00,51.658
1073.00,51.652
1074.00,51.637
1075.00,51.629
1076.00,51.633
1077.00,51.599
1078.00,51.587
1079.00,51.587
1080.00,51.582
1081.00,51.567
1082.00,51.564
1083.00,51.557
1084.00,51.543
1085.00,51.518
1086.00,51.536
1087.00,51.547
1088.00,51.515
1089.00,51.499
1090.00,51.504
1091.00,51.492
1092.00,51.489
1093.00,51.478
1094.00,51.450
1095.00,51.454
1096.00,51.444
1097.00,51.425
1098.00,51.433
1099.00,51.435
1100.00,51.404
1101.00,51.400
1102.00,51.388
1103.00,51.391
1104.00,51.374
1105.00,51.357
1106.00,51.352
1107.00,51.330
1108.00,51.323
1109.00,51.321
1110.00,51.306
1111.00,51.322
1112.00,51.308
1113.00,51.280
1114.00,51.281
1115.00,51.286
1116.00,51.270
1117.00,51.257
1118.00,51.248
1119.00,51.242
1120.00,51.253
1121.00,51.239
1122.00,51.227
1123.00,51.244
1124.00,51.217
1125.00,51.227
1126.00,51.230
1127.00,51.207
1128.00,51.194
1129.00,51.152
1130.00,51.153
1131.00,51.152
1132.00,51.139
1133.00,51.155
1134.00,51.125
1135.00,51.127
1136.00,51.127
1137.00,51.136
1138.00,51.116
1139.00,51.135
1140.00,51.121
1141.00,51.112
1142.00,51.115
1143.00,51.125
1144.00,51.094
1145.00,51.080
1146.00,51.085
1147.00,51.085
1148.00,51.077
1149.00,51.078
1150.00,51.090
1151.00,51.084
1152.00,51.059
1153.00,51.076
1154.00,51.055
1155.00,51.055
1156.00,51.039
1157.00,51.047
1158.00,51.056
1159.00,51.057
1160.00,51.045
1161.00,51.039
1162.00,51.019
1163.00,51.014
1164.00,51.027
1165.00,51.024
1166.00,51.032
1167.00,51.028
1168.00,51.030
1169.00,51.026
1170.00,51.019
1171.00,50.987
1172.00,51.006
1173.00,50.977
1174.00,50.984
1175.00,51.007
1176.00,50.986
1177.00,50.977
1178.00,50.994
1179.00,51.000
1180.00,50.995
1181.00,51.001
1182.00,50.990
1183.00,51.007
1184.00,51.003
1185.00,51.004
1186.00,51.005
1187.00,50.993
1188.00,50.978
1189.00,50.995
1190.00,50.975
1191.00,50.971
1192.00,50.989
1193.00,50.967
1194.00,50.988
1195.00,50.953
1196.00,50.979
1197.00,50.983
1198.00,50.963
1199.00,50.958
1200.00,50.971
1201.00,50.980
1202.00,50.963
1203.00,50.959
1204.00,50.934
1205.00,50.969
1206.00,50.947
1207.00,50.934
1208.00,50.929
1209.00,50.935
1210.00,50.943
1211.00,50.948
1212.00,50.948
1213.00,50.924
1214.00,50.950
1215.00,50.931
1216.00,50.952
1217.00,50.940
1218.00,50.938
1219.00,50.962
1220.00,50.936
1221.00,50.962
1222.00,50.934
1223.00,50.943
1224.00,50.944
1225.00,50.927
1226.00,50.925
1227.00,50.928
1228.00,50.934
1229.00,50.930
1230.00,50.967
1231.00,50.953
1232.00,50.979
1233.00,50.987
1234.00,50.964
1235.00,50.980
1236.00,51.006
1237.00,50.966
1238.00,50.976
1239.00,50.970
1240.00,50.956
1241.00,50.973
1242.00,50.979
1243.00,51.011
1244.00,50.985
1245.00,51.008
1246.00,51.036
1247.00,51.023
1248.00,51.003
1249.00,51.026
1250.00,51.036
1251.00,51.008
1252.00,51.018
1253.00,50.993
1254.00,51.029
1255.00,51.032
1256.00,50.995
1257.00,51.000
1258.00,51.036
1259.00,51.019
1260.00,51.051
1261.00,51.048
1262.00,51.038
1263.00,51.040
1264.00,51.033
1265.00,51.039
1266.00,51.041
1267.00,51.035
1268.00,51.053
1269.00,51.043
1270.00,51.068
1271.00,51.086
1272.00,51.081
1273.00,51.096
1274.00,51.096
1275.00,51.095
1276.00,51.100
1277.00,51.104
1278.00,51.112
1279.00,51.121
1280.00,51.117
1281.00,51.109
1282.00,51.127
1283.00,51.117
1284.00,51.117
1285.00,51.118
1286.00,51.126
1287.00,51.132
1288.00,51.142
1289.00,51.128
1290.00,51.166
1291.00,51.160
1292.00,51.147
1293.00,51.158
1294.00,51.156
1295.00,51.201
1296.00,51.211
1297.00,51.188
1298.00,51.205
1299.00,51.186
1300.00,51.184
1301.00,51.194
1302.00,51.212
1303.00,51.208
1304.00,51.197
1305.00,51.229
1306.00,51.226
1307.00,51.240
1308.00,51.233
1309.00,51.250
1310.00,51.255
1311.00,51.222
1312.00,51.242
1313.00,51.255
1314.00,51.260
1315.00,51.271
1316.00,51.266
1317.00,51.280
1318.00,51.272
1319.00,51.267
1320.00,51.294
1321.00,51.452
1322.00,51.431
1323.00,51.437
1324.00,51.427
1325.00,51.411
1326.00,51.443
1327.00,51.425
1328.00,51.419
1329.00,51.435
1330.00,51.430
1331.00,51.437
1332.00,51.422
1333.00,51.424
1334.00,51.436
1335.00,51.461
1336.00,51.474
1337.00,51.532
1338.00,51.571
1339.00,51.624
1340.00,51.688
1341.00,51.742
1342.00,51.817
1343.00,51.862
1344.00,51.900
1345.00,51.975
1346.00,52.008
1347.00,52.010
1348.00,52.041
1349.00,52.050
1350.00,52.064
1351.00,52.097
1352.00,52.100
1353.00,52.232
1354.00,52.112
1355.00,52.052
1356.00,52.144
1357.00,52.135
1358.00,52.120
1359.00,52.213
1360.00,52.164
1361.00,52.086
1362.00,52.067
1363.00,52.223
1364.00,52.259
1365.00,52.166
1366.00,52.098
1367.00,52.083
1368.00,52.107
1369.00,52.148
1370.00,52.127
1371.00,52.063
1372.00,52.124
1373.00,52.141
1374.00,52.135
1375.00,52.127
1376.00,52.123
1377.00,52.121
1378.00,52.119
1379.00,52.137
1380.00,52.096
1381.00,52.081
1382.00,52.121
1383.00,52.115
1384.00,52.077
1385.00,52.082
1386.00,52.109
1387.00,52.066
1388.00,52.045
1389.00,52.054
1390.00,52.132
1391.00,52.089
1392.00,52.111
1393.00,52.074
1394.00,52.103
1395.00,52.064
1396.00,52.021
1397.00,52.016
1398.00,52.135
1399.00,52.156
1400.00,52.023
1401.00,52.056
1402.00,51.752
1403.00,52.151
1404.00,52.097
1405.00,52.131
1406.00,52.138
1407.00,52.161
1408.00,52.188
1409.00,52.135
1410.00,52.168
1411.00,52.185
1412.00,52.201
1413.00,52.106
1414.00,52.154
1415.00,52.187
1416.00,52.218
1417.00,52.269
1418.00,52.205
1419.00,52.211
1420.00,52.262
1421.00,52.276
1422.00,52.252
1423.00,52.270
1424.00,52.275
1425.00,52.304
1426.00,52.311
1427.00,52.328
1428.00,52.335
1429.00,52.344
1430.00,52.369
1431.00,52.364
1432.00,52.383
1433.00,52.424
1434.00,52.401
1435.00,52.427
1436.00,52.453
1437.00,52.439
1438.00,52.457
1439.00,52.490
1440.00,52.493
1441.00,52.495
1442.00,52.532
1443.00,52.551
1444.00,52.539
1445.00,52.561
1446.00,52.564
1447.00,52.629
1448.00,52.652
1449.00,52.594
1450.00,52.594
1451.00,52.649
1452.00,52.677
1453.00,52.677
1454.00,52.674
1455.00,52.720
1456.00,52.725
1457.00,52.713
1458.00,52.756
1459.00,52.754
1460.00,52.770
1461.00,52.793
1462.00,52.830
1463.00,52.818
1464.00,52.831
1465.00,52.840
1466.00,52.859
1467.00,52.871
1468.00,52.921
1469.00,52.910
1470.00,52.917
1471.00,52.929
1472.00,52.941
1473.00,52.939
1474.00,52.980
1475.00,52.990
1476.00,52.979
1477.00,52.993
1478.00,53.010
1479.00,53.008
1480.00,53.026
1481.00,53.037
1482.00,53.065
1483.00,53.083
1484.00,53.085
1485.00,53.107
1486.00,53.100
1487.00,53.106
1488.00,53.140
1489.00,53.140
1490.00,53.150
1491.00,53.160
1492.00,53.177
1493.00,53.154
1494.00,53.191
1495.00,53.178
1496.00,53.216
1497.00,53.205
1498.00,53.208
1499.00,53.250
1500.00,53.254
1501.00, 
1502.00, 
1503.00, 
1504.00, 
1505.00, 
1506.00, 
1507.00, 
1508.00, 
1509.00, 
1510.00, 
1511.00, 
1512.00, 
1513.00, 
1514.00, 
1515.00, 
1516.00, 
1517.00, 
1518.00, 
1519.00, 
1520.00, 
1521.00, 
1522.00, 
1523.00, 
1524.00, 
1525.00, 
1526.00, 
1527.00, 
1528.00, 
1529.00, 
1530.00, 
1531.00, 
1532.00, 
1533.00, 
1534.00, 
1535.00, 
1536.00, 
1537.00, 
1538.00, 
1539.00, 
1540.00, 
1541.00, 
1542.00, 
1543.00, 
1544.00, 
1545.00, 
1546.00, 
1547.00, 
1548.00, 
1549.00, 
1550.00, 
1551.00, 
1552.00, 
1553.00, 
1554.00, 
1555.00, 
1556.00, 
1557.00, 
1558.00, 
1559.00, 
1560.00, 
1561.00, 
1562.00, 
1563.00, 
1564.00, 
1565.00, 
1566.00, 
1567.00, 
1568.00, 
1569.00, 
1570.00, 
1571.00, 
1572.00, 
1573.00, 
1574.00, 
1575.00, 
1576.00, 
1577.00, 
1578.00, 
1579.00, 
1580.00, 
1581.00, 
1582.00, 
1583.00, 
1584.00, 
1585.00, 
1586.00, 
1587.00, 
1588.00, 
1589.00, 
1590.00, 
1591.00, 
1592.00, 
1593.00, 
1594.00, 
1595.00, 
1596.00, 
1597.00, 
1598.00, 
1599.00, 
1600.00, 
1601.00, 
1602.00, 
1603.00, 
1604.00, 
1605.00, 
1606.00, 
1607.00, 
1608.00, 
1609.00, 
1610.00, 
1611.00, 
1612.00, 
1613.00, 
1614.00, 
1615.00, 
1616.00, 
1617.00, 
1618.00, 
1619.00, 
1620.00, 
1621.00, 
1622.00, 
1623.00, 
1624.00, 
1625.00, 
1626.00, 
1627.00, 
1628.00, 
1629.00, 
1630.00, 
1631.00, 
1632.00, 
1633.00, 
1634.00, 
1635.00, 
1636.00, 
1637.00, 
1638.00, 
1639.00, 
1640.00, 
1641.00, 
1642.00, 
1643.00, 
1644.00, 
1645.00, 
1646.00, 
1647.00, 
1648.00, 
1649.00, 
1650.00, 
1651.00, 
1652.00, 
1653.00, 
1654.00, 
1655.00, 
1656.00, 
1657.00, 
1658.00, 
1659.00, 
1660.00, 
1661.00, 
1662.00, 
1663.00, 
1664.00, 
1665.00, 
1666.00, 
1667.00, 
1668.00, 
1669.00, 
1670.00, 
1671.00, 
1672.00, 
1673.00, 
1674.00, 
1675.00, 
1676.00, 
1677.00, 
1678.00, 
1679.00, 
1680.00, 
1681.00, 
1682.00, 
1683.00, 
1684.00, 
1685.00, 
1686.00, 
1687.00, 
1688.00, 
1689.00, 
1690.00, 
1691.00, 
1692.00, 
1693.00, 
1694.00, 
1695.00, 
1696.00, 
1697.00, 
1698.00, 
1699.00, 
1700.00, 
1701.00, 
1702.00, 
1703.00, 
1704.00, 
1705.00, 
1706.00, 
1707.00, 
1708.00, 
1709.00, 
1710.00, 
1711.00, 
1712.00, 
1713.00, 
1714.00, 
1715.00, 
1716.00, 
1717.00, 
1718.00, 
1719.00, 
1720.00, 
1721.00, 
1722.00, 
1723.00, 
1724.00, 
1725.00, 
1726.00, 
1727.00, 
1728.00, 
1729.00, 
1730.00, 
1731.00, 
1732.00, 
1733.00, 
1734.00, 
1735.00, 
1736.00, 
1737.00, 
1738.00, 
1739.00, 
1740.00, 
1741.00, 
1742.00, 
1743.00, 
1744.00, 
1745.00, 
1746.00, 
1747.00, 
1748.00, 
1749.00, 
1750.00, 
1751.00, 
1752.00, 
1753.00, 
1754.00, 
1755.00, 
1756.00, 
1757.00, 
1758.00, 
1759.00, 
1760.00, 
1761.00, 
1762.00, 
1763.00, 
1764.00, 
1765.00, 
1766.00, 
1767.00, 
1768.00, 
1769.00, 
1770.00, 
1771.00, 
1772.00, 
1773.00, 
1774.00, 
1775.00, 
1776.00, 
1777.00, 
1778.00, 
1779.00, 
1780.00, 
1781.00, 
1782.00, 
1783.00, 
1784.00, 
1785.00, 
1786.00, 
1787.00, 
1788.00, 
1789.00, 
1790.00, 
1791.00, 
1792.00, 
1793.00, 
1794.00, 
1795.00, 
1796.00, 
1797.00, 
1798.00, 
1799.00, 
1800.00, 
1801.00, 
1802.00, 
1803.00, 
1804.00, 
1805.00, 
1806.00, 
1807.00, 
1808.00, 
1809.00, 
1810.00, 
1811.00, 
1812.00, 
1813.00, 
1814.00, 
1815.00, 
1816.00, 
1817.00, 
1818.00, 
1819.00, 
1820.00, 
1821.00, 
1822.00, 
1823.00, 
1824.00, 
1825.00, 
1826.00, 
1827.00, 
1828.00, 
1829.00, 
1830.00, 
1831.00, 
1832.00, 
1833.00, 
1834.00, 
1835.00, 
1836.00, 
1837.00, 
1838.00, 
1839.00, 
1840.00, 
1841.00, 
1842.00, 
1843.00, 
1844.00, 
1845.00, 
1846.00, 
1847.00, 
1848.00, 
1849.00, 
1850.00, 
1851.00, 
1852.00, 
1853.00, 
1854.00, 
1855.00, 
1856.00, 
1857.00, 
1858.00, 
1859.00, 
1860.00, 
1861.00, 
1862.00, 
1863.00, 
1864.00, 
1865.00, 
1866.00, 
1867.00, 
1868.00, 
1869.00, 
1870.00, 
1871.00, 
1872.00, 
1873.00, 
1874.00, 
1875.00, 
1876.00, 
1877.00, 
1878.00, 
1879.00, 
1880.00, 
1881.00, 
1882.00, 
1883.00, 
1884.00, 
1885.00, 
1886.00, 
1887.00, 
1888.00, 
1889.00, 
1890.00, 
1891.00, 
1892.00, 
1893.00, 
1894.00, 
1895.00, 
1896.00, 
1897.00, 
1898.00, 
1899.00, 
1900.00, 
1901.00, 
1902.00, 
1903.00, 
1904.00, 
1905.00, 
1906.00, 
1907.00, 
1908.00, 
1909.00, 
1910.00, 
1911.00, 
1912.00, 
1913.00, 
1914.00, 
1915.00, 
1916.00, 
1917.00, 
1918.00, 
1919.00, 
1920.00, 
1921.00, 
1922.00, 
1923.00, 
1924.00, 
1925.00, 
1926.00, 
1927.00, 
1928.00, 
1929.00, 
1930.00, 
1931.00, 
1932.00, 
1933.00, 
1934.00, 
1935.00, 
1936.00, 
1937.00, 
1938.00, 
1939.00, 
1940.00, 
1941.00, 
1942.00, 
1943.00, 
1944.00, 
1945.00, 
1946.00, 
1947.00, 
1948.00, 
1949.00, 
1950.00, 
1951.00, 
1952.00, 
1953.00, 
1954.00, 
1955.00, 
1956.00, 
1957.00, 
1958.00, 
1959.00, 
1960.00, 
1961.00, 
1962.00, 
1963.00, 
1964.00, 
1965.00, 
1966.00, 
1967.00, 
1968.00, 
1969.00, 
1970.00, 
1971.00, 
1972.00, 
1973.00, 
1974.00, 
1975.00, 
1976.00, 
1977.00, 
1978.00, 
1979.00, 
1980.00, 
1981.00, 
1982.00, 
1983.00, 
1984.00, 
1985.00, 
1986.00, 
1987.00, 
1988.00, 
1989.00, 
1990.00, 
1991.00, 
1992.00, 
1993.00, 
1994.00, 
1995.00, 
1996.00, 
1997.00, 
1998.00, 
1999.00, 
2000.00, 
2001.00, 
2002.00, 
2003.00, 
2004.00, 
2005.00, 
2006.00, 
2007.00, 
2008.00, 
2009.00, 
2010.00, 
2011.00, 
2012.00, 
2013.00, 
2014.00, 
2015.00, 
2016.00, 
2017.00, 
2018.00, 
2019.00, 
2020.00, 
2021.00, 
2022.00, 
2023.00, 
2024.00, 
2025.00, 
2026.00, 
2027.00, 
2028.00, 
2029.00, 
2030.00, 
2031.00, 
2032.00, 
2033.00, 
2034.00, 
2035.00, 
2036.00, 
2037.00, 
2038.00, 
2039.00, 
2040.00, 
2041.00, 
2042.00, 
2043.00, 
2044.00, 
2045.00, 
2046.00, 
2047.00, 
2048.00, 
2049.00, 
2050.00, 
2051.00, 
2052.00, 
2053.00, 
2054.00, 
2055.00, 
2056.00, 
2057.00, 
2058.00, 
2059.00, 
2060.00, 
2061.00, 
2062.00, 
2063.00, 
2064.00, 
2065.00, 
2066.00, 
2067.00, 
2068.00, 
2069.00, 
2070.00, 
2071.00, 
2072.00, 
2073.00, 
2074.00, 
2075.00, 
2076.00, 
2077.00, 
2078.00, 
2079.00, 
2080.00, 
2081.00, 
2082.00, 
2083.00, 
2084.00, 
2085.00, 
2086.00, 
2087.00, 
2088.00, 
2089.00, 
2090.00, 
2091.00, 
2092.00, 
2093.00, 
2094.00, 
2095.00, 
2096.00, 
2097.00, 
2098.00, 
2099.00, 
2100.00, 
2101.00, 
2102.00, 
2103.00, 
2104.00, 
2105.00, 
2106.00, 
2107.00, 
2108.00, 
2109.00, 
2110.00, 
2111.00, 
2112.00, 
2113.00, 
2114.00, 
2115.00, 
2116.00, 
2117.00, 
2118.00, 
2119.00, 
2120.00, 
2121.00, 
2122.00, 
2123.00, 
2124.00, 
2125.00, 
2126.00, 
2127.00, 
2128.00, 
2129.00, 
2130.00, 
2131.00, 
2132.00, 
2133.00, 
2134.00, 
2135.00, 
2136.00, 
2137.00, 
2138.00, 
2139.00, 
2140.00, 
2141.00, 
2142.00, 
2143.00, 
2144.00, 
2145.00, 
2146.00, 
2147.00, 
2148.00, 
2149.00, 
2150.00, 
2151.00, 
2152.00, 
2153.00, 
2154.00, 
2155.00, 
2156.00, 
2157.00, 
2158.00, 
2159.00, 
2160.00, 
2161.00, 
2162.00, 
2163.00, 
2164.00, 
2165.00, 
2166.00, 
2167.00, 
2168.00, 
2169.00, 
2170.00, 
2171.00, 
2172.00, 
2173.00, 
2174.00, 
2175.00, 
2176.00, 
2177.00, 
2178.00, 
2179.00, 
2180.00, 
2181.00, 
2182.00, 
2183.00, 
2184.00, 
2185.00, 
2186.00, 
2187.00, 
2188.00, 
2189.00, 
2190.00, 
2191.00, 
2192.00, 
2193.00, 
2194.00, 
2195.00, 
2196.00, 
2197.00, 
2198.00, 
2199.00, 
2200.00, 
2201.00, 
2202.00, 
2203.00, 
2204.00, 
2205.00, 
2206.00, 
2207.00, 
2208.00, 
2209.00, 
2210.00, 
2211.00, 
2212.00, 
2213.00, 
2214.00, 
2215.00, 
2216.00, 
2217.00, 
2218.00, 
2219.00, 
2220.00, 
2221.00, 
2222.00, 
2223.00, 
2224.00, 
2225.00, 
2226.00, 
2227.00, 
2228.00, 
2229.00, 
2230.00, 
2231.00, 
2232.00, 
2233.00, 
2234.00, 
2235.00, 
2236.00, 
2237.00, 
2238.00, 
2239.00, 
2240.00, 
2241.00, 
2242.00, 
2243.00, 
2244.00, 
2245.00, 
2246.00, 
2247.00, 
2248.00, 
2249.00, 
2250.00, 
2251.00, 
2252.00, 
2253.00, 
2254.00, 
2255.00, 
2256.00, 
2257.00, 
2258.00, 
2259.00, 
2260.00, 
2261.00, 
2262.00, 
2263.00, 
2264.00, 
2265.00, 
2266.00, 
2267.00, 
2268.00, 
2269.00, 
2270.00, 
2271.00, 
2272.00, 
2273.00, 
2274.00, 
2275.00, 
2276.00, 
2277.00, 
2278.00, 
2279.00, 
2280.00, 
2281.00, 
2282.00, 
2283.00, 
2284.00, 
2285.00, 
2286.00, 
2287.00, 
2288.00, 
2289.00, 
2290.00, 
2291.00, 
2292.00, 
2293.00, 
2294.00, 
2295.00, 
2296.00, 
2297.00, 
2298.00, 
2299.00, 
2300.00, 
2301.00, 
2302.00, 
2303.00, 
2304.00, 
2305.00, 
2306.00, 
2307.00, 
2308.00, 
2309.00, 
2310.00, 
2311.00, 
2312.00, 
2313.00, 
2314.00, 
2315.00, 
2316.00, 
2317.00, 
2318.00, 
2319.00, 
2320.00, 
2321.00, 
2322.00, 
2323.00, 
2324.00, 
2325.00, 
2326.00, 
2327.00, 
2328.00, 
2329.00, 
2330.00, 
2331.00, 
2332.00, 
2333.00, 
2334.00, 
2335.00, 
2336.00, 
2337.00, 
2338.00, 
2339.00, 
2340.00, 
2341.00, 
2342.00, 
2343.00, 
2344.00, 
2345.00, 
2346.00, 
2347.00, 
2348.00, 
2349.00, 
2350.00, 
2351.00, 
2352.00, 
2353.00, 
2354.00, 
2355.00, 
2356.00, 
2357.00, 
2358.00, 
2359.00, 
2360.00, 
2361.00, 
2362.00, 
2363.00, 
2364.00, 
2365.00, 
2366.00, 
2367.00, 
2368.00, 
2369.00, 
2370.00, 
2371.00, 
2372.00, 
2373.00, 
2374.00, 
2375.00, 
2376.00, 
2377.00, 
2378.00, 
2379.00, 
2380.00, 
2381.00, 
2382.00, 
2383.00, 
2384.00, 
2385.00, 
2386.00, 
2387.00, 
2388.00, 
2389.00, 
2390.00, 
2391.00, 
2392.00, 
2393.00, 
2394.00, 
2395.00, 
2396.00, 
2397.00, 
2398.00, 
2399.00, 
2400.00, 
2401.00, 
2402.00, 
2403.00, 
2404.00, 
2405.00, 
2406.00, 
2407.00, 
2408.00, 
2409.00, 
2410.00, 
2411.00, 
2412.00, 
2413.00, 
2414.00, 
2415.00, 
2416.00, 
2417.00, 
2418.00, 
2419.00, 
2420.00, 
2421.00, 
2422.00, 
2423.00, 
2424.00, 
2425.00, 
2426.00, 
2427.00, 
2428.00, 
2429.00, 
2430.00, 
2431.00, 
2432.00, 
2433.00, 
2434.00, 
2435.00, 
2436.00, 
2437.00, 
2438.00, 
2439.00, 
2440.00, 
2441.00, 
2442.00, 
2443.00, 
2444.00, 
2445.00, 
2446.00, 
2447.00, 
2448.00, 
2449.00, 
2450.00, 
2451.00, 
2452.00, 
2453.00, 
2454.00, 
2455.00, 
2456.00, 
2457.00, 
2458.00, 
2459.00, 
2460.00, 
2461.00, 
2462.00, 
2463.00, 
2464.00, 
2465.00, 
2466.00, 
2467.00, 
2468.00, 
2469.00, 
2470.00, 
2471.00, 
2472.00, 
2473.00, 
2474.00, 
2475.00, 
2476.00, 
2477.00, 
2478.00, 
2479.00, 
2480.00, 
2481.00, 
2482.00, 
2483.00, 
2484.00, 
2485.00, 
2486.00, 
2487.00, 
2488.00, 
2489.00, 
2490.00, 
2491.00, 
2492.00, 
2493.00, 
2494.00, 
2495.00, 
2496.00, 
2497.00, 
2498.00, 
2499.00, 
2500.00, 
2501.00, 
2502.00, 
2503.00, 
2504.00, 
2505.00, 
2506.00, 
2507.00, 
2508.00, 
2509.00, 
2510.00, 
2511.00, 
2512.00, 
2513.00, 
2514.00, 
2515.00, 
2516.00, 
2517.00, 
2518.00, 
2519.00, 
2520.00, 
2521.00, 
2522.00, 
2523.00, 
2524.00, 
2525.00, 
2526.00, 
2527.00, 
2528.00, 
2529.00, 
2530.00, 
2531.00, 
2532.00, 
2533.00, 
2534.00, 
2535.00, 
2536.00, 
2537.00, 
2538.00, 
2539.00, 
2540.00, 
2541.00, 
2542.00, 
2543.00, 
2544.00, 
2545.00, 
2546.00, 
2547.00, 
2548.00, 
2549.00, 
2550.00, 
2551.00, 
2552.00, 
2553.00, 
2554.00, 
2555.00, 
2556.00, 
2557.00, 
2558.00, 
2559.00, 
2560.00, 
2561.00, 
2562.00, 
2563.00, 
2564.00, 
2565.00, 
2566.00, 
2567.00, 
2568.00, 
2569.00, 
2570.00, 
2571.00, 
2572.00, 
2573.00, 
2574.00, 
2575.00, 
2576.00, 
2577.00, 
2578.00, 
2579.00, 
2580.00, 
2581.00, 
2582.00, 
2583.00, 
2584.00, 
2585.00, 
2586.00, 
2587.00, 
2588.00, 
2589.00, 
2590.00, 
2591.00, 
2592.00, 
2593.00, 
2594.00, 
2595.00, 
2596.00, 
2597.00, 
2598.00, 
2599.00, 
2600.00, 
